"1aP2 - RawData"
"Wavelength nm.","T%"
200.00,0.002
201.00,0.001
202.00,0.001
203.00,0.002
204.00,-0.001
205.00,0.001
206.00,0.001
207.00,-0.000
208.00,0.003
209.00,0.002
210.00,0.002
211.00,0.001
212.00,0.001
213.00,0.003
214.00,0.002
215.00,-0.000
216.00,0.003
217.00,0.001
218.00,-0.001
219.00,0.002
220.00,0.002
221.00,0.002
222.00,0.003
223.00,0.004
224.00,-0.002
225.00,0.000
226.00,-0.001
227.00,0.001
228.00,0.000
229.00,0.002
230.00,0.001
231.00,0.001
232.00,0.002
233.00,0.000
234.00,-0.002
235.00,0.001
236.00,-0.000
237.00,0.001
238.00,-0.001
239.00,0.002
240.00,0.002
241.00,0.001
242.00,-0.001
243.00,0.000
244.00,0.002
245.00,0.001
246.00,-0.001
247.00,0.000
248.00,0.000
249.00,0.000
250.00,0.001
251.00,-0.000
252.00,0.002
253.00,0.000
254.00,0.000
255.00,-0.001
256.00,0.001
257.00,-0.000
258.00,0.001
259.00,0.001
260.00,0.000
261.00,-0.000
262.00,0.000
263.00,0.001
264.00,0.001
265.00,0.001
266.00,0.001
267.00,-0.000
268.00,-0.001
269.00,0.001
270.00,-0.000
271.00,0.000
272.00,0.001
273.00,0.000
274.00,-0.001
275.00,0.001
276.00,0.001
277.00,-0.002
278.00,0.001
279.00,-0.000
280.00,0.000
281.00,-0.001
282.00,0.001
283.00,0.001
284.00,0.000
285.00,0.002
286.00,-0.000
287.00,0.001
288.00,0.001
289.00,-0.000
290.00,0.000
291.00,0.001
292.00,0.001
293.00,-0.000
294.00,0.001
295.00,0.001
296.00,0.003
297.00,0.000
298.00,0.001
299.00,0.002
300.00,0.003
301.00,0.005
302.00,0.007
303.00,0.012
304.00,0.020
305.00,0.029
306.00,0.045
307.00,0.069
308.00,0.105
309.00,0.162
310.00,0.219
311.00,0.300
312.00,0.399
313.00,0.550
314.00,0.715
315.00,0.929
316.00,1.182
317.00,1.488
318.00,1.802
319.00,2.204
320.00,2.661
321.00,3.151
322.00,3.716
323.00,4.357
324.00,5.016
325.00,5.657
326.00,6.327
327.00,7.103
328.00,7.904
329.00,8.663
330.00,9.502
331.00,10.286
332.00,11.108
333.00,12.013
334.00,12.792
335.00,13.623
336.00,14.460
337.00,15.262
338.00,16.090
339.00,16.760
340.00,17.515
341.00,18.218
342.00,18.887
343.00,19.547
344.00,20.154
345.00,20.821
346.00,21.298
347.00,21.787
348.00,22.310
349.00,22.681
350.00,23.159
351.00,23.525
352.00,23.885
353.00,24.232
354.00,24.571
355.00,24.868
356.00,25.155
357.00,25.382
358.00,25.607
359.00,25.887
360.00,26.067
361.00,26.172
362.00,26.379
363.00,26.589
364.00,26.699
365.00,26.847
366.00,26.900
367.00,26.966
368.00,27.052
369.00,27.047
370.00,27.157
371.00,27.139
372.00,27.111
373.00,27.175
374.00,27.136
375.00,27.104
376.00,27.025
377.00,27.004
378.00,26.913
379.00,26.837
380.00,26.763
381.00,26.769
382.00,26.788
383.00,26.773
384.00,26.832
385.00,26.863
386.00,26.868
387.00,26.918
388.00,26.986
389.00,26.996
390.00,27.065
391.00,27.077
392.00,27.093
393.00,27.115
394.00,27.116
395.00,27.151
396.00,27.109
397.00,27.136
398.00,27.167
399.00,27.161
400.00,27.202
401.00,27.151
402.00,27.190
403.00,27.176
404.00,27.250
405.00,27.153
406.00,27.091
407.00,27.110
408.00,27.084
409.00,26.996
410.00,26.956
411.00,26.929
412.00,26.897
413.00,26.919
414.00,26.918
415.00,26.917
416.00,26.979
417.00,26.972
418.00,27.032
419.00,27.098
420.00,27.082
421.00,27.159
422.00,27.218
423.00,27.207
424.00,27.256
425.00,27.295
426.00,27.320
427.00,27.375
428.00,27.408
429.00,27.457
430.00,27.501
431.00,27.570
432.00,27.580
433.00,27.632
434.00,27.716
435.00,27.783
436.00,27.864
437.00,27.913
438.00,28.003
439.00,28.062
440.00,28.132
441.00,28.201
442.00,28.284
443.00,28.339
444.00,28.474
445.00,28.525
446.00,28.630
447.00,28.732
448.00,28.851
449.00,28.968
450.00,29.067
451.00,29.144
452.00,29.247
453.00,29.349
454.00,29.465
455.00,29.580
456.00,29.679
457.00,29.804
458.00,29.903
459.00,30.021
460.00,30.156
461.00,30.333
462.00,30.380
463.00,30.488
464.00,30.663
465.00,30.768
466.00,30.884
467.00,31.055
468.00,31.141
469.00,31.282
470.00,31.331
471.00,31.455
472.00,31.587
473.00,31.638
474.00,31.754
475.00,31.905
476.00,31.978
477.00,32.109
478.00,32.211
479.00,32.357
480.00,32.493
481.00,32.623
482.00,32.814
483.00,32.898
484.00,33.029
485.00,33.249
486.00,33.362
487.00,33.513
488.00,33.625
489.00,33.804
490.00,33.943
491.00,34.029
492.00,34.296
493.00,34.373
494.00,34.388
495.00,34.545
496.00,34.697
497.00,34.769
498.00,34.961
499.00,35.093
500.00,35.184
501.00,35.317
502.00,35.414
503.00,35.543
504.00,35.584
505.00,35.683
506.00,35.874
507.00,35.955
508.00,35.988
509.00,36.190
510.00,36.279
511.00,36.377
512.00,36.456
513.00,36.649
514.00,36.770
515.00,36.852
516.00,36.933
517.00,37.068
518.00,37.140
519.00,37.273
520.00,37.341
521.00,37.412
522.00,37.524
523.00,37.531
524.00,37.655
525.00,37.772
526.00,37.842
527.00,37.946
528.00,38.011
529.00,38.138
530.00,38.205
531.00,38.351
532.00,38.408
533.00,38.525
534.00,38.598
535.00,38.634
536.00,38.739
537.00,38.714
538.00,38.876
539.00,38.948
540.00,38.985
541.00,39.024
542.00,39.062
543.00,39.120
544.00,39.230
545.00,39.253
546.00,39.280
547.00,39.421
548.00,39.420
549.00,39.535
550.00,39.625
551.00,39.714
552.00,39.729
553.00,39.766
554.00,39.888
555.00,39.881
556.00,39.914
557.00,39.992
558.00,40.049
559.00,40.134
560.00,40.124
561.00,40.272
562.00,40.299
563.00,40.295
564.00,40.345
565.00,40.334
566.00,40.382
567.00,40.410
568.00,40.437
569.00,40.531
570.00,40.458
571.00,40.572
572.00,40.577
573.00,40.621
574.00,40.661
575.00,40.612
576.00,40.610
577.00,40.688
578.00,40.777
579.00,40.796
580.00,40.885
581.00,40.995
582.00,41.034
583.00,41.083
584.00,41.198
585.00,41.203
586.00,41.242
587.00,41.303
588.00,41.362
589.00,41.304
590.00,41.362
591.00,41.399
592.00,41.376
593.00,41.408
594.00,41.485
595.00,41.554
596.00,41.634
597.00,41.618
598.00,41.756
599.00,41.724
600.00,41.775
601.00,41.806
602.00,41.822
603.00,41.857
604.00,41.873
605.00,41.908
606.00,41.963
607.00,41.932
608.00,42.079
609.00,42.103
610.00,42.060
611.00,42.132
612.00,42.170
613.00,42.137
614.00,42.239
615.00,42.310
616.00,42.368
617.00,42.396
618.00,42.450
619.00,42.422
620.00,42.456
621.00,42.533
622.00,42.544
623.00,42.577
624.00,42.670
625.00,42.772
626.00,42.839
627.00,42.927
628.00,42.919
629.00,42.934
630.00,42.982
631.00,42.977
632.00,43.061
633.00,43.214
634.00,43.247
635.00,43.339
636.00,43.466
637.00,43.454
638.00,43.501
639.00,43.594
640.00,43.595
641.00,43.684
642.00,43.726
643.00,43.793
644.00,43.896
645.00,43.932
646.00,44.037
647.00,44.038
648.00,44.071
649.00,44.183
650.00,44.263
651.00,44.289
652.00,44.396
653.00,44.557
654.00,44.557
655.00,44.546
656.00,44.684
657.00,44.803
658.00,44.844
659.00,44.956
660.00,44.351
661.00,44.969
662.00,45.116
663.00,45.159
664.00,45.310
665.00,45.437
666.00,45.431
667.00,45.697
668.00,45.696
669.00,45.769
670.00,45.914
671.00,45.802
672.00,45.933
673.00,46.009
674.00,46.146
675.00,46.195
676.00,46.284
677.00,46.389
678.00,46.285
679.00,46.474
680.00,46.538
681.00,46.628
682.00,46.703
683.00,46.823
684.00,46.921
685.00,46.980
686.00,46.933
687.00,47.075
688.00,47.068
689.00,47.103
690.00,47.330
691.00,47.429
692.00,47.251
693.00,47.336
694.00,47.356
695.00,47.405
696.00,47.610
697.00,47.735
698.00,47.749
699.00,47.943
700.00,48.052
701.00,48.115
702.00,48.213
703.00,48.241
704.00,48.329
705.00,48.214
706.00,48.313
707.00,48.505
708.00,48.282
709.00,48.567
710.00,48.899
711.00,48.614
712.00,48.673
713.00,48.806
714.00,48.855
715.00,48.806
716.00,48.842
717.00,49.014
718.00,49.007
719.00,49.039
720.00,49.171
721.00,53.380
722.00,53.387
723.00,53.570
724.00,53.485
725.00,53.420
726.00,53.460
727.00,53.436
728.00,53.529
729.00,53.497
730.00,53.581
731.00,53.466
732.00,53.483
733.00,53.582
734.00,53.642
735.00,53.598
736.00,53.638
737.00,53.703
738.00,53.769
739.00,53.754
740.00,53.730
741.00,53.784
742.00,53.742
743.00,53.761
744.00,53.723
745.00,53.732
746.00,53.823
747.00,53.866
748.00,53.804
749.00,53.772
750.00,53.730
751.00,53.731
752.00,53.716
753.00,53.725
754.00,53.667
755.00,53.730
756.00,53.784
757.00,53.753
758.00,53.788
759.00,53.766
760.00,53.806
761.00,53.811
762.00,53.768
763.00,53.924
764.00,53.817
765.00,53.816
766.00,53.798
767.00,53.901
768.00,53.849
769.00,53.826
770.00,53.817
771.00,53.821
772.00,53.797
773.00,53.812
774.00,53.794
775.00,53.855
776.00,53.827
777.00,53.917
778.00,53.797
779.00,53.943
780.00,53.875
781.00,53.846
782.00,53.912
783.00,53.884
784.00,53.896
785.00,53.795
786.00,53.800
787.00,53.842
788.00,53.777
789.00,53.791
790.00,53.740
791.00,53.846
792.00,53.702
793.00,53.718
794.00,53.747
795.00,53.763
796.00,53.760
797.00,53.691
798.00,53.659
799.00,53.602
800.00,53.603
801.00,53.685
802.00,53.551
803.00,53.629
804.00,53.507
805.00,53.535
806.00,53.499
807.00,53.501
808.00,53.605
809.00,53.452
810.00,53.566
811.00,53.524
812.00,53.541
813.00,53.424
814.00,53.515
815.00,53.406
816.00,53.400
817.00,53.393
818.00,53.194
819.00,53.377
820.00,53.301
821.00,53.329
822.00,53.365
823.00,53.256
824.00,53.282
825.00,53.231
826.00,53.243
827.00,53.316
828.00,53.223
829.00,53.276
830.00,53.283
831.00,55.765
832.00,55.768
833.00,55.657
834.00,55.780
835.00,55.697
836.00,55.724
837.00,55.672
838.00,55.613
839.00,55.634
840.00,55.565
841.00,55.598
842.00,55.581
843.00,55.594
844.00,55.597
845.00,55.515
846.00,55.588
847.00,55.472
848.00,55.496
849.00,55.412
850.00,55.397
851.00,55.356
852.00,55.362
853.00,55.316
854.00,55.211
855.00,55.350
856.00,55.270
857.00,55.240
858.00,55.226
859.00,55.187
860.00,55.204
861.00,55.166
862.00,55.125
863.00,55.128
864.00,55.076
865.00,55.098
866.00,55.117
867.00,55.115
868.00,55.117
869.00,55.086
870.00,55.115
871.00,55.076
872.00,55.101
873.00,55.025
874.00,55.058
875.00,54.961
876.00,55.163
877.00,54.998
878.00,54.999
879.00,54.957
880.00,54.969
881.00,54.964
882.00,54.965
883.00,54.937
884.00,54.884
885.00,54.897
886.00,54.866
887.00,54.850
888.00,54.820
889.00,54.828
890.00,54.796
891.00,54.783
892.00,54.768
893.00,54.743
894.00,54.720
895.00,54.711
896.00,54.688
897.00,54.684
898.00,54.655
899.00,54.658
900.00,54.651
901.00,54.669
902.00,54.648
903.00,54.578
904.00,54.568
905.00,54.582
906.00,54.580
907.00,54.556
908.00,54.523
909.00,54.523
910.00,54.463
911.00,54.474
912.00,54.445
913.00,54.410
914.00,54.382
915.00,54.375
916.00,54.371
917.00,54.369
918.00,54.335
919.00,54.288
920.00,54.263
921.00,54.299
922.00,54.279
923.00,54.237
924.00,54.224
925.00,54.216
926.00,54.224
927.00,54.180
928.00,54.165
929.00,54.183
930.00,54.130
931.00,54.117
932.00,54.088
933.00,54.093
934.00,54.086
935.00,54.057
936.00,54.051
937.00,54.040
938.00,54.006
939.00,54.019
940.00,53.987
941.00,53.961
942.00,53.947
943.00,53.946
944.00,53.876
945.00,53.881
946.00,54.010
947.00,53.825
948.00,53.827
949.00,53.817
950.00,53.793
951.00,53.766
952.00,53.742
953.00,53.722
954.00,53.690
955.00,53.665
956.00,53.654
957.00,53.602
958.00,53.620
959.00,53.568
960.00,53.558
961.00,53.568
962.00,53.573
963.00,53.513
964.00,53.515
965.00,53.535
966.00,53.522
967.00,53.498
968.00,53.488
969.00,53.509
970.00,53.476
971.00,53.498
972.00,53.453
973.00,53.495
974.00,53.509
975.00,53.492
976.00,53.501
977.00,53.480
978.00,53.527
979.00,53.478
980.00,53.498
981.00,53.512
982.00,53.454
983.00,53.486
984.00,53.470
985.00,53.487
986.00,53.444
987.00,53.492
988.00,53.442
989.00,53.432
990.00,53.434
991.00,53.424
992.00,53.428
993.00,53.383
994.00,53.377
995.00,53.370
996.00,53.362
997.00,53.350
998.00,53.333
999.00,53.343
1000.00,53.268
1001.00,53.292
1002.00,53.269
1003.00,53.274
1004.00,53.242
1005.00,53.210
1006.00,53.265
1007.00,53.261
1008.00,53.227
1009.00,53.211
1010.00,53.208
1011.00,53.189
1012.00,53.166
1013.00,53.172
1014.00,53.139
1015.00,53.131
1016.00,53.108
1017.00,53.132
1018.00,53.096
1019.00,53.073
1020.00,53.079
1021.00,53.049
1022.00,53.057
1023.00,53.010
1024.00,52.996
1025.00,52.982
1026.00,52.969
1027.00,52.946
1028.00,52.949
1029.00,52.926
1030.00,52.922
1031.00,52.939
1032.00,52.886
1033.00,52.890
1034.00,52.876
1035.00,52.849
1036.00,52.818
1037.00,52.796
1038.00,52.776
1039.00,52.759
1040.00,52.750
1041.00,52.737
1042.00,52.731
1043.00,52.687
1044.00,52.742
1045.00,52.713
1046.00,52.703
1047.00,52.708
1048.00,52.710
1049.00,52.719
1050.00,52.729
1051.00,52.771
1052.00,52.762
1053.00,52.779
1054.00,52.762
1055.00,52.796
1056.00,52.794
1057.00,52.803
1058.00,52.802
1059.00,52.786
1060.00,52.809
1061.00,52.803
1062.00,52.780
1063.00,52.784
1064.00,52.791
1065.00,52.781
1066.00,52.752
1067.00,52.771
1068.00,52.817
1069.00,52.761
1070.00,52.731
1071.00,52.726
1072.00,52.752
1073.00,52.719
1074.00,52.720
1075.00,52.710
1076.00,52.705
1077.00,52.692
1078.00,52.684
1079.00,52.677
1080.00,52.692
1081.00,52.662
1082.00,52.664
1083.00,52.669
1084.00,52.646
1085.00,52.652
1086.00,52.645
1087.00,52.635
1088.00,52.642
1089.00,52.625
1090.00,52.623
1091.00,52.628
1092.00,52.603
1093.00,52.590
1094.00,52.583
1095.00,52.570
1096.00,52.557
1097.00,52.568
1098.00,52.543
1099.00,52.538
1100.00,52.522
1101.00,52.522
1102.00,52.505
1103.00,52.497
1104.00,52.489
1105.00,52.489
1106.00,52.465
1107.00,52.462
1108.00,52.468
1109.00,52.452
1110.00,52.451
1111.00,52.452
1112.00,52.434
1113.00,52.421
1114.00,52.413
1115.00,52.419
1116.00,52.401
1117.00,52.372
1118.00,52.380
1119.00,52.390
1120.00,52.374
1121.00,52.386
1122.00,52.358
1123.00,52.337
1124.00,52.344
1125.00,52.327
1126.00,52.331
1127.00,52.340
1128.00,52.318
1129.00,52.305
1130.00,52.307
1131.00,52.297
1132.00,52.290
1133.00,52.286
1134.00,52.282
1135.00,52.291
1136.00,52.267
1137.00,52.270
1138.00,52.291
1139.00,52.285
1140.00,52.280
1141.00,52.292
1142.00,52.264
1143.00,52.301
1144.00,52.282
1145.00,52.257
1146.00,52.264
1147.00,52.241
1148.00,52.227
1149.00,52.241
1150.00,52.229
1151.00,52.243
1152.00,52.245
1153.00,52.244
1154.00,52.234
1155.00,52.233
1156.00,52.222
1157.00,52.225
1158.00,52.210
1159.00,52.229
1160.00,52.216
1161.00,52.222
1162.00,52.226
1163.00,52.235
1164.00,52.226
1165.00,52.222
1166.00,52.215
1167.00,52.208
1168.00,52.239
1169.00,52.213
1170.00,52.220
1171.00,52.215
1172.00,52.198
1173.00,52.207
1174.00,52.224
1175.00,52.204
1176.00,52.192
1177.00,52.188
1178.00,52.188
1179.00,52.200
1180.00,52.195
1181.00,52.216
1182.00,52.207
1183.00,52.217
1184.00,52.206
1185.00,52.221
1186.00,52.196
1187.00,52.199
1188.00,52.199
1189.00,52.214
1190.00,52.212
1191.00,52.198
1192.00,52.227
1193.00,52.213
1194.00,52.210
1195.00,52.201
1196.00,52.234
1197.00,52.211
1198.00,52.211
1199.00,52.206
1200.00,52.215
1201.00,52.231
1202.00,52.194
1203.00,52.212
1204.00,52.207
1205.00,52.216
1206.00,52.196
1207.00,52.209
1208.00,52.190
1209.00,52.206
1210.00,52.211
1211.00,52.206
1212.00,52.234
1213.00,52.182
1214.00,52.210
1215.00,52.195
1216.00,52.196
1217.00,52.212
1218.00,52.206
1219.00,52.207
1220.00,52.204
1221.00,52.217
1222.00,52.206
1223.00,52.249
1224.00,52.214
1225.00,52.208
1226.00,52.213
1227.00,52.211
1228.00,52.235
1229.00,52.230
1230.00,52.245
1231.00,52.252
1232.00,52.255
1233.00,52.265
1234.00,52.286
1235.00,52.251
1236.00,52.254
1237.00,52.249
1238.00,52.237
1239.00,52.243
1240.00,52.257
1241.00,52.260
1242.00,52.255
1243.00,52.275
1244.00,52.254
1245.00,52.290
1246.00,52.285
1247.00,52.280
1248.00,52.290
1249.00,52.289
1250.00,52.297
1251.00,52.301
1252.00,52.291
1253.00,52.292
1254.00,52.324
1255.00,52.300
1256.00,52.298
1257.00,52.289
1258.00,52.328
1259.00,52.329
1260.00,52.351
1261.00,52.360
1262.00,52.373
1263.00,52.344
1264.00,52.358
1265.00,52.363
1266.00,52.350
1267.00,52.367
1268.00,52.352
1269.00,52.352
1270.00,52.387
1271.00,52.372
1272.00,52.396
1273.00,52.426
1274.00,52.408
1275.00,52.417
1276.00,52.416
1277.00,52.430
1278.00,52.447
1279.00,52.432
1280.00,52.424
1281.00,52.455
1282.00,52.451
1283.00,52.440
1284.00,52.458
1285.00,52.440
1286.00,52.454
1287.00,52.454
1288.00,52.468
1289.00,52.460
1290.00,52.474
1291.00,52.482
1292.00,52.495
1293.00,52.493
1294.00,52.513
1295.00,52.526
1296.00,52.512
1297.00,52.525
1298.00,52.553
1299.00,52.525
1300.00,52.543
1301.00,52.526
1302.00,52.562
1303.00,52.571
1304.00,52.543
1305.00,52.575
1306.00,52.577
1307.00,52.566
1308.00,52.574
1309.00,52.581
1310.00,52.574
1311.00,52.560
1312.00,52.565
1313.00,52.567
1314.00,52.598
1315.00,52.599
1316.00,52.610
1317.00,52.644
1318.00,52.636
1319.00,52.646
1320.00,52.642
1321.00,52.802
1322.00,52.783
1323.00,52.759
1324.00,52.778
1325.00,52.762
1326.00,52.784
1327.00,52.772
1328.00,52.783
1329.00,52.762
1330.00,52.780
1331.00,52.790
1332.00,52.788
1333.00,52.784
1334.00,52.809
1335.00,52.826
1336.00,52.865
1337.00,52.857
1338.00,52.948
1339.00,53.000
1340.00,53.033
1341.00,53.080
1342.00,53.138
1343.00,53.187
1344.00,53.245
1345.00,53.299
1346.00,53.326
1347.00,53.374
1348.00,53.359
1349.00,53.414
1350.00,53.424
1351.00,53.441
1352.00,53.441
1353.00,53.509
1354.00,53.487
1355.00,53.465
1356.00,53.537
1357.00,53.474
1358.00,53.475
1359.00,53.434
1360.00,53.529
1361.00,53.674
1362.00,53.402
1363.00,53.608
1364.00,53.757
1365.00,53.532
1366.00,53.604
1367.00,53.577
1368.00,53.369
1369.00,53.489
1370.00,53.474
1371.00,53.474
1372.00,53.498
1373.00,53.521
1374.00,53.527
1375.00,53.495
1376.00,53.476
1377.00,53.449
1378.00,53.535
1379.00,53.491
1380.00,53.528
1381.00,53.537
1382.00,53.538
1383.00,53.516
1384.00,53.466
1385.00,53.439
1386.00,53.493
1387.00,53.407
1388.00,53.564
1389.00,53.476
1390.00,53.457
1391.00,53.519
1392.00,53.425
1393.00,53.451
1394.00,53.454
1395.00,53.440
1396.00,53.502
1397.00,53.391
1398.00,53.443
1399.00,53.469
1400.00,53.472
1401.00,53.393
1402.00,53.530
1403.00,53.505
1404.00,53.406
1405.00,53.533
1406.00,53.536
1407.00,53.511
1408.00,53.528
1409.00,53.330
1410.00,53.557
1411.00,53.503
1412.00,53.600
1413.00,53.574
1414.00,53.548
1415.00,53.577
1416.00,53.604
1417.00,53.584
1418.00,53.588
1419.00,53.613
1420.00,53.620
1421.00,53.653
1422.00,53.629
1423.00,53.667
1424.00,53.675
1425.00,53.683
1426.00,53.669
1427.00,53.698
1428.00,53.685
1429.00,53.722
1430.00,53.719
1431.00,53.726
1432.00,53.760
1433.00,53.771
1434.00,53.769
1435.00,53.835
1436.00,53.810
1437.00,53.820
1438.00,53.843
1439.00,53.857
1440.00,53.874
1441.00,53.887
1442.00,53.876
1443.00,53.920
1444.00,53.970
1445.00,53.942
1446.00,53.966
1447.00,53.974
1448.00,54.014
1449.00,54.041
1450.00,54.031
1451.00,54.060
1452.00,54.073
1453.00,54.078
1454.00,54.090
1455.00,54.101
1456.00,54.110
1457.00,54.131
1458.00,54.118
1459.00,54.149
1460.00,54.169
1461.00,54.163
1462.00,54.208
1463.00,54.215
1464.00,54.223
1465.00,54.253
1466.00,54.237
1467.00,54.244
1468.00,54.316
1469.00,54.269
1470.00,54.296
1471.00,54.325
1472.00,54.306
1473.00,54.325
1474.00,54.355
1475.00,54.375
1476.00,54.390
1477.00,54.367
1478.00,54.378
1479.00,54.417
1480.00,54.378
1481.00,54.407
1482.00,54.452
1483.00,54.436
1484.00,54.463
1485.00,54.464
1486.00,54.485
1487.00,54.502
1488.00,54.505
1489.00,54.532
1490.00,54.535
1491.00,54.539
1492.00,54.569
1493.00,54.538
1494.00,54.570
1495.00,54.572
1496.00,54.595
1497.00,54.576
1498.00,54.592
1499.00,54.605
1500.00,54.619
1501.00, 
1502.00, 
1503.00, 
1504.00, 
1505.00, 
1506.00, 
1507.00, 
1508.00, 
1509.00, 
1510.00, 
1511.00, 
1512.00, 
1513.00, 
1514.00, 
1515.00, 
1516.00, 
1517.00, 
1518.00, 
1519.00, 
1520.00, 
1521.00, 
1522.00, 
1523.00, 
1524.00, 
1525.00, 
1526.00, 
1527.00, 
1528.00, 
1529.00, 
1530.00, 
1531.00, 
1532.00, 
1533.00, 
1534.00, 
1535.00, 
1536.00, 
1537.00, 
1538.00, 
1539.00, 
1540.00, 
1541.00, 
1542.00, 
1543.00, 
1544.00, 
1545.00, 
1546.00, 
1547.00, 
1548.00, 
1549.00, 
1550.00, 
1551.00, 
1552.00, 
1553.00, 
1554.00, 
1555.00, 
1556.00, 
1557.00, 
1558.00, 
1559.00, 
1560.00, 
1561.00, 
1562.00, 
1563.00, 
1564.00, 
1565.00, 
1566.00, 
1567.00, 
1568.00, 
1569.00, 
1570.00, 
1571.00, 
1572.00, 
1573.00, 
1574.00, 
1575.00, 
1576.00, 
1577.00, 
1578.00, 
1579.00, 
1580.00, 
1581.00, 
1582.00, 
1583.00, 
1584.00, 
1585.00, 
1586.00, 
1587.00, 
1588.00, 
1589.00, 
1590.00, 
1591.00, 
1592.00, 
1593.00, 
1594.00, 
1595.00, 
1596.00, 
1597.00, 
1598.00, 
1599.00, 
1600.00, 
1601.00, 
1602.00, 
1603.00, 
1604.00, 
1605.00, 
1606.00, 
1607.00, 
1608.00, 
1609.00, 
1610.00, 
1611.00, 
1612.00, 
1613.00, 
1614.00, 
1615.00, 
1616.00, 
1617.00, 
1618.00, 
1619.00, 
1620.00, 
1621.00, 
1622.00, 
1623.00, 
1624.00, 
1625.00, 
1626.00, 
1627.00, 
1628.00, 
1629.00, 
1630.00, 
1631.00, 
1632.00, 
1633.00, 
1634.00, 
1635.00, 
1636.00, 
1637.00, 
1638.00, 
1639.00, 
1640.00, 
1641.00, 
1642.00, 
1643.00, 
1644.00, 
1645.00, 
1646.00, 
1647.00, 
1648.00, 
1649.00, 
1650.00, 
1651.00, 
1652.00, 
1653.00, 
1654.00, 
1655.00, 
1656.00, 
1657.00, 
1658.00, 
1659.00, 
1660.00, 
1661.00, 
1662.00, 
1663.00, 
1664.00, 
1665.00, 
1666.00, 
1667.00, 
1668.00, 
1669.00, 
1670.00, 
1671.00, 
1672.00, 
1673.00, 
1674.00, 
1675.00, 
1676.00, 
1677.00, 
1678.00, 
1679.00, 
1680.00, 
1681.00, 
1682.00, 
1683.00, 
1684.00, 
1685.00, 
1686.00, 
1687.00, 
1688.00, 
1689.00, 
1690.00, 
1691.00, 
1692.00, 
1693.00, 
1694.00, 
1695.00, 
1696.00, 
1697.00, 
1698.00, 
1699.00, 
1700.00, 
1701.00, 
1702.00, 
1703.00, 
1704.00, 
1705.00, 
1706.00, 
1707.00, 
1708.00, 
1709.00, 
1710.00, 
1711.00, 
1712.00, 
1713.00, 
1714.00, 
1715.00, 
1716.00, 
1717.00, 
1718.00, 
1719.00, 
1720.00, 
1721.00, 
1722.00, 
1723.00, 
1724.00, 
1725.00, 
1726.00, 
1727.00, 
1728.00, 
1729.00, 
1730.00, 
1731.00, 
1732.00, 
1733.00, 
1734.00, 
1735.00, 
1736.00, 
1737.00, 
1738.00, 
1739.00, 
1740.00, 
1741.00, 
1742.00, 
1743.00, 
1744.00, 
1745.00, 
1746.00, 
1747.00, 
1748.00, 
1749.00, 
1750.00, 
1751.00, 
1752.00, 
1753.00, 
1754.00, 
1755.00, 
1756.00, 
1757.00, 
1758.00, 
1759.00, 
1760.00, 
1761.00, 
1762.00, 
1763.00, 
1764.00, 
1765.00, 
1766.00, 
1767.00, 
1768.00, 
1769.00, 
1770.00, 
1771.00, 
1772.00, 
1773.00, 
1774.00, 
1775.00, 
1776.00, 
1777.00, 
1778.00, 
1779.00, 
1780.00, 
1781.00, 
1782.00, 
1783.00, 
1784.00, 
1785.00, 
1786.00, 
1787.00, 
1788.00, 
1789.00, 
1790.00, 
1791.00, 
1792.00, 
1793.00, 
1794.00, 
1795.00, 
1796.00, 
1797.00, 
1798.00, 
1799.00, 
1800.00, 
1801.00, 
1802.00, 
1803.00, 
1804.00, 
1805.00, 
1806.00, 
1807.00, 
1808.00, 
1809.00, 
1810.00, 
1811.00, 
1812.00, 
1813.00, 
1814.00, 
1815.00, 
1816.00, 
1817.00, 
1818.00, 
1819.00, 
1820.00, 
1821.00, 
1822.00, 
1823.00, 
1824.00, 
1825.00, 
1826.00, 
1827.00, 
1828.00, 
1829.00, 
1830.00, 
1831.00, 
1832.00, 
1833.00, 
1834.00, 
1835.00, 
1836.00, 
1837.00, 
1838.00, 
1839.00, 
1840.00, 
1841.00, 
1842.00, 
1843.00, 
1844.00, 
1845.00, 
1846.00, 
1847.00, 
1848.00, 
1849.00, 
1850.00, 
1851.00, 
1852.00, 
1853.00, 
1854.00, 
1855.00, 
1856.00, 
1857.00, 
1858.00, 
1859.00, 
1860.00, 
1861.00, 
1862.00, 
1863.00, 
1864.00, 
1865.00, 
1866.00, 
1867.00, 
1868.00, 
1869.00, 
1870.00, 
1871.00, 
1872.00, 
1873.00, 
1874.00, 
1875.00, 
1876.00, 
1877.00, 
1878.00, 
1879.00, 
1880.00, 
1881.00, 
1882.00, 
1883.00, 
1884.00, 
1885.00, 
1886.00, 
1887.00, 
1888.00, 
1889.00, 
1890.00, 
1891.00, 
1892.00, 
1893.00, 
1894.00, 
1895.00, 
1896.00, 
1897.00, 
1898.00, 
1899.00, 
1900.00, 
1901.00, 
1902.00, 
1903.00, 
1904.00, 
1905.00, 
1906.00, 
1907.00, 
1908.00, 
1909.00, 
1910.00, 
1911.00, 
1912.00, 
1913.00, 
1914.00, 
1915.00, 
1916.00, 
1917.00, 
1918.00, 
1919.00, 
1920.00, 
1921.00, 
1922.00, 
1923.00, 
1924.00, 
1925.00, 
1926.00, 
1927.00, 
1928.00, 
1929.00, 
1930.00, 
1931.00, 
1932.00, 
1933.00, 
1934.00, 
1935.00, 
1936.00, 
1937.00, 
1938.00, 
1939.00, 
1940.00, 
1941.00, 
1942.00, 
1943.00, 
1944.00, 
1945.00, 
1946.00, 
1947.00, 
1948.00, 
1949.00, 
1950.00, 
1951.00, 
1952.00, 
1953.00, 
1954.00, 
1955.00, 
1956.00, 
1957.00, 
1958.00, 
1959.00, 
1960.00, 
1961.00, 
1962.00, 
1963.00, 
1964.00, 
1965.00, 
1966.00, 
1967.00, 
1968.00, 
1969.00, 
1970.00, 
1971.00, 
1972.00, 
1973.00, 
1974.00, 
1975.00, 
1976.00, 
1977.00, 
1978.00, 
1979.00, 
1980.00, 
1981.00, 
1982.00, 
1983.00, 
1984.00, 
1985.00, 
1986.00, 
1987.00, 
1988.00, 
1989.00, 
1990.00, 
1991.00, 
1992.00, 
1993.00, 
1994.00, 
1995.00, 
1996.00, 
1997.00, 
1998.00, 
1999.00, 
2000.00, 
2001.00, 
2002.00, 
2003.00, 
2004.00, 
2005.00, 
2006.00, 
2007.00, 
2008.00, 
2009.00, 
2010.00, 
2011.00, 
2012.00, 
2013.00, 
2014.00, 
2015.00, 
2016.00, 
2017.00, 
2018.00, 
2019.00, 
2020.00, 
2021.00, 
2022.00, 
2023.00, 
2024.00, 
2025.00, 
2026.00, 
2027.00, 
2028.00, 
2029.00, 
2030.00, 
2031.00, 
2032.00, 
2033.00, 
2034.00, 
2035.00, 
2036.00, 
2037.00, 
2038.00, 
2039.00, 
2040.00, 
2041.00, 
2042.00, 
2043.00, 
2044.00, 
2045.00, 
2046.00, 
2047.00, 
2048.00, 
2049.00, 
2050.00, 
2051.00, 
2052.00, 
2053.00, 
2054.00, 
2055.00, 
2056.00, 
2057.00, 
2058.00, 
2059.00, 
2060.00, 
2061.00, 
2062.00, 
2063.00, 
2064.00, 
2065.00, 
2066.00, 
2067.00, 
2068.00, 
2069.00, 
2070.00, 
2071.00, 
2072.00, 
2073.00, 
2074.00, 
2075.00, 
2076.00, 
2077.00, 
2078.00, 
2079.00, 
2080.00, 
2081.00, 
2082.00, 
2083.00, 
2084.00, 
2085.00, 
2086.00, 
2087.00, 
2088.00, 
2089.00, 
2090.00, 
2091.00, 
2092.00, 
2093.00, 
2094.00, 
2095.00, 
2096.00, 
2097.00, 
2098.00, 
2099.00, 
2100.00, 
2101.00, 
2102.00, 
2103.00, 
2104.00, 
2105.00, 
2106.00, 
2107.00, 
2108.00, 
2109.00, 
2110.00, 
2111.00, 
2112.00, 
2113.00, 
2114.00, 
2115.00, 
2116.00, 
2117.00, 
2118.00, 
2119.00, 
2120.00, 
2121.00, 
2122.00, 
2123.00, 
2124.00, 
2125.00, 
2126.00, 
2127.00, 
2128.00, 
2129.00, 
2130.00, 
2131.00, 
2132.00, 
2133.00, 
2134.00, 
2135.00, 
2136.00, 
2137.00, 
2138.00, 
2139.00, 
2140.00, 
2141.00, 
2142.00, 
2143.00, 
2144.00, 
2145.00, 
2146.00, 
2147.00, 
2148.00, 
2149.00, 
2150.00, 
2151.00, 
2152.00, 
2153.00, 
2154.00, 
2155.00, 
2156.00, 
2157.00, 
2158.00, 
2159.00, 
2160.00, 
2161.00, 
2162.00, 
2163.00, 
2164.00, 
2165.00, 
2166.00, 
2167.00, 
2168.00, 
2169.00, 
2170.00, 
2171.00, 
2172.00, 
2173.00, 
2174.00, 
2175.00, 
2176.00, 
2177.00, 
2178.00, 
2179.00, 
2180.00, 
2181.00, 
2182.00, 
2183.00, 
2184.00, 
2185.00, 
2186.00, 
2187.00, 
2188.00, 
2189.00, 
2190.00, 
2191.00, 
2192.00, 
2193.00, 
2194.00, 
2195.00, 
2196.00, 
2197.00, 
2198.00, 
2199.00, 
2200.00, 
2201.00, 
2202.00, 
2203.00, 
2204.00, 
2205.00, 
2206.00, 
2207.00, 
2208.00, 
2209.00, 
2210.00, 
2211.00, 
2212.00, 
2213.00, 
2214.00, 
2215.00, 
2216.00, 
2217.00, 
2218.00, 
2219.00, 
2220.00, 
2221.00, 
2222.00, 
2223.00, 
2224.00, 
2225.00, 
2226.00, 
2227.00, 
2228.00, 
2229.00, 
2230.00, 
2231.00, 
2232.00, 
2233.00, 
2234.00, 
2235.00, 
2236.00, 
2237.00, 
2238.00, 
2239.00, 
2240.00, 
2241.00, 
2242.00, 
2243.00, 
2244.00, 
2245.00, 
2246.00, 
2247.00, 
2248.00, 
2249.00, 
2250.00, 
2251.00, 
2252.00, 
2253.00, 
2254.00, 
2255.00, 
2256.00, 
2257.00, 
2258.00, 
2259.00, 
2260.00, 
2261.00, 
2262.00, 
2263.00, 
2264.00, 
2265.00, 
2266.00, 
2267.00, 
2268.00, 
2269.00, 
2270.00, 
2271.00, 
2272.00, 
2273.00, 
2274.00, 
2275.00, 
2276.00, 
2277.00, 
2278.00, 
2279.00, 
2280.00, 
2281.00, 
2282.00, 
2283.00, 
2284.00, 
2285.00, 
2286.00, 
2287.00, 
2288.00, 
2289.00, 
2290.00, 
2291.00, 
2292.00, 
2293.00, 
2294.00, 
2295.00, 
2296.00, 
2297.00, 
2298.00, 
2299.00, 
2300.00, 
2301.00, 
2302.00, 
2303.00, 
2304.00, 
2305.00, 
2306.00, 
2307.00, 
2308.00, 
2309.00, 
2310.00, 
2311.00, 
2312.00, 
2313.00, 
2314.00, 
2315.00, 
2316.00, 
2317.00, 
2318.00, 
2319.00, 
2320.00, 
2321.00, 
2322.00, 
2323.00, 
2324.00, 
2325.00, 
2326.00, 
2327.00, 
2328.00, 
2329.00, 
2330.00, 
2331.00, 
2332.00, 
2333.00, 
2334.00, 
2335.00, 
2336.00, 
2337.00, 
2338.00, 
2339.00, 
2340.00, 
2341.00, 
2342.00, 
2343.00, 
2344.00, 
2345.00, 
2346.00, 
2347.00, 
2348.00, 
2349.00, 
2350.00, 
2351.00, 
2352.00, 
2353.00, 
2354.00, 
2355.00, 
2356.00, 
2357.00, 
2358.00, 
2359.00, 
2360.00, 
2361.00, 
2362.00, 
2363.00, 
2364.00, 
2365.00, 
2366.00, 
2367.00, 
2368.00, 
2369.00, 
2370.00, 
2371.00, 
2372.00, 
2373.00, 
2374.00, 
2375.00, 
2376.00, 
2377.00, 
2378.00, 
2379.00, 
2380.00, 
2381.00, 
2382.00, 
2383.00, 
2384.00, 
2385.00, 
2386.00, 
2387.00, 
2388.00, 
2389.00, 
2390.00, 
2391.00, 
2392.00, 
2393.00, 
2394.00, 
2395.00, 
2396.00, 
2397.00, 
2398.00, 
2399.00, 
2400.00, 
2401.00, 
2402.00, 
2403.00, 
2404.00, 
2405.00, 
2406.00, 
2407.00, 
2408.00, 
2409.00, 
2410.00, 
2411.00, 
2412.00, 
2413.00, 
2414.00, 
2415.00, 
2416.00, 
2417.00, 
2418.00, 
2419.00, 
2420.00, 
2421.00, 
2422.00, 
2423.00, 
2424.00, 
2425.00, 
2426.00, 
2427.00, 
2428.00, 
2429.00, 
2430.00, 
2431.00, 
2432.00, 
2433.00, 
2434.00, 
2435.00, 
2436.00, 
2437.00, 
2438.00, 
2439.00, 
2440.00, 
2441.00, 
2442.00, 
2443.00, 
2444.00, 
2445.00, 
2446.00, 
2447.00, 
2448.00, 
2449.00, 
2450.00, 
2451.00, 
2452.00, 
2453.00, 
2454.00, 
2455.00, 
2456.00, 
2457.00, 
2458.00, 
2459.00, 
2460.00, 
2461.00, 
2462.00, 
2463.00, 
2464.00, 
2465.00, 
2466.00, 
2467.00, 
2468.00, 
2469.00, 
2470.00, 
2471.00, 
2472.00, 
2473.00, 
2474.00, 
2475.00, 
2476.00, 
2477.00, 
2478.00, 
2479.00, 
2480.00, 
2481.00, 
2482.00, 
2483.00, 
2484.00, 
2485.00, 
2486.00, 
2487.00, 
2488.00, 
2489.00, 
2490.00, 
2491.00, 
2492.00, 
2493.00, 
2494.00, 
2495.00, 
2496.00, 
2497.00, 
2498.00, 
2499.00, 
2500.00, 
2501.00, 
2502.00, 
2503.00, 
2504.00, 
2505.00, 
2506.00, 
2507.00, 
2508.00, 
2509.00, 
2510.00, 
2511.00, 
2512.00, 
2513.00, 
2514.00, 
2515.00, 
2516.00, 
2517.00, 
2518.00, 
2519.00, 
2520.00, 
2521.00, 
2522.00, 
2523.00, 
2524.00, 
2525.00, 
2526.00, 
2527.00, 
2528.00, 
2529.00, 
2530.00, 
2531.00, 
2532.00, 
2533.00, 
2534.00, 
2535.00, 
2536.00, 
2537.00, 
2538.00, 
2539.00, 
2540.00, 
2541.00, 
2542.00, 
2543.00, 
2544.00, 
2545.00, 
2546.00, 
2547.00, 
2548.00, 
2549.00, 
2550.00, 
2551.00, 
2552.00, 
2553.00, 
2554.00, 
2555.00, 
2556.00, 
2557.00, 
2558.00, 
2559.00, 
2560.00, 
2561.00, 
2562.00, 
2563.00, 
2564.00, 
2565.00, 
2566.00, 
2567.00, 
2568.00, 
2569.00, 
2570.00, 
2571.00, 
2572.00, 
2573.00, 
2574.00, 
2575.00, 
2576.00, 
2577.00, 
2578.00, 
2579.00, 
2580.00, 
2581.00, 
2582.00, 
2583.00, 
2584.00, 
2585.00, 
2586.00, 
2587.00, 
2588.00, 
2589.00, 
2590.00, 
2591.00, 
2592.00, 
2593.00, 
2594.00, 
2595.00, 
2596.00, 
2597.00, 
2598.00, 
2599.00, 
2600.00, 
