"1cP3 - RawData"
"Wavelength nm.","T%"
200.00,-0.000
201.00,-0.002
202.00,-0.003
203.00,0.005
204.00,0.001
205.00,0.003
206.00,-0.000
207.00,0.004
208.00,0.003
209.00,-0.000
210.00,0.000
211.00,-0.000
212.00,-0.001
213.00,0.001
214.00,0.003
215.00,0.000
216.00,0.001
217.00,-0.001
218.00,-0.000
219.00,0.000
220.00,0.000
221.00,0.002
222.00,-0.003
223.00,0.001
224.00,0.001
225.00,0.000
226.00,-0.000
227.00,0.002
228.00,-0.000
229.00,-0.000
230.00,0.000
231.00,0.001
232.00,0.001
233.00,0.002
234.00,-0.000
235.00,-0.001
236.00,0.003
237.00,0.000
238.00,0.001
239.00,0.001
240.00,0.000
241.00,0.000
242.00,0.001
243.00,0.001
244.00,-0.000
245.00,-0.002
246.00,0.004
247.00,0.000
248.00,0.001
249.00,0.000
250.00,0.000
251.00,-0.001
252.00,-0.000
253.00,-0.001
254.00,0.000
255.00,-0.001
256.00,0.001
257.00,-0.000
258.00,0.001
259.00,0.000
260.00,0.001
261.00,-0.001
262.00,0.000
263.00,-0.001
264.00,0.000
265.00,0.001
266.00,-0.001
267.00,-0.000
268.00,-0.001
269.00,-0.000
270.00,-0.000
271.00,0.000
272.00,0.000
273.00,-0.001
274.00,0.000
275.00,-0.000
276.00,0.000
277.00,0.000
278.00,-0.000
279.00,0.001
280.00,0.000
281.00,-0.001
282.00,0.001
283.00,-0.001
284.00,-0.000
285.00,0.000
286.00,0.002
287.00,0.001
288.00,-0.003
289.00,0.000
290.00,-0.001
291.00,0.001
292.00,0.001
293.00,0.000
294.00,0.000
295.00,0.001
296.00,-0.000
297.00,-0.001
298.00,-0.001
299.00,-0.000
300.00,0.002
301.00,-0.000
302.00,0.001
303.00,0.001
304.00,0.002
305.00,0.001
306.00,0.002
307.00,0.003
308.00,0.009
309.00,0.013
310.00,0.018
311.00,0.030
312.00,0.040
313.00,0.071
314.00,0.107
315.00,0.153
316.00,0.222
317.00,0.316
318.00,0.427
319.00,0.582
320.00,0.765
321.00,0.995
322.00,1.255
323.00,1.615
324.00,2.012
325.00,2.456
326.00,2.909
327.00,3.465
328.00,4.058
329.00,4.675
330.00,5.342
331.00,6.028
332.00,6.791
333.00,7.621
334.00,8.428
335.00,9.285
336.00,10.130
337.00,11.011
338.00,11.886
339.00,12.659
340.00,13.506
341.00,14.333
342.00,15.108
343.00,15.915
344.00,16.667
345.00,17.477
346.00,18.142
347.00,18.803
348.00,19.386
349.00,19.965
350.00,20.514
351.00,21.065
352.00,21.544
353.00,22.015
354.00,22.509
355.00,22.948
356.00,23.351
357.00,23.684
358.00,24.014
359.00,24.439
360.00,24.735
361.00,24.922
362.00,25.204
363.00,25.504
364.00,25.616
365.00,25.832
366.00,25.979
367.00,26.106
368.00,26.254
369.00,26.322
370.00,26.463
371.00,26.478
372.00,26.491
373.00,26.505
374.00,26.530
375.00,26.531
376.00,26.398
377.00,26.283
378.00,26.234
379.00,26.135
380.00,26.156
381.00,26.155
382.00,26.163
383.00,26.246
384.00,26.274
385.00,26.426
386.00,26.490
387.00,26.537
388.00,26.713
389.00,26.696
390.00,26.841
391.00,26.931
392.00,26.975
393.00,27.022
394.00,27.100
395.00,27.165
396.00,27.134
397.00,27.216
398.00,27.207
399.00,27.240
400.00,27.254
401.00,27.247
402.00,27.267
403.00,27.289
404.00,27.357
405.00,27.233
406.00,27.234
407.00,27.193
408.00,27.159
409.00,27.110
410.00,27.030
411.00,27.067
412.00,27.016
413.00,27.009
414.00,26.972
415.00,26.988
416.00,27.054
417.00,26.972
418.00,27.014
419.00,27.108
420.00,27.167
421.00,27.157
422.00,27.192
423.00,27.210
424.00,27.244
425.00,27.280
426.00,27.271
427.00,27.364
428.00,27.361
429.00,27.402
430.00,27.456
431.00,27.474
432.00,27.508
433.00,27.444
434.00,27.596
435.00,27.653
436.00,27.690
437.00,27.769
438.00,27.812
439.00,27.877
440.00,27.935
441.00,27.974
442.00,28.056
443.00,28.117
444.00,28.213
445.00,28.274
446.00,28.397
447.00,28.427
448.00,28.529
449.00,28.663
450.00,28.750
451.00,28.833
452.00,28.898
453.00,29.011
454.00,29.071
455.00,29.179
456.00,29.299
457.00,29.394
458.00,29.467
459.00,29.574
460.00,29.778
461.00,29.909
462.00,29.915
463.00,30.053
464.00,30.171
465.00,30.268
466.00,30.369
467.00,30.537
468.00,30.583
469.00,30.674
470.00,30.775
471.00,30.839
472.00,30.943
473.00,31.011
474.00,31.104
475.00,31.214
476.00,31.317
477.00,31.418
478.00,31.487
479.00,31.647
480.00,31.785
481.00,31.901
482.00,32.044
483.00,32.182
484.00,32.313
485.00,32.433
486.00,32.577
487.00,32.732
488.00,32.816
489.00,32.975
490.00,33.133
491.00,33.187
492.00,33.465
493.00,33.569
494.00,33.461
495.00,33.663
496.00,33.669
497.00,33.847
498.00,33.997
499.00,34.143
500.00,34.220
501.00,34.359
502.00,34.481
503.00,34.568
504.00,34.611
505.00,34.729
506.00,34.893
507.00,34.935
508.00,34.998
509.00,35.170
510.00,35.303
511.00,35.374
512.00,35.525
513.00,35.663
514.00,35.736
515.00,35.886
516.00,35.951
517.00,36.107
518.00,36.148
519.00,36.230
520.00,36.278
521.00,36.377
522.00,36.457
523.00,36.466
524.00,36.594
525.00,36.718
526.00,36.786
527.00,36.888
528.00,36.948
529.00,37.205
530.00,37.323
531.00,37.370
532.00,37.434
533.00,37.561
534.00,37.642
535.00,37.706
536.00,37.764
537.00,37.849
538.00,37.941
539.00,37.974
540.00,38.079
541.00,38.110
542.00,38.152
543.00,38.218
544.00,38.314
545.00,38.352
546.00,38.394
547.00,38.549
548.00,38.597
549.00,38.663
550.00,38.741
551.00,38.869
552.00,38.878
553.00,38.908
554.00,39.001
555.00,39.024
556.00,39.136
557.00,39.188
558.00,39.237
559.00,39.323
560.00,39.409
561.00,39.461
562.00,39.518
563.00,39.544
564.00,39.600
565.00,39.605
566.00,39.646
567.00,39.671
568.00,39.741
569.00,39.799
570.00,39.830
571.00,39.867
572.00,39.908
573.00,39.862
574.00,39.946
575.00,39.941
576.00,39.900
577.00,40.028
578.00,40.119
579.00,40.170
580.00,40.228
581.00,40.364
582.00,40.439
583.00,40.406
584.00,40.523
585.00,40.602
586.00,40.669
587.00,40.698
588.00,40.729
589.00,40.652
590.00,40.789
591.00,40.860
592.00,40.690
593.00,40.701
594.00,40.902
595.00,40.990
596.00,41.059
597.00,41.037
598.00,41.060
599.00,40.934
600.00,41.209
601.00,41.308
602.00,41.267
603.00,41.271
604.00,41.341
605.00,41.425
606.00,41.374
607.00,41.391
608.00,41.591
609.00,41.694
610.00,41.347
611.00,41.524
612.00,41.646
613.00,41.655
614.00,41.688
615.00,41.720
616.00,41.888
617.00,41.867
618.00,41.846
619.00,41.914
620.00,41.899
621.00,41.959
622.00,42.115
623.00,42.129
624.00,42.107
625.00,42.201
626.00,42.251
627.00,42.349
628.00,42.332
629.00,42.360
630.00,42.373
631.00,42.411
632.00,42.532
633.00,42.612
634.00,42.686
635.00,42.710
636.00,42.783
637.00,42.825
638.00,42.889
639.00,42.999
640.00,42.924
641.00,42.996
642.00,43.012
643.00,43.114
644.00,43.226
645.00,43.259
646.00,43.379
647.00,43.421
648.00,43.416
649.00,43.486
650.00,43.487
651.00,43.633
652.00,43.710
653.00,43.759
654.00,43.705
655.00,43.904
656.00,44.057
657.00,43.817
658.00,43.992
659.00,44.100
660.00,44.125
661.00,44.148
662.00,44.199
663.00,44.261
664.00,44.520
665.00,44.704
666.00,44.474
667.00,44.613
668.00,44.581
669.00,44.817
670.00,45.000
671.00,44.850
672.00,44.907
673.00,44.967
674.00,45.074
675.00,45.076
676.00,45.284
677.00,45.398
678.00,45.121
679.00,45.276
680.00,45.153
681.00,45.435
682.00,45.395
683.00,45.525
684.00,45.623
685.00,45.646
686.00,45.609
687.00,45.666
688.00,45.710
689.00,45.738
690.00,46.012
691.00,46.263
692.00,45.845
693.00,45.977
694.00,46.097
695.00,46.116
696.00,46.249
697.00,46.202
698.00,46.227
699.00,46.405
700.00,46.575
701.00,46.481
702.00,46.549
703.00,46.715
704.00,46.712
705.00,46.620
706.00,46.665
707.00,46.734
708.00,46.605
709.00,47.090
710.00,47.386
711.00,46.789
712.00,46.936
713.00,47.017
714.00,47.028
715.00,46.960
716.00,46.991
717.00,47.268
718.00,47.183
719.00,47.139
720.00,47.219
721.00,51.938
722.00,52.025
723.00,52.088
724.00,51.988
725.00,52.028
726.00,51.979
727.00,51.955
728.00,52.042
729.00,52.023
730.00,52.030
731.00,51.965
732.00,51.993
733.00,52.023
734.00,52.061
735.00,52.014
736.00,52.039
737.00,52.060
738.00,52.227
739.00,52.103
740.00,52.093
741.00,52.083
742.00,52.115
743.00,52.093
744.00,52.054
745.00,52.042
746.00,52.099
747.00,52.131
748.00,52.078
749.00,51.962
750.00,51.927
751.00,51.910
752.00,51.970
753.00,51.919
754.00,51.881
755.00,51.908
756.00,51.887
757.00,51.855
758.00,51.894
759.00,51.866
760.00,51.881
761.00,51.980
762.00,51.856
763.00,51.924
764.00,51.811
765.00,51.895
766.00,51.857
767.00,51.883
768.00,51.880
769.00,51.839
770.00,51.861
771.00,51.879
772.00,51.891
773.00,51.817
774.00,51.788
775.00,51.845
776.00,51.821
777.00,51.784
778.00,51.759
779.00,51.866
780.00,51.805
781.00,51.810
782.00,51.830
783.00,51.754
784.00,51.778
785.00,51.674
786.00,51.704
787.00,51.644
788.00,51.626
789.00,51.623
790.00,51.576
791.00,51.640
792.00,51.536
793.00,51.498
794.00,51.547
795.00,51.547
796.00,51.557
797.00,51.399
798.00,51.417
799.00,51.344
800.00,51.314
801.00,51.403
802.00,51.305
803.00,51.382
804.00,51.266
805.00,51.301
806.00,51.236
807.00,51.151
808.00,51.319
809.00,51.172
810.00,51.178
811.00,51.167
812.00,51.236
813.00,51.124
814.00,51.117
815.00,51.089
816.00,51.081
817.00,51.055
818.00,50.972
819.00,51.007
820.00,50.895
821.00,50.951
822.00,50.998
823.00,50.869
824.00,50.883
825.00,50.903
826.00,50.852
827.00,50.855
828.00,50.885
829.00,50.873
830.00,50.884
831.00,53.162
832.00,53.202
833.00,53.164
834.00,53.122
835.00,53.102
836.00,53.113
837.00,53.048
838.00,53.010
839.00,53.027
840.00,52.954
841.00,52.997
842.00,52.950
843.00,52.955
844.00,52.920
845.00,52.827
846.00,52.928
847.00,52.826
848.00,52.853
849.00,52.751
850.00,52.735
851.00,52.679
852.00,52.678
853.00,52.680
854.00,52.595
855.00,52.570
856.00,52.537
857.00,52.526
858.00,52.506
859.00,52.444
860.00,52.471
861.00,52.454
862.00,52.387
863.00,52.385
864.00,52.527
865.00,52.353
866.00,52.364
867.00,52.362
868.00,52.356
869.00,52.304
870.00,52.312
871.00,52.272
872.00,52.251
873.00,52.234
874.00,52.252
875.00,52.213
876.00,52.229
877.00,52.196
878.00,52.198
879.00,52.159
880.00,52.134
881.00,52.148
882.00,52.142
883.00,52.116
884.00,52.063
885.00,52.061
886.00,52.007
887.00,52.006
888.00,51.984
889.00,51.965
890.00,51.935
891.00,51.916
892.00,51.909
893.00,51.874
894.00,51.865
895.00,51.869
896.00,51.837
897.00,51.851
898.00,51.783
899.00,51.791
900.00,51.780
901.00,51.752
902.00,51.748
903.00,51.712
904.00,51.704
905.00,51.696
906.00,51.707
907.00,51.664
908.00,51.618
909.00,51.618
910.00,51.576
911.00,51.572
912.00,51.544
913.00,51.507
914.00,51.480
915.00,51.465
916.00,51.473
917.00,51.433
918.00,51.389
919.00,51.401
920.00,51.355
921.00,51.344
922.00,51.337
923.00,51.296
924.00,51.291
925.00,51.243
926.00,51.251
927.00,51.223
928.00,51.201
929.00,51.213
930.00,51.168
931.00,51.162
932.00,51.123
933.00,51.116
934.00,51.114
935.00,51.101
936.00,51.072
937.00,51.032
938.00,51.015
939.00,51.000
940.00,50.986
941.00,50.949
942.00,50.932
943.00,50.934
944.00,50.895
945.00,50.896
946.00,50.876
947.00,50.814
948.00,50.828
949.00,50.821
950.00,50.786
951.00,50.761
952.00,50.725
953.00,50.704
954.00,50.680
955.00,50.634
956.00,50.620
957.00,50.590
958.00,50.605
959.00,50.557
960.00,50.543
961.00,50.547
962.00,50.539
963.00,50.465
964.00,50.495
965.00,50.582
966.00,50.468
967.00,50.451
968.00,50.439
969.00,50.461
970.00,50.442
971.00,50.446
972.00,50.410
973.00,50.454
974.00,50.449
975.00,50.430
976.00,50.447
977.00,50.425
978.00,50.458
979.00,50.403
980.00,50.436
981.00,50.443
982.00,50.400
983.00,50.423
984.00,50.392
985.00,50.401
986.00,50.363
987.00,50.391
988.00,50.357
989.00,50.353
990.00,50.340
991.00,50.327
992.00,50.351
993.00,50.306
994.00,50.290
995.00,50.307
996.00,50.278
997.00,50.261
998.00,50.249
999.00,50.251
1000.00,50.177
1001.00,50.210
1002.00,50.183
1003.00,50.178
1004.00,50.149
1005.00,50.118
1006.00,50.153
1007.00,50.111
1008.00,50.113
1009.00,50.097
1010.00,50.101
1011.00,50.089
1012.00,50.066
1013.00,50.072
1014.00,50.043
1015.00,50.043
1016.00,50.004
1017.00,50.018
1018.00,49.971
1019.00,49.935
1020.00,49.927
1021.00,49.914
1022.00,49.915
1023.00,49.874
1024.00,49.876
1025.00,49.860
1026.00,49.836
1027.00,49.810
1028.00,49.830
1029.00,49.800
1030.00,49.785
1031.00,49.798
1032.00,49.754
1033.00,49.769
1034.00,49.749
1035.00,49.714
1036.00,49.692
1037.00,49.664
1038.00,49.646
1039.00,49.626
1040.00,49.614
1041.00,49.584
1042.00,49.602
1043.00,49.558
1044.00,49.596
1045.00,49.583
1046.00,49.541
1047.00,49.551
1048.00,49.549
1049.00,49.566
1050.00,49.577
1051.00,49.615
1052.00,49.611
1053.00,49.623
1054.00,49.609
1055.00,49.654
1056.00,49.671
1057.00,49.654
1058.00,49.649
1059.00,49.635
1060.00,49.639
1061.00,49.626
1062.00,49.607
1063.00,49.637
1064.00,49.635
1065.00,49.607
1066.00,49.602
1067.00,49.600
1068.00,49.620
1069.00,49.596
1070.00,49.559
1071.00,49.542
1072.00,49.580
1073.00,49.540
1074.00,49.535
1075.00,49.518
1076.00,49.521
1077.00,49.509
1078.00,49.513
1079.00,49.513
1080.00,49.508
1081.00,49.490
1082.00,49.483
1083.00,49.489
1084.00,49.470
1085.00,49.472
1086.00,49.467
1087.00,49.451
1088.00,49.437
1089.00,49.432
1090.00,49.428
1091.00,49.446
1092.00,49.425
1093.00,49.421
1094.00,49.396
1095.00,49.378
1096.00,49.375
1097.00,49.374
1098.00,49.351
1099.00,49.346
1100.00,49.338
1101.00,49.330
1102.00,49.322
1103.00,49.317
1104.00,49.288
1105.00,49.296
1106.00,49.279
1107.00,49.277
1108.00,49.263
1109.00,49.259
1110.00,49.280
1111.00,49.259
1112.00,49.230
1113.00,49.220
1114.00,49.204
1115.00,49.206
1116.00,49.205
1117.00,49.188
1118.00,49.172
1119.00,49.170
1120.00,49.161
1121.00,49.178
1122.00,49.161
1123.00,49.139
1124.00,49.159
1125.00,49.154
1126.00,49.138
1127.00,49.150
1128.00,49.117
1129.00,49.101
1130.00,49.091
1131.00,49.086
1132.00,49.086
1133.00,49.079
1134.00,49.075
1135.00,49.093
1136.00,49.076
1137.00,49.096
1138.00,49.076
1139.00,49.073
1140.00,49.067
1141.00,49.074
1142.00,49.054
1143.00,49.083
1144.00,49.053
1145.00,49.046
1146.00,49.054
1147.00,49.039
1148.00,49.034
1149.00,49.053
1150.00,49.040
1151.00,49.053
1152.00,49.041
1153.00,48.994
1154.00,48.996
1155.00,49.007
1156.00,48.993
1157.00,49.023
1158.00,49.019
1159.00,49.028
1160.00,49.023
1161.00,49.018
1162.00,49.014
1163.00,49.003
1164.00,48.991
1165.00,49.004
1166.00,49.028
1167.00,49.004
1168.00,49.023
1169.00,49.003
1170.00,49.001
1171.00,49.004
1172.00,48.997
1173.00,49.010
1174.00,49.016
1175.00,48.994
1176.00,48.998
1177.00,48.997
1178.00,48.994
1179.00,49.020
1180.00,49.008
1181.00,49.022
1182.00,49.016
1183.00,49.004
1184.00,49.002
1185.00,49.013
1186.00,48.983
1187.00,49.001
1188.00,48.999
1189.00,48.987
1190.00,48.986
1191.00,48.975
1192.00,48.997
1193.00,48.990
1194.00,48.991
1195.00,48.982
1196.00,49.023
1197.00,49.003
1198.00,49.008
1199.00,48.998
1200.00,48.993
1201.00,49.017
1202.00,48.983
1203.00,48.990
1204.00,48.986
1205.00,48.996
1206.00,48.984
1207.00,48.992
1208.00,48.975
1209.00,48.987
1210.00,48.995
1211.00,48.987
1212.00,49.018
1213.00,48.983
1214.00,48.988
1215.00,48.984
1216.00,48.983
1217.00,48.996
1218.00,48.985
1219.00,48.996
1220.00,48.982
1221.00,48.994
1222.00,48.973
1223.00,49.005
1224.00,48.990
1225.00,48.987
1226.00,48.992
1227.00,48.982
1228.00,48.999
1229.00,49.010
1230.00,49.025
1231.00,49.036
1232.00,49.059
1233.00,49.044
1234.00,49.060
1235.00,49.037
1236.00,49.034
1237.00,49.043
1238.00,49.022
1239.00,49.043
1240.00,49.040
1241.00,49.044
1242.00,49.059
1243.00,49.084
1244.00,49.066
1245.00,49.097
1246.00,49.098
1247.00,49.083
1248.00,49.088
1249.00,49.092
1250.00,49.107
1251.00,49.100
1252.00,49.092
1253.00,49.102
1254.00,49.147
1255.00,49.125
1256.00,49.110
1257.00,49.108
1258.00,49.144
1259.00,49.140
1260.00,49.159
1261.00,49.163
1262.00,49.169
1263.00,49.145
1264.00,49.168
1265.00,49.175
1266.00,49.163
1267.00,49.189
1268.00,49.175
1269.00,49.170
1270.00,49.192
1271.00,49.192
1272.00,49.207
1273.00,49.241
1274.00,49.228
1275.00,49.244
1276.00,49.235
1277.00,49.238
1278.00,49.255
1279.00,49.240
1280.00,49.218
1281.00,49.250
1282.00,49.259
1283.00,49.272
1284.00,49.293
1285.00,49.266
1286.00,49.294
1287.00,49.277
1288.00,49.275
1289.00,49.269
1290.00,49.294
1291.00,49.289
1292.00,49.298
1293.00,49.290
1294.00,49.333
1295.00,49.356
1296.00,49.352
1297.00,49.363
1298.00,49.401
1299.00,49.350
1300.00,49.377
1301.00,49.360
1302.00,49.375
1303.00,49.383
1304.00,49.360
1305.00,49.403
1306.00,49.421
1307.00,49.405
1308.00,49.418
1309.00,49.430
1310.00,49.412
1311.00,49.416
1312.00,49.420
1313.00,49.430
1314.00,49.453
1315.00,49.456
1316.00,49.469
1317.00,49.497
1318.00,49.473
1319.00,49.495
1320.00,49.500
1321.00,49.700
1322.00,49.691
1323.00,49.671
1324.00,49.664
1325.00,49.663
1326.00,49.671
1327.00,49.659
1328.00,49.673
1329.00,49.653
1330.00,49.667
1331.00,49.668
1332.00,49.676
1333.00,49.691
1334.00,49.724
1335.00,49.727
1336.00,49.776
1337.00,49.774
1338.00,49.862
1339.00,49.902
1340.00,49.938
1341.00,50.004
1342.00,50.071
1343.00,50.108
1344.00,50.164
1345.00,50.215
1346.00,50.224
1347.00,50.291
1348.00,50.291
1349.00,50.305
1350.00,50.330
1351.00,50.343
1352.00,50.376
1353.00,50.429
1354.00,50.423
1355.00,50.379
1356.00,50.477
1357.00,50.413
1358.00,50.397
1359.00,50.383
1360.00,50.384
1361.00,50.621
1362.00,50.364
1363.00,50.567
1364.00,50.645
1365.00,50.445
1366.00,50.492
1367.00,50.500
1368.00,50.346
1369.00,50.428
1370.00,50.451
1371.00,50.413
1372.00,50.447
1373.00,50.450
1374.00,50.426
1375.00,50.449
1376.00,50.462
1377.00,50.308
1378.00,50.457
1379.00,50.427
1380.00,50.481
1381.00,50.479
1382.00,50.421
1383.00,50.489
1384.00,50.427
1385.00,50.456
1386.00,50.495
1387.00,50.352
1388.00,50.405
1389.00,50.404
1390.00,50.431
1391.00,50.457
1392.00,50.380
1393.00,50.363
1394.00,50.376
1395.00,50.362
1396.00,50.458
1397.00,50.422
1398.00,50.452
1399.00,50.408
1400.00,50.419
1401.00,50.378
1402.00,50.514
1403.00,50.457
1404.00,50.365
1405.00,50.481
1406.00,50.505
1407.00,50.478
1408.00,50.428
1409.00,50.274
1410.00,50.571
1411.00,50.501
1412.00,50.558
1413.00,50.517
1414.00,50.550
1415.00,50.571
1416.00,50.593
1417.00,50.603
1418.00,50.583
1419.00,50.618
1420.00,50.629
1421.00,50.665
1422.00,50.662
1423.00,50.681
1424.00,50.696
1425.00,50.733
1426.00,50.700
1427.00,50.734
1428.00,50.735
1429.00,50.780
1430.00,50.778
1431.00,50.797
1432.00,50.825
1433.00,50.830
1434.00,50.832
1435.00,50.901
1436.00,50.878
1437.00,50.877
1438.00,50.909
1439.00,50.935
1440.00,50.946
1441.00,50.952
1442.00,50.978
1443.00,51.014
1444.00,51.056
1445.00,51.012
1446.00,51.054
1447.00,51.070
1448.00,51.124
1449.00,51.142
1450.00,51.127
1451.00,51.138
1452.00,51.168
1453.00,51.177
1454.00,51.188
1455.00,51.219
1456.00,51.260
1457.00,51.260
1458.00,51.257
1459.00,51.269
1460.00,51.304
1461.00,51.283
1462.00,51.339
1463.00,51.340
1464.00,51.351
1465.00,51.378
1466.00,51.364
1467.00,51.387
1468.00,51.457
1469.00,51.422
1470.00,51.466
1471.00,51.511
1472.00,51.478
1473.00,51.503
1474.00,51.542
1475.00,51.533
1476.00,51.552
1477.00,51.538
1478.00,51.554
1479.00,51.593
1480.00,51.583
1481.00,51.605
1482.00,51.650
1483.00,51.640
1484.00,51.667
1485.00,51.665
1486.00,51.682
1487.00,51.705
1488.00,51.720
1489.00,51.709
1490.00,51.747
1491.00,51.744
1492.00,51.769
1493.00,51.755
1494.00,51.793
1495.00,51.789
1496.00,51.805
1497.00,51.768
1498.00,51.798
1499.00,51.813
1500.00,51.830
1501.00, 
1502.00, 
1503.00, 
1504.00, 
1505.00, 
1506.00, 
1507.00, 
1508.00, 
1509.00, 
1510.00, 
1511.00, 
1512.00, 
1513.00, 
1514.00, 
1515.00, 
1516.00, 
1517.00, 
1518.00, 
1519.00, 
1520.00, 
1521.00, 
1522.00, 
1523.00, 
1524.00, 
1525.00, 
1526.00, 
1527.00, 
1528.00, 
1529.00, 
1530.00, 
1531.00, 
1532.00, 
1533.00, 
1534.00, 
1535.00, 
1536.00, 
1537.00, 
1538.00, 
1539.00, 
1540.00, 
1541.00, 
1542.00, 
1543.00, 
1544.00, 
1545.00, 
1546.00, 
1547.00, 
1548.00, 
1549.00, 
1550.00, 
1551.00, 
1552.00, 
1553.00, 
1554.00, 
1555.00, 
1556.00, 
1557.00, 
1558.00, 
1559.00, 
1560.00, 
1561.00, 
1562.00, 
1563.00, 
1564.00, 
1565.00, 
1566.00, 
1567.00, 
1568.00, 
1569.00, 
1570.00, 
1571.00, 
1572.00, 
1573.00, 
1574.00, 
1575.00, 
1576.00, 
1577.00, 
1578.00, 
1579.00, 
1580.00, 
1581.00, 
1582.00, 
1583.00, 
1584.00, 
1585.00, 
1586.00, 
1587.00, 
1588.00, 
1589.00, 
1590.00, 
1591.00, 
1592.00, 
1593.00, 
1594.00, 
1595.00, 
1596.00, 
1597.00, 
1598.00, 
1599.00, 
1600.00, 
1601.00, 
1602.00, 
1603.00, 
1604.00, 
1605.00, 
1606.00, 
1607.00, 
1608.00, 
1609.00, 
1610.00, 
1611.00, 
1612.00, 
1613.00, 
1614.00, 
1615.00, 
1616.00, 
1617.00, 
1618.00, 
1619.00, 
1620.00, 
1621.00, 
1622.00, 
1623.00, 
1624.00, 
1625.00, 
1626.00, 
1627.00, 
1628.00, 
1629.00, 
1630.00, 
1631.00, 
1632.00, 
1633.00, 
1634.00, 
1635.00, 
1636.00, 
1637.00, 
1638.00, 
1639.00, 
1640.00, 
1641.00, 
1642.00, 
1643.00, 
1644.00, 
1645.00, 
1646.00, 
1647.00, 
1648.00, 
1649.00, 
1650.00, 
1651.00, 
1652.00, 
1653.00, 
1654.00, 
1655.00, 
1656.00, 
1657.00, 
1658.00, 
1659.00, 
1660.00, 
1661.00, 
1662.00, 
1663.00, 
1664.00, 
1665.00, 
1666.00, 
1667.00, 
1668.00, 
1669.00, 
1670.00, 
1671.00, 
1672.00, 
1673.00, 
1674.00, 
1675.00, 
1676.00, 
1677.00, 
1678.00, 
1679.00, 
1680.00, 
1681.00, 
1682.00, 
1683.00, 
1684.00, 
1685.00, 
1686.00, 
1687.00, 
1688.00, 
1689.00, 
1690.00, 
1691.00, 
1692.00, 
1693.00, 
1694.00, 
1695.00, 
1696.00, 
1697.00, 
1698.00, 
1699.00, 
1700.00, 
1701.00, 
1702.00, 
1703.00, 
1704.00, 
1705.00, 
1706.00, 
1707.00, 
1708.00, 
1709.00, 
1710.00, 
1711.00, 
1712.00, 
1713.00, 
1714.00, 
1715.00, 
1716.00, 
1717.00, 
1718.00, 
1719.00, 
1720.00, 
1721.00, 
1722.00, 
1723.00, 
1724.00, 
1725.00, 
1726.00, 
1727.00, 
1728.00, 
1729.00, 
1730.00, 
1731.00, 
1732.00, 
1733.00, 
1734.00, 
1735.00, 
1736.00, 
1737.00, 
1738.00, 
1739.00, 
1740.00, 
1741.00, 
1742.00, 
1743.00, 
1744.00, 
1745.00, 
1746.00, 
1747.00, 
1748.00, 
1749.00, 
1750.00, 
1751.00, 
1752.00, 
1753.00, 
1754.00, 
1755.00, 
1756.00, 
1757.00, 
1758.00, 
1759.00, 
1760.00, 
1761.00, 
1762.00, 
1763.00, 
1764.00, 
1765.00, 
1766.00, 
1767.00, 
1768.00, 
1769.00, 
1770.00, 
1771.00, 
1772.00, 
1773.00, 
1774.00, 
1775.00, 
1776.00, 
1777.00, 
1778.00, 
1779.00, 
1780.00, 
1781.00, 
1782.00, 
1783.00, 
1784.00, 
1785.00, 
1786.00, 
1787.00, 
1788.00, 
1789.00, 
1790.00, 
1791.00, 
1792.00, 
1793.00, 
1794.00, 
1795.00, 
1796.00, 
1797.00, 
1798.00, 
1799.00, 
1800.00, 
1801.00, 
1802.00, 
1803.00, 
1804.00, 
1805.00, 
1806.00, 
1807.00, 
1808.00, 
1809.00, 
1810.00, 
1811.00, 
1812.00, 
1813.00, 
1814.00, 
1815.00, 
1816.00, 
1817.00, 
1818.00, 
1819.00, 
1820.00, 
1821.00, 
1822.00, 
1823.00, 
1824.00, 
1825.00, 
1826.00, 
1827.00, 
1828.00, 
1829.00, 
1830.00, 
1831.00, 
1832.00, 
1833.00, 
1834.00, 
1835.00, 
1836.00, 
1837.00, 
1838.00, 
1839.00, 
1840.00, 
1841.00, 
1842.00, 
1843.00, 
1844.00, 
1845.00, 
1846.00, 
1847.00, 
1848.00, 
1849.00, 
1850.00, 
1851.00, 
1852.00, 
1853.00, 
1854.00, 
1855.00, 
1856.00, 
1857.00, 
1858.00, 
1859.00, 
1860.00, 
1861.00, 
1862.00, 
1863.00, 
1864.00, 
1865.00, 
1866.00, 
1867.00, 
1868.00, 
1869.00, 
1870.00, 
1871.00, 
1872.00, 
1873.00, 
1874.00, 
1875.00, 
1876.00, 
1877.00, 
1878.00, 
1879.00, 
1880.00, 
1881.00, 
1882.00, 
1883.00, 
1884.00, 
1885.00, 
1886.00, 
1887.00, 
1888.00, 
1889.00, 
1890.00, 
1891.00, 
1892.00, 
1893.00, 
1894.00, 
1895.00, 
1896.00, 
1897.00, 
1898.00, 
1899.00, 
1900.00, 
1901.00, 
1902.00, 
1903.00, 
1904.00, 
1905.00, 
1906.00, 
1907.00, 
1908.00, 
1909.00, 
1910.00, 
1911.00, 
1912.00, 
1913.00, 
1914.00, 
1915.00, 
1916.00, 
1917.00, 
1918.00, 
1919.00, 
1920.00, 
1921.00, 
1922.00, 
1923.00, 
1924.00, 
1925.00, 
1926.00, 
1927.00, 
1928.00, 
1929.00, 
1930.00, 
1931.00, 
1932.00, 
1933.00, 
1934.00, 
1935.00, 
1936.00, 
1937.00, 
1938.00, 
1939.00, 
1940.00, 
1941.00, 
1942.00, 
1943.00, 
1944.00, 
1945.00, 
1946.00, 
1947.00, 
1948.00, 
1949.00, 
1950.00, 
1951.00, 
1952.00, 
1953.00, 
1954.00, 
1955.00, 
1956.00, 
1957.00, 
1958.00, 
1959.00, 
1960.00, 
1961.00, 
1962.00, 
1963.00, 
1964.00, 
1965.00, 
1966.00, 
1967.00, 
1968.00, 
1969.00, 
1970.00, 
1971.00, 
1972.00, 
1973.00, 
1974.00, 
1975.00, 
1976.00, 
1977.00, 
1978.00, 
1979.00, 
1980.00, 
1981.00, 
1982.00, 
1983.00, 
1984.00, 
1985.00, 
1986.00, 
1987.00, 
1988.00, 
1989.00, 
1990.00, 
1991.00, 
1992.00, 
1993.00, 
1994.00, 
1995.00, 
1996.00, 
1997.00, 
1998.00, 
1999.00, 
2000.00, 
2001.00, 
2002.00, 
2003.00, 
2004.00, 
2005.00, 
2006.00, 
2007.00, 
2008.00, 
2009.00, 
2010.00, 
2011.00, 
2012.00, 
2013.00, 
2014.00, 
2015.00, 
2016.00, 
2017.00, 
2018.00, 
2019.00, 
2020.00, 
2021.00, 
2022.00, 
2023.00, 
2024.00, 
2025.00, 
2026.00, 
2027.00, 
2028.00, 
2029.00, 
2030.00, 
2031.00, 
2032.00, 
2033.00, 
2034.00, 
2035.00, 
2036.00, 
2037.00, 
2038.00, 
2039.00, 
2040.00, 
2041.00, 
2042.00, 
2043.00, 
2044.00, 
2045.00, 
2046.00, 
2047.00, 
2048.00, 
2049.00, 
2050.00, 
2051.00, 
2052.00, 
2053.00, 
2054.00, 
2055.00, 
2056.00, 
2057.00, 
2058.00, 
2059.00, 
2060.00, 
2061.00, 
2062.00, 
2063.00, 
2064.00, 
2065.00, 
2066.00, 
2067.00, 
2068.00, 
2069.00, 
2070.00, 
2071.00, 
2072.00, 
2073.00, 
2074.00, 
2075.00, 
2076.00, 
2077.00, 
2078.00, 
2079.00, 
2080.00, 
2081.00, 
2082.00, 
2083.00, 
2084.00, 
2085.00, 
2086.00, 
2087.00, 
2088.00, 
2089.00, 
2090.00, 
2091.00, 
2092.00, 
2093.00, 
2094.00, 
2095.00, 
2096.00, 
2097.00, 
2098.00, 
2099.00, 
2100.00, 
2101.00, 
2102.00, 
2103.00, 
2104.00, 
2105.00, 
2106.00, 
2107.00, 
2108.00, 
2109.00, 
2110.00, 
2111.00, 
2112.00, 
2113.00, 
2114.00, 
2115.00, 
2116.00, 
2117.00, 
2118.00, 
2119.00, 
2120.00, 
2121.00, 
2122.00, 
2123.00, 
2124.00, 
2125.00, 
2126.00, 
2127.00, 
2128.00, 
2129.00, 
2130.00, 
2131.00, 
2132.00, 
2133.00, 
2134.00, 
2135.00, 
2136.00, 
2137.00, 
2138.00, 
2139.00, 
2140.00, 
2141.00, 
2142.00, 
2143.00, 
2144.00, 
2145.00, 
2146.00, 
2147.00, 
2148.00, 
2149.00, 
2150.00, 
2151.00, 
2152.00, 
2153.00, 
2154.00, 
2155.00, 
2156.00, 
2157.00, 
2158.00, 
2159.00, 
2160.00, 
2161.00, 
2162.00, 
2163.00, 
2164.00, 
2165.00, 
2166.00, 
2167.00, 
2168.00, 
2169.00, 
2170.00, 
2171.00, 
2172.00, 
2173.00, 
2174.00, 
2175.00, 
2176.00, 
2177.00, 
2178.00, 
2179.00, 
2180.00, 
2181.00, 
2182.00, 
2183.00, 
2184.00, 
2185.00, 
2186.00, 
2187.00, 
2188.00, 
2189.00, 
2190.00, 
2191.00, 
2192.00, 
2193.00, 
2194.00, 
2195.00, 
2196.00, 
2197.00, 
2198.00, 
2199.00, 
2200.00, 
2201.00, 
2202.00, 
2203.00, 
2204.00, 
2205.00, 
2206.00, 
2207.00, 
2208.00, 
2209.00, 
2210.00, 
2211.00, 
2212.00, 
2213.00, 
2214.00, 
2215.00, 
2216.00, 
2217.00, 
2218.00, 
2219.00, 
2220.00, 
2221.00, 
2222.00, 
2223.00, 
2224.00, 
2225.00, 
2226.00, 
2227.00, 
2228.00, 
2229.00, 
2230.00, 
2231.00, 
2232.00, 
2233.00, 
2234.00, 
2235.00, 
2236.00, 
2237.00, 
2238.00, 
2239.00, 
2240.00, 
2241.00, 
2242.00, 
2243.00, 
2244.00, 
2245.00, 
2246.00, 
2247.00, 
2248.00, 
2249.00, 
2250.00, 
2251.00, 
2252.00, 
2253.00, 
2254.00, 
2255.00, 
2256.00, 
2257.00, 
2258.00, 
2259.00, 
2260.00, 
2261.00, 
2262.00, 
2263.00, 
2264.00, 
2265.00, 
2266.00, 
2267.00, 
2268.00, 
2269.00, 
2270.00, 
2271.00, 
2272.00, 
2273.00, 
2274.00, 
2275.00, 
2276.00, 
2277.00, 
2278.00, 
2279.00, 
2280.00, 
2281.00, 
2282.00, 
2283.00, 
2284.00, 
2285.00, 
2286.00, 
2287.00, 
2288.00, 
2289.00, 
2290.00, 
2291.00, 
2292.00, 
2293.00, 
2294.00, 
2295.00, 
2296.00, 
2297.00, 
2298.00, 
2299.00, 
2300.00, 
2301.00, 
2302.00, 
2303.00, 
2304.00, 
2305.00, 
2306.00, 
2307.00, 
2308.00, 
2309.00, 
2310.00, 
2311.00, 
2312.00, 
2313.00, 
2314.00, 
2315.00, 
2316.00, 
2317.00, 
2318.00, 
2319.00, 
2320.00, 
2321.00, 
2322.00, 
2323.00, 
2324.00, 
2325.00, 
2326.00, 
2327.00, 
2328.00, 
2329.00, 
2330.00, 
2331.00, 
2332.00, 
2333.00, 
2334.00, 
2335.00, 
2336.00, 
2337.00, 
2338.00, 
2339.00, 
2340.00, 
2341.00, 
2342.00, 
2343.00, 
2344.00, 
2345.00, 
2346.00, 
2347.00, 
2348.00, 
2349.00, 
2350.00, 
2351.00, 
2352.00, 
2353.00, 
2354.00, 
2355.00, 
2356.00, 
2357.00, 
2358.00, 
2359.00, 
2360.00, 
2361.00, 
2362.00, 
2363.00, 
2364.00, 
2365.00, 
2366.00, 
2367.00, 
2368.00, 
2369.00, 
2370.00, 
2371.00, 
2372.00, 
2373.00, 
2374.00, 
2375.00, 
2376.00, 
2377.00, 
2378.00, 
2379.00, 
2380.00, 
2381.00, 
2382.00, 
2383.00, 
2384.00, 
2385.00, 
2386.00, 
2387.00, 
2388.00, 
2389.00, 
2390.00, 
2391.00, 
2392.00, 
2393.00, 
2394.00, 
2395.00, 
2396.00, 
2397.00, 
2398.00, 
2399.00, 
2400.00, 
2401.00, 
2402.00, 
2403.00, 
2404.00, 
2405.00, 
2406.00, 
2407.00, 
2408.00, 
2409.00, 
2410.00, 
2411.00, 
2412.00, 
2413.00, 
2414.00, 
2415.00, 
2416.00, 
2417.00, 
2418.00, 
2419.00, 
2420.00, 
2421.00, 
2422.00, 
2423.00, 
2424.00, 
2425.00, 
2426.00, 
2427.00, 
2428.00, 
2429.00, 
2430.00, 
2431.00, 
2432.00, 
2433.00, 
2434.00, 
2435.00, 
2436.00, 
2437.00, 
2438.00, 
2439.00, 
2440.00, 
2441.00, 
2442.00, 
2443.00, 
2444.00, 
2445.00, 
2446.00, 
2447.00, 
2448.00, 
2449.00, 
2450.00, 
2451.00, 
2452.00, 
2453.00, 
2454.00, 
2455.00, 
2456.00, 
2457.00, 
2458.00, 
2459.00, 
2460.00, 
2461.00, 
2462.00, 
2463.00, 
2464.00, 
2465.00, 
2466.00, 
2467.00, 
2468.00, 
2469.00, 
2470.00, 
2471.00, 
2472.00, 
2473.00, 
2474.00, 
2475.00, 
2476.00, 
2477.00, 
2478.00, 
2479.00, 
2480.00, 
2481.00, 
2482.00, 
2483.00, 
2484.00, 
2485.00, 
2486.00, 
2487.00, 
2488.00, 
2489.00, 
2490.00, 
2491.00, 
2492.00, 
2493.00, 
2494.00, 
2495.00, 
2496.00, 
2497.00, 
2498.00, 
2499.00, 
2500.00, 
2501.00, 
2502.00, 
2503.00, 
2504.00, 
2505.00, 
2506.00, 
2507.00, 
2508.00, 
2509.00, 
2510.00, 
2511.00, 
2512.00, 
2513.00, 
2514.00, 
2515.00, 
2516.00, 
2517.00, 
2518.00, 
2519.00, 
2520.00, 
2521.00, 
2522.00, 
2523.00, 
2524.00, 
2525.00, 
2526.00, 
2527.00, 
2528.00, 
2529.00, 
2530.00, 
2531.00, 
2532.00, 
2533.00, 
2534.00, 
2535.00, 
2536.00, 
2537.00, 
2538.00, 
2539.00, 
2540.00, 
2541.00, 
2542.00, 
2543.00, 
2544.00, 
2545.00, 
2546.00, 
2547.00, 
2548.00, 
2549.00, 
2550.00, 
2551.00, 
2552.00, 
2553.00, 
2554.00, 
2555.00, 
2556.00, 
2557.00, 
2558.00, 
2559.00, 
2560.00, 
2561.00, 
2562.00, 
2563.00, 
2564.00, 
2565.00, 
2566.00, 
2567.00, 
2568.00, 
2569.00, 
2570.00, 
2571.00, 
2572.00, 
2573.00, 
2574.00, 
2575.00, 
2576.00, 
2577.00, 
2578.00, 
2579.00, 
2580.00, 
2581.00, 
2582.00, 
2583.00, 
2584.00, 
2585.00, 
2586.00, 
2587.00, 
2588.00, 
2589.00, 
2590.00, 
2591.00, 
2592.00, 
2593.00, 
2594.00, 
2595.00, 
2596.00, 
2597.00, 
2598.00, 
2599.00, 
2600.00, 
