"1cP4 - RawData"
"Wavelength nm.","T%"
200.00,-0.000
201.00,-0.002
202.00,0.000
203.00,-0.000
204.00,0.003
205.00,-0.001
206.00,0.001
207.00,0.002
208.00,-0.000
209.00,0.001
210.00,-0.001
211.00,0.002
212.00,0.002
213.00,0.003
214.00,0.002
215.00,0.002
216.00,-0.001
217.00,0.001
218.00,0.001
219.00,-0.002
220.00,-0.000
221.00,-0.000
222.00,-0.000
223.00,-0.001
224.00,0.001
225.00,0.004
226.00,-0.002
227.00,0.001
228.00,0.000
229.00,0.000
230.00,0.002
231.00,-0.001
232.00,-0.002
233.00,-0.001
234.00,0.001
235.00,0.000
236.00,-0.001
237.00,-0.001
238.00,0.002
239.00,0.000
240.00,0.001
241.00,-0.001
242.00,0.002
243.00,0.000
244.00,-0.001
245.00,-0.001
246.00,0.002
247.00,0.001
248.00,0.000
249.00,0.000
250.00,0.002
251.00,0.002
252.00,-0.001
253.00,0.001
254.00,-0.000
255.00,0.000
256.00,-0.000
257.00,-0.000
258.00,-0.000
259.00,-0.001
260.00,0.001
261.00,0.000
262.00,0.001
263.00,0.003
264.00,-0.001
265.00,0.001
266.00,-0.001
267.00,0.001
268.00,-0.001
269.00,-0.000
270.00,0.000
271.00,-0.000
272.00,0.000
273.00,-0.001
274.00,0.002
275.00,-0.000
276.00,-0.000
277.00,0.000
278.00,0.000
279.00,0.000
280.00,-0.000
281.00,0.000
282.00,-0.000
283.00,-0.001
284.00,-0.000
285.00,0.002
286.00,0.000
287.00,-0.000
288.00,0.001
289.00,-0.000
290.00,0.001
291.00,0.002
292.00,-0.001
293.00,0.000
294.00,-0.001
295.00,0.000
296.00,-0.000
297.00,0.001
298.00,-0.000
299.00,0.001
300.00,-0.000
301.00,-0.001
302.00,-0.000
303.00,0.001
304.00,0.000
305.00,0.002
306.00,0.003
307.00,0.002
308.00,0.006
309.00,0.011
310.00,0.017
311.00,0.026
312.00,0.039
313.00,0.062
314.00,0.097
315.00,0.138
316.00,0.195
317.00,0.274
318.00,0.367
319.00,0.502
320.00,0.672
321.00,0.851
322.00,1.103
323.00,1.408
324.00,1.735
325.00,2.103
326.00,2.495
327.00,2.961
328.00,3.469
329.00,3.986
330.00,4.593
331.00,5.169
332.00,5.813
333.00,6.532
334.00,7.144
335.00,7.875
336.00,8.564
337.00,9.320
338.00,10.047
339.00,10.720
340.00,11.430
341.00,12.111
342.00,12.801
343.00,13.377
344.00,14.021
345.00,14.697
346.00,15.209
347.00,15.736
348.00,16.271
349.00,16.716
350.00,17.199
351.00,17.614
352.00,17.978
353.00,18.359
354.00,18.734
355.00,19.072
356.00,19.352
357.00,19.622
358.00,19.916
359.00,20.204
360.00,20.446
361.00,20.630
362.00,20.816
363.00,20.973
364.00,21.109
365.00,21.239
366.00,21.352
367.00,21.421
368.00,21.488
369.00,21.522
370.00,21.597
371.00,21.610
372.00,21.604
373.00,21.597
374.00,21.596
375.00,21.568
376.00,21.462
377.00,21.370
378.00,21.315
379.00,21.189
380.00,21.163
381.00,21.181
382.00,21.174
383.00,21.186
384.00,21.237
385.00,21.276
386.00,21.332
387.00,21.361
388.00,21.522
389.00,21.539
390.00,21.592
391.00,21.600
392.00,21.647
393.00,21.684
394.00,21.692
395.00,21.765
396.00,21.707
397.00,21.755
398.00,21.759
399.00,21.781
400.00,21.786
401.00,21.767
402.00,21.781
403.00,21.751
404.00,21.851
405.00,21.725
406.00,21.699
407.00,21.669
408.00,21.692
409.00,21.621
410.00,21.549
411.00,21.549
412.00,21.481
413.00,21.526
414.00,21.536
415.00,21.538
416.00,21.506
417.00,21.509
418.00,21.516
419.00,21.660
420.00,21.706
421.00,21.692
422.00,21.716
423.00,21.750
424.00,21.790
425.00,21.820
426.00,21.850
427.00,21.922
428.00,21.925
429.00,21.962
430.00,22.010
431.00,22.092
432.00,22.117
433.00,22.173
434.00,22.238
435.00,22.319
436.00,22.358
437.00,22.411
438.00,22.494
439.00,22.559
440.00,22.644
441.00,22.742
442.00,22.781
443.00,22.861
444.00,22.965
445.00,23.057
446.00,23.141
447.00,23.229
448.00,23.360
449.00,23.455
450.00,23.575
451.00,23.681
452.00,23.756
453.00,23.893
454.00,23.978
455.00,24.092
456.00,24.217
457.00,24.342
458.00,24.452
459.00,24.549
460.00,24.730
461.00,24.884
462.00,24.938
463.00,25.109
464.00,25.224
465.00,25.365
466.00,25.517
467.00,25.652
468.00,25.727
469.00,25.858
470.00,25.947
471.00,26.028
472.00,26.170
473.00,26.267
474.00,26.369
475.00,26.501
476.00,26.625
477.00,26.719
478.00,26.867
479.00,27.009
480.00,27.166
481.00,27.291
482.00,27.453
483.00,27.630
484.00,27.743
485.00,27.929
486.00,28.032
487.00,28.233
488.00,28.345
489.00,28.544
490.00,28.665
491.00,28.798
492.00,29.062
493.00,29.155
494.00,29.170
495.00,29.338
496.00,29.468
497.00,29.559
498.00,29.741
499.00,29.910
500.00,29.968
501.00,30.064
502.00,30.234
503.00,30.324
504.00,30.434
505.00,30.557
506.00,30.738
507.00,30.822
508.00,30.906
509.00,31.109
510.00,31.229
511.00,31.310
512.00,31.477
513.00,31.631
514.00,31.730
515.00,31.843
516.00,31.923
517.00,32.070
518.00,32.177
519.00,32.236
520.00,32.264
521.00,32.422
522.00,32.513
523.00,32.525
524.00,32.663
525.00,32.797
526.00,32.877
527.00,32.947
528.00,33.027
529.00,33.205
530.00,33.340
531.00,33.494
532.00,33.494
533.00,33.666
534.00,33.729
535.00,33.772
536.00,33.838
537.00,33.930
538.00,34.010
539.00,34.062
540.00,34.152
541.00,34.161
542.00,34.263
543.00,34.346
544.00,34.444
545.00,34.513
546.00,34.488
547.00,34.672
548.00,34.727
549.00,34.764
550.00,34.881
551.00,34.984
552.00,35.008
553.00,35.043
554.00,35.157
555.00,35.195
556.00,35.193
557.00,35.319
558.00,35.383
559.00,35.402
560.00,35.467
561.00,35.570
562.00,35.635
563.00,35.687
564.00,35.732
565.00,35.779
566.00,35.783
567.00,35.832
568.00,35.880
569.00,35.952
570.00,35.929
571.00,35.972
572.00,36.003
573.00,35.972
574.00,36.022
575.00,36.030
576.00,36.034
577.00,36.160
578.00,36.270
579.00,36.301
580.00,36.333
581.00,36.471
582.00,36.560
583.00,36.563
584.00,36.659
585.00,36.696
586.00,36.737
587.00,36.817
588.00,36.810
589.00,36.782
590.00,36.911
591.00,36.960
592.00,36.916
593.00,36.909
594.00,37.036
595.00,37.136
596.00,37.186
597.00,37.260
598.00,37.374
599.00,37.291
600.00,37.348
601.00,37.321
602.00,37.382
603.00,37.409
604.00,37.511
605.00,37.575
606.00,37.574
607.00,37.594
608.00,37.776
609.00,37.830
610.00,37.620
611.00,37.773
612.00,37.797
613.00,37.795
614.00,37.926
615.00,38.040
616.00,38.070
617.00,38.007
618.00,38.089
619.00,38.184
620.00,38.228
621.00,38.293
622.00,38.432
623.00,38.513
624.00,38.503
625.00,38.558
626.00,38.635
627.00,38.724
628.00,38.737
629.00,38.758
630.00,38.802
631.00,38.875
632.00,38.948
633.00,39.086
634.00,39.135
635.00,39.210
636.00,39.301
637.00,39.323
638.00,39.394
639.00,39.545
640.00,39.534
641.00,39.585
642.00,39.677
643.00,39.742
644.00,39.842
645.00,39.920
646.00,40.054
647.00,40.086
648.00,40.115
649.00,40.162
650.00,40.236
651.00,40.406
652.00,40.508
653.00,40.593
654.00,40.598
655.00,40.804
656.00,41.069
657.00,40.882
658.00,40.943
659.00,41.079
660.00,41.116
661.00,41.195
662.00,41.248
663.00,41.352
664.00,41.629
665.00,41.788
666.00,41.757
667.00,41.816
668.00,41.802
669.00,42.085
670.00,42.316
671.00,42.150
672.00,42.276
673.00,42.330
674.00,42.388
675.00,42.448
676.00,42.690
677.00,42.888
678.00,42.886
679.00,43.334
680.00,43.085
681.00,43.240
682.00,43.231
683.00,43.258
684.00,43.516
685.00,43.505
686.00,43.478
687.00,43.644
688.00,43.663
689.00,43.673
690.00,43.970
691.00,44.271
692.00,43.951
693.00,44.077
694.00,44.233
695.00,44.341
696.00,44.423
697.00,44.431
698.00,44.493
699.00,44.774
700.00,44.913
701.00,44.862
702.00,44.986
703.00,45.134
704.00,45.138
705.00,45.039
706.00,45.199
707.00,45.229
708.00,45.139
709.00,45.584
710.00,46.033
711.00,45.384
712.00,45.643
713.00,45.680
714.00,45.850
715.00,45.806
716.00,45.843
717.00,46.114
718.00,46.183
719.00,46.160
720.00,46.150
721.00,50.669
722.00,50.604
723.00,50.792
724.00,50.700
725.00,50.798
726.00,50.703
727.00,50.781
728.00,50.829
729.00,50.875
730.00,50.943
731.00,50.827
732.00,50.869
733.00,50.956
734.00,51.003
735.00,51.058
736.00,51.025
737.00,51.126
738.00,51.192
739.00,51.236
740.00,51.181
741.00,51.225
742.00,51.288
743.00,51.320
744.00,51.199
745.00,51.287
746.00,51.344
747.00,51.311
748.00,51.307
749.00,51.361
750.00,51.366
751.00,51.249
752.00,51.336
753.00,51.323
754.00,51.332
755.00,51.387
756.00,51.400
757.00,51.357
758.00,51.450
759.00,51.373
760.00,51.400
761.00,51.524
762.00,51.460
763.00,51.430
764.00,51.452
765.00,51.462
766.00,51.526
767.00,51.595
768.00,51.512
769.00,51.436
770.00,51.540
771.00,51.555
772.00,51.534
773.00,51.562
774.00,51.526
775.00,51.602
776.00,51.510
777.00,51.631
778.00,51.623
779.00,51.705
780.00,51.597
781.00,51.564
782.00,51.622
783.00,51.559
784.00,51.648
785.00,51.472
786.00,51.629
787.00,51.557
788.00,51.569
789.00,51.545
790.00,51.496
791.00,51.558
792.00,51.462
793.00,51.470
794.00,51.510
795.00,51.526
796.00,51.519
797.00,51.453
798.00,51.491
799.00,51.398
800.00,51.389
801.00,51.403
802.00,51.340
803.00,51.462
804.00,51.297
805.00,51.349
806.00,51.372
807.00,51.346
808.00,51.401
809.00,51.297
810.00,51.318
811.00,51.338
812.00,51.395
813.00,51.222
814.00,51.347
815.00,51.197
816.00,51.250
817.00,51.244
818.00,51.072
819.00,51.207
820.00,51.061
821.00,51.166
822.00,51.117
823.00,51.065
824.00,51.118
825.00,51.028
826.00,51.038
827.00,51.085
828.00,51.106
829.00,51.053
830.00,51.005
831.00,53.344
832.00,53.366
833.00,53.313
834.00,53.278
835.00,53.263
836.00,53.302
837.00,53.242
838.00,53.241
839.00,53.255
840.00,53.144
841.00,53.165
842.00,53.153
843.00,53.155
844.00,53.131
845.00,53.017
846.00,53.120
847.00,53.026
848.00,53.044
849.00,52.981
850.00,52.917
851.00,53.024
852.00,52.928
853.00,52.904
854.00,52.861
855.00,52.853
856.00,52.804
857.00,52.809
858.00,52.766
859.00,52.726
860.00,52.719
861.00,52.700
862.00,52.693
863.00,52.680
864.00,52.658
865.00,52.663
866.00,52.727
867.00,52.639
868.00,52.626
869.00,52.597
870.00,52.609
871.00,52.583
872.00,52.592
873.00,52.595
874.00,52.593
875.00,52.513
876.00,52.553
877.00,52.510
878.00,52.528
879.00,52.518
880.00,52.488
881.00,52.418
882.00,52.641
883.00,52.455
884.00,52.418
885.00,52.386
886.00,52.385
887.00,52.358
888.00,52.343
889.00,52.318
890.00,52.289
891.00,52.285
892.00,52.260
893.00,52.238
894.00,52.236
895.00,52.220
896.00,52.191
897.00,52.165
898.00,52.156
899.00,52.180
900.00,52.134
901.00,52.134
902.00,52.149
903.00,52.114
904.00,52.092
905.00,52.096
906.00,52.070
907.00,52.028
908.00,52.007
909.00,52.012
910.00,51.961
911.00,51.940
912.00,51.935
913.00,51.834
914.00,51.955
915.00,51.841
916.00,51.836
917.00,51.803
918.00,51.802
919.00,51.773
920.00,51.763
921.00,51.742
922.00,51.729
923.00,51.684
924.00,51.686
925.00,51.650
926.00,51.653
927.00,51.638
928.00,51.611
929.00,51.634
930.00,51.598
931.00,51.597
932.00,51.550
933.00,51.540
934.00,51.469
935.00,51.458
936.00,51.473
937.00,51.445
938.00,51.415
939.00,51.412
940.00,51.392
941.00,51.392
942.00,51.361
943.00,51.358
944.00,51.310
945.00,51.315
946.00,51.275
947.00,51.230
948.00,51.219
949.00,51.184
950.00,51.216
951.00,51.160
952.00,51.135
953.00,51.122
954.00,51.098
955.00,51.060
956.00,51.060
957.00,51.019
958.00,51.038
959.00,51.001
960.00,50.987
961.00,50.970
962.00,50.989
963.00,50.912
964.00,50.926
965.00,50.928
966.00,50.896
967.00,50.893
968.00,50.863
969.00,50.889
970.00,50.864
971.00,50.884
972.00,50.850
973.00,50.883
974.00,50.868
975.00,50.884
976.00,50.891
977.00,50.859
978.00,50.916
979.00,50.856
980.00,50.874
981.00,50.874
982.00,50.835
983.00,50.856
984.00,50.838
985.00,50.858
986.00,50.811
987.00,50.844
988.00,50.808
989.00,50.807
990.00,50.805
991.00,50.779
992.00,50.790
993.00,50.778
994.00,50.733
995.00,50.705
996.00,50.728
997.00,50.715
998.00,50.693
999.00,50.709
1000.00,50.639
1001.00,50.664
1002.00,50.640
1003.00,50.650
1004.00,50.625
1005.00,50.595
1006.00,50.617
1007.00,50.587
1008.00,50.582
1009.00,50.545
1010.00,50.537
1011.00,50.566
1012.00,50.508
1013.00,50.516
1014.00,50.491
1015.00,50.511
1016.00,50.467
1017.00,50.487
1018.00,50.452
1019.00,50.422
1020.00,50.410
1021.00,50.384
1022.00,50.392
1023.00,50.336
1024.00,50.348
1025.00,50.329
1026.00,50.314
1027.00,50.295
1028.00,50.306
1029.00,50.276
1030.00,50.256
1031.00,50.273
1032.00,50.232
1033.00,50.244
1034.00,50.217
1035.00,50.188
1036.00,50.167
1037.00,50.150
1038.00,50.124
1039.00,50.097
1040.00,50.076
1041.00,50.056
1042.00,50.047
1043.00,50.004
1044.00,50.047
1045.00,50.025
1046.00,50.024
1047.00,50.045
1048.00,50.046
1049.00,50.064
1050.00,50.075
1051.00,50.116
1052.00,50.110
1053.00,50.110
1054.00,50.103
1055.00,50.130
1056.00,50.124
1057.00,50.146
1058.00,50.121
1059.00,50.115
1060.00,50.116
1061.00,50.115
1062.00,50.096
1063.00,50.111
1064.00,50.101
1065.00,50.092
1066.00,50.088
1067.00,50.078
1068.00,50.090
1069.00,50.075
1070.00,50.042
1071.00,50.033
1072.00,50.079
1073.00,50.033
1074.00,50.039
1075.00,50.019
1076.00,50.019
1077.00,50.006
1078.00,49.984
1079.00,49.985
1080.00,49.992
1081.00,49.979
1082.00,49.964
1083.00,49.962
1084.00,49.954
1085.00,49.959
1086.00,49.943
1087.00,49.929
1088.00,49.921
1089.00,49.908
1090.00,49.913
1091.00,49.918
1092.00,49.899
1093.00,49.889
1094.00,49.862
1095.00,49.862
1096.00,49.849
1097.00,49.848
1098.00,49.833
1099.00,49.830
1100.00,49.821
1101.00,49.804
1102.00,49.790
1103.00,49.785
1104.00,49.772
1105.00,49.778
1106.00,49.761
1107.00,49.754
1108.00,49.745
1109.00,49.728
1110.00,49.725
1111.00,49.709
1112.00,49.707
1113.00,49.710
1114.00,49.704
1115.00,49.717
1116.00,49.705
1117.00,49.702
1118.00,49.701
1119.00,49.679
1120.00,49.674
1121.00,49.695
1122.00,49.662
1123.00,49.651
1124.00,49.663
1125.00,49.641
1126.00,49.631
1127.00,49.647
1128.00,49.620
1129.00,49.617
1130.00,49.599
1131.00,49.586
1132.00,49.618
1133.00,49.576
1134.00,49.577
1135.00,49.585
1136.00,49.580
1137.00,49.576
1138.00,49.573
1139.00,49.574
1140.00,49.572
1141.00,49.555
1142.00,49.536
1143.00,49.574
1144.00,49.529
1145.00,49.531
1146.00,49.550
1147.00,49.538
1148.00,49.540
1149.00,49.569
1150.00,49.546
1151.00,49.550
1152.00,49.538
1153.00,49.532
1154.00,49.524
1155.00,49.522
1156.00,49.512
1157.00,49.522
1158.00,49.509
1159.00,49.508
1160.00,49.499
1161.00,49.513
1162.00,49.524
1163.00,49.523
1164.00,49.521
1165.00,49.527
1166.00,49.528
1167.00,49.509
1168.00,49.539
1169.00,49.509
1170.00,49.508
1171.00,49.500
1172.00,49.491
1173.00,49.496
1174.00,49.504
1175.00,49.484
1176.00,49.487
1177.00,49.476
1178.00,49.474
1179.00,49.488
1180.00,49.481
1181.00,49.513
1182.00,49.501
1183.00,49.497
1184.00,49.491
1185.00,49.501
1186.00,49.472
1187.00,49.495
1188.00,49.485
1189.00,49.476
1190.00,49.477
1191.00,49.472
1192.00,49.498
1193.00,49.489
1194.00,49.500
1195.00,49.483
1196.00,49.513
1197.00,49.504
1198.00,49.503
1199.00,49.494
1200.00,49.483
1201.00,49.507
1202.00,49.470
1203.00,49.476
1204.00,49.469
1205.00,49.485
1206.00,49.488
1207.00,49.490
1208.00,49.479
1209.00,49.505
1210.00,49.492
1211.00,49.474
1212.00,49.510
1213.00,49.469
1214.00,49.497
1215.00,49.482
1216.00,49.479
1217.00,49.506
1218.00,49.493
1219.00,49.499
1220.00,49.498
1221.00,49.496
1222.00,49.499
1223.00,49.525
1224.00,49.506
1225.00,49.517
1226.00,49.499
1227.00,49.498
1228.00,49.521
1229.00,49.522
1230.00,49.543
1231.00,49.547
1232.00,49.567
1233.00,49.546
1234.00,49.556
1235.00,49.546
1236.00,49.547
1237.00,49.565
1238.00,49.550
1239.00,49.572
1240.00,49.559
1241.00,49.572
1242.00,49.574
1243.00,49.576
1244.00,49.556
1245.00,49.594
1246.00,49.586
1247.00,49.573
1248.00,49.579
1249.00,49.581
1250.00,49.593
1251.00,49.582
1252.00,49.599
1253.00,49.597
1254.00,49.627
1255.00,49.602
1256.00,49.592
1257.00,49.608
1258.00,49.653
1259.00,49.646
1260.00,49.670
1261.00,49.663
1262.00,49.661
1263.00,49.653
1264.00,49.667
1265.00,49.664
1266.00,49.661
1267.00,49.689
1268.00,49.677
1269.00,49.693
1270.00,49.722
1271.00,49.720
1272.00,49.722
1273.00,49.744
1274.00,49.739
1275.00,49.747
1276.00,49.729
1277.00,49.740
1278.00,49.756
1279.00,49.744
1280.00,49.733
1281.00,49.765
1282.00,49.756
1283.00,49.768
1284.00,49.783
1285.00,49.783
1286.00,49.830
1287.00,49.804
1288.00,49.815
1289.00,49.796
1290.00,49.820
1291.00,49.806
1292.00,49.813
1293.00,49.813
1294.00,49.824
1295.00,49.836
1296.00,49.837
1297.00,49.862
1298.00,49.896
1299.00,49.865
1300.00,49.918
1301.00,49.878
1302.00,49.905
1303.00,49.906
1304.00,49.891
1305.00,49.924
1306.00,49.924
1307.00,49.919
1308.00,49.926
1309.00,49.940
1310.00,49.919
1311.00,49.917
1312.00,49.936
1313.00,49.945
1314.00,49.971
1315.00,49.984
1316.00,50.001
1317.00,50.019
1318.00,50.019
1319.00,50.040
1320.00,50.039
1321.00,50.205
1322.00,50.200
1323.00,50.178
1324.00,50.187
1325.00,50.180
1326.00,50.197
1327.00,50.182
1328.00,50.190
1329.00,50.164
1330.00,50.176
1331.00,50.158
1332.00,50.160
1333.00,50.166
1334.00,50.193
1335.00,50.207
1336.00,50.268
1337.00,50.275
1338.00,50.350
1339.00,50.396
1340.00,50.429
1341.00,50.522
1342.00,50.565
1343.00,50.597
1344.00,50.669
1345.00,50.737
1346.00,50.764
1347.00,50.800
1348.00,50.812
1349.00,50.838
1350.00,50.850
1351.00,50.869
1352.00,50.896
1353.00,50.970
1354.00,50.927
1355.00,50.880
1356.00,50.981
1357.00,50.933
1358.00,50.941
1359.00,50.909
1360.00,50.924
1361.00,51.051
1362.00,50.796
1363.00,50.996
1364.00,51.118
1365.00,50.930
1366.00,51.014
1367.00,50.953
1368.00,50.831
1369.00,50.981
1370.00,50.922
1371.00,50.886
1372.00,50.951
1373.00,50.967
1374.00,50.958
1375.00,50.922
1376.00,50.926
1377.00,50.937
1378.00,50.972
1379.00,50.918
1380.00,50.983
1381.00,50.972
1382.00,50.936
1383.00,50.985
1384.00,50.919
1385.00,50.983
1386.00,50.967
1387.00,50.901
1388.00,50.961
1389.00,50.944
1390.00,50.960
1391.00,50.992
1392.00,50.898
1393.00,50.832
1394.00,50.915
1395.00,50.907
1396.00,50.933
1397.00,50.889
1398.00,50.507
1399.00,50.929
1400.00,50.930
1401.00,50.874
1402.00,51.046
1403.00,50.986
1404.00,50.882
1405.00,50.994
1406.00,51.026
1407.00,50.994
1408.00,50.958
1409.00,50.825
1410.00,51.061
1411.00,51.022
1412.00,51.087
1413.00,51.018
1414.00,51.040
1415.00,51.075
1416.00,51.073
1417.00,51.071
1418.00,51.127
1419.00,51.141
1420.00,51.140
1421.00,51.155
1422.00,51.160
1423.00,51.217
1424.00,51.204
1425.00,51.227
1426.00,51.221
1427.00,51.266
1428.00,51.254
1429.00,51.286
1430.00,51.284
1431.00,51.298
1432.00,51.327
1433.00,51.324
1434.00,51.347
1435.00,51.395
1436.00,51.385
1437.00,51.376
1438.00,51.398
1439.00,51.432
1440.00,51.453
1441.00,51.462
1442.00,51.491
1443.00,51.514
1444.00,51.541
1445.00,51.537
1446.00,51.576
1447.00,51.575
1448.00,51.640
1449.00,51.621
1450.00,51.632
1451.00,51.646
1452.00,51.677
1453.00,51.670
1454.00,51.710
1455.00,51.719
1456.00,51.737
1457.00,51.751
1458.00,51.764
1459.00,51.779
1460.00,51.824
1461.00,51.793
1462.00,51.855
1463.00,51.846
1464.00,51.855
1465.00,51.888
1466.00,51.875
1467.00,51.920
1468.00,51.992
1469.00,51.952
1470.00,51.978
1471.00,51.995
1472.00,51.987
1473.00,52.007
1474.00,52.044
1475.00,52.055
1476.00,52.086
1477.00,52.045
1478.00,52.068
1479.00,52.104
1480.00,52.094
1481.00,52.125
1482.00,52.166
1483.00,52.174
1484.00,52.194
1485.00,52.180
1486.00,52.209
1487.00,52.233
1488.00,52.239
1489.00,52.236
1490.00,52.263
1491.00,52.256
1492.00,52.298
1493.00,52.272
1494.00,52.319
1495.00,52.315
1496.00,52.329
1497.00,52.316
1498.00,52.353
1499.00,52.356
1500.00,52.384
1501.00, 
1502.00, 
1503.00, 
1504.00, 
1505.00, 
1506.00, 
1507.00, 
1508.00, 
1509.00, 
1510.00, 
1511.00, 
1512.00, 
1513.00, 
1514.00, 
1515.00, 
1516.00, 
1517.00, 
1518.00, 
1519.00, 
1520.00, 
1521.00, 
1522.00, 
1523.00, 
1524.00, 
1525.00, 
1526.00, 
1527.00, 
1528.00, 
1529.00, 
1530.00, 
1531.00, 
1532.00, 
1533.00, 
1534.00, 
1535.00, 
1536.00, 
1537.00, 
1538.00, 
1539.00, 
1540.00, 
1541.00, 
1542.00, 
1543.00, 
1544.00, 
1545.00, 
1546.00, 
1547.00, 
1548.00, 
1549.00, 
1550.00, 
1551.00, 
1552.00, 
1553.00, 
1554.00, 
1555.00, 
1556.00, 
1557.00, 
1558.00, 
1559.00, 
1560.00, 
1561.00, 
1562.00, 
1563.00, 
1564.00, 
1565.00, 
1566.00, 
1567.00, 
1568.00, 
1569.00, 
1570.00, 
1571.00, 
1572.00, 
1573.00, 
1574.00, 
1575.00, 
1576.00, 
1577.00, 
1578.00, 
1579.00, 
1580.00, 
1581.00, 
1582.00, 
1583.00, 
1584.00, 
1585.00, 
1586.00, 
1587.00, 
1588.00, 
1589.00, 
1590.00, 
1591.00, 
1592.00, 
1593.00, 
1594.00, 
1595.00, 
1596.00, 
1597.00, 
1598.00, 
1599.00, 
1600.00, 
1601.00, 
1602.00, 
1603.00, 
1604.00, 
1605.00, 
1606.00, 
1607.00, 
1608.00, 
1609.00, 
1610.00, 
1611.00, 
1612.00, 
1613.00, 
1614.00, 
1615.00, 
1616.00, 
1617.00, 
1618.00, 
1619.00, 
1620.00, 
1621.00, 
1622.00, 
1623.00, 
1624.00, 
1625.00, 
1626.00, 
1627.00, 
1628.00, 
1629.00, 
1630.00, 
1631.00, 
1632.00, 
1633.00, 
1634.00, 
1635.00, 
1636.00, 
1637.00, 
1638.00, 
1639.00, 
1640.00, 
1641.00, 
1642.00, 
1643.00, 
1644.00, 
1645.00, 
1646.00, 
1647.00, 
1648.00, 
1649.00, 
1650.00, 
1651.00, 
1652.00, 
1653.00, 
1654.00, 
1655.00, 
1656.00, 
1657.00, 
1658.00, 
1659.00, 
1660.00, 
1661.00, 
1662.00, 
1663.00, 
1664.00, 
1665.00, 
1666.00, 
1667.00, 
1668.00, 
1669.00, 
1670.00, 
1671.00, 
1672.00, 
1673.00, 
1674.00, 
1675.00, 
1676.00, 
1677.00, 
1678.00, 
1679.00, 
1680.00, 
1681.00, 
1682.00, 
1683.00, 
1684.00, 
1685.00, 
1686.00, 
1687.00, 
1688.00, 
1689.00, 
1690.00, 
1691.00, 
1692.00, 
1693.00, 
1694.00, 
1695.00, 
1696.00, 
1697.00, 
1698.00, 
1699.00, 
1700.00, 
1701.00, 
1702.00, 
1703.00, 
1704.00, 
1705.00, 
1706.00, 
1707.00, 
1708.00, 
1709.00, 
1710.00, 
1711.00, 
1712.00, 
1713.00, 
1714.00, 
1715.00, 
1716.00, 
1717.00, 
1718.00, 
1719.00, 
1720.00, 
1721.00, 
1722.00, 
1723.00, 
1724.00, 
1725.00, 
1726.00, 
1727.00, 
1728.00, 
1729.00, 
1730.00, 
1731.00, 
1732.00, 
1733.00, 
1734.00, 
1735.00, 
1736.00, 
1737.00, 
1738.00, 
1739.00, 
1740.00, 
1741.00, 
1742.00, 
1743.00, 
1744.00, 
1745.00, 
1746.00, 
1747.00, 
1748.00, 
1749.00, 
1750.00, 
1751.00, 
1752.00, 
1753.00, 
1754.00, 
1755.00, 
1756.00, 
1757.00, 
1758.00, 
1759.00, 
1760.00, 
1761.00, 
1762.00, 
1763.00, 
1764.00, 
1765.00, 
1766.00, 
1767.00, 
1768.00, 
1769.00, 
1770.00, 
1771.00, 
1772.00, 
1773.00, 
1774.00, 
1775.00, 
1776.00, 
1777.00, 
1778.00, 
1779.00, 
1780.00, 
1781.00, 
1782.00, 
1783.00, 
1784.00, 
1785.00, 
1786.00, 
1787.00, 
1788.00, 
1789.00, 
1790.00, 
1791.00, 
1792.00, 
1793.00, 
1794.00, 
1795.00, 
1796.00, 
1797.00, 
1798.00, 
1799.00, 
1800.00, 
1801.00, 
1802.00, 
1803.00, 
1804.00, 
1805.00, 
1806.00, 
1807.00, 
1808.00, 
1809.00, 
1810.00, 
1811.00, 
1812.00, 
1813.00, 
1814.00, 
1815.00, 
1816.00, 
1817.00, 
1818.00, 
1819.00, 
1820.00, 
1821.00, 
1822.00, 
1823.00, 
1824.00, 
1825.00, 
1826.00, 
1827.00, 
1828.00, 
1829.00, 
1830.00, 
1831.00, 
1832.00, 
1833.00, 
1834.00, 
1835.00, 
1836.00, 
1837.00, 
1838.00, 
1839.00, 
1840.00, 
1841.00, 
1842.00, 
1843.00, 
1844.00, 
1845.00, 
1846.00, 
1847.00, 
1848.00, 
1849.00, 
1850.00, 
1851.00, 
1852.00, 
1853.00, 
1854.00, 
1855.00, 
1856.00, 
1857.00, 
1858.00, 
1859.00, 
1860.00, 
1861.00, 
1862.00, 
1863.00, 
1864.00, 
1865.00, 
1866.00, 
1867.00, 
1868.00, 
1869.00, 
1870.00, 
1871.00, 
1872.00, 
1873.00, 
1874.00, 
1875.00, 
1876.00, 
1877.00, 
1878.00, 
1879.00, 
1880.00, 
1881.00, 
1882.00, 
1883.00, 
1884.00, 
1885.00, 
1886.00, 
1887.00, 
1888.00, 
1889.00, 
1890.00, 
1891.00, 
1892.00, 
1893.00, 
1894.00, 
1895.00, 
1896.00, 
1897.00, 
1898.00, 
1899.00, 
1900.00, 
1901.00, 
1902.00, 
1903.00, 
1904.00, 
1905.00, 
1906.00, 
1907.00, 
1908.00, 
1909.00, 
1910.00, 
1911.00, 
1912.00, 
1913.00, 
1914.00, 
1915.00, 
1916.00, 
1917.00, 
1918.00, 
1919.00, 
1920.00, 
1921.00, 
1922.00, 
1923.00, 
1924.00, 
1925.00, 
1926.00, 
1927.00, 
1928.00, 
1929.00, 
1930.00, 
1931.00, 
1932.00, 
1933.00, 
1934.00, 
1935.00, 
1936.00, 
1937.00, 
1938.00, 
1939.00, 
1940.00, 
1941.00, 
1942.00, 
1943.00, 
1944.00, 
1945.00, 
1946.00, 
1947.00, 
1948.00, 
1949.00, 
1950.00, 
1951.00, 
1952.00, 
1953.00, 
1954.00, 
1955.00, 
1956.00, 
1957.00, 
1958.00, 
1959.00, 
1960.00, 
1961.00, 
1962.00, 
1963.00, 
1964.00, 
1965.00, 
1966.00, 
1967.00, 
1968.00, 
1969.00, 
1970.00, 
1971.00, 
1972.00, 
1973.00, 
1974.00, 
1975.00, 
1976.00, 
1977.00, 
1978.00, 
1979.00, 
1980.00, 
1981.00, 
1982.00, 
1983.00, 
1984.00, 
1985.00, 
1986.00, 
1987.00, 
1988.00, 
1989.00, 
1990.00, 
1991.00, 
1992.00, 
1993.00, 
1994.00, 
1995.00, 
1996.00, 
1997.00, 
1998.00, 
1999.00, 
2000.00, 
2001.00, 
2002.00, 
2003.00, 
2004.00, 
2005.00, 
2006.00, 
2007.00, 
2008.00, 
2009.00, 
2010.00, 
2011.00, 
2012.00, 
2013.00, 
2014.00, 
2015.00, 
2016.00, 
2017.00, 
2018.00, 
2019.00, 
2020.00, 
2021.00, 
2022.00, 
2023.00, 
2024.00, 
2025.00, 
2026.00, 
2027.00, 
2028.00, 
2029.00, 
2030.00, 
2031.00, 
2032.00, 
2033.00, 
2034.00, 
2035.00, 
2036.00, 
2037.00, 
2038.00, 
2039.00, 
2040.00, 
2041.00, 
2042.00, 
2043.00, 
2044.00, 
2045.00, 
2046.00, 
2047.00, 
2048.00, 
2049.00, 
2050.00, 
2051.00, 
2052.00, 
2053.00, 
2054.00, 
2055.00, 
2056.00, 
2057.00, 
2058.00, 
2059.00, 
2060.00, 
2061.00, 
2062.00, 
2063.00, 
2064.00, 
2065.00, 
2066.00, 
2067.00, 
2068.00, 
2069.00, 
2070.00, 
2071.00, 
2072.00, 
2073.00, 
2074.00, 
2075.00, 
2076.00, 
2077.00, 
2078.00, 
2079.00, 
2080.00, 
2081.00, 
2082.00, 
2083.00, 
2084.00, 
2085.00, 
2086.00, 
2087.00, 
2088.00, 
2089.00, 
2090.00, 
2091.00, 
2092.00, 
2093.00, 
2094.00, 
2095.00, 
2096.00, 
2097.00, 
2098.00, 
2099.00, 
2100.00, 
2101.00, 
2102.00, 
2103.00, 
2104.00, 
2105.00, 
2106.00, 
2107.00, 
2108.00, 
2109.00, 
2110.00, 
2111.00, 
2112.00, 
2113.00, 
2114.00, 
2115.00, 
2116.00, 
2117.00, 
2118.00, 
2119.00, 
2120.00, 
2121.00, 
2122.00, 
2123.00, 
2124.00, 
2125.00, 
2126.00, 
2127.00, 
2128.00, 
2129.00, 
2130.00, 
2131.00, 
2132.00, 
2133.00, 
2134.00, 
2135.00, 
2136.00, 
2137.00, 
2138.00, 
2139.00, 
2140.00, 
2141.00, 
2142.00, 
2143.00, 
2144.00, 
2145.00, 
2146.00, 
2147.00, 
2148.00, 
2149.00, 
2150.00, 
2151.00, 
2152.00, 
2153.00, 
2154.00, 
2155.00, 
2156.00, 
2157.00, 
2158.00, 
2159.00, 
2160.00, 
2161.00, 
2162.00, 
2163.00, 
2164.00, 
2165.00, 
2166.00, 
2167.00, 
2168.00, 
2169.00, 
2170.00, 
2171.00, 
2172.00, 
2173.00, 
2174.00, 
2175.00, 
2176.00, 
2177.00, 
2178.00, 
2179.00, 
2180.00, 
2181.00, 
2182.00, 
2183.00, 
2184.00, 
2185.00, 
2186.00, 
2187.00, 
2188.00, 
2189.00, 
2190.00, 
2191.00, 
2192.00, 
2193.00, 
2194.00, 
2195.00, 
2196.00, 
2197.00, 
2198.00, 
2199.00, 
2200.00, 
2201.00, 
2202.00, 
2203.00, 
2204.00, 
2205.00, 
2206.00, 
2207.00, 
2208.00, 
2209.00, 
2210.00, 
2211.00, 
2212.00, 
2213.00, 
2214.00, 
2215.00, 
2216.00, 
2217.00, 
2218.00, 
2219.00, 
2220.00, 
2221.00, 
2222.00, 
2223.00, 
2224.00, 
2225.00, 
2226.00, 
2227.00, 
2228.00, 
2229.00, 
2230.00, 
2231.00, 
2232.00, 
2233.00, 
2234.00, 
2235.00, 
2236.00, 
2237.00, 
2238.00, 
2239.00, 
2240.00, 
2241.00, 
2242.00, 
2243.00, 
2244.00, 
2245.00, 
2246.00, 
2247.00, 
2248.00, 
2249.00, 
2250.00, 
2251.00, 
2252.00, 
2253.00, 
2254.00, 
2255.00, 
2256.00, 
2257.00, 
2258.00, 
2259.00, 
2260.00, 
2261.00, 
2262.00, 
2263.00, 
2264.00, 
2265.00, 
2266.00, 
2267.00, 
2268.00, 
2269.00, 
2270.00, 
2271.00, 
2272.00, 
2273.00, 
2274.00, 
2275.00, 
2276.00, 
2277.00, 
2278.00, 
2279.00, 
2280.00, 
2281.00, 
2282.00, 
2283.00, 
2284.00, 
2285.00, 
2286.00, 
2287.00, 
2288.00, 
2289.00, 
2290.00, 
2291.00, 
2292.00, 
2293.00, 
2294.00, 
2295.00, 
2296.00, 
2297.00, 
2298.00, 
2299.00, 
2300.00, 
2301.00, 
2302.00, 
2303.00, 
2304.00, 
2305.00, 
2306.00, 
2307.00, 
2308.00, 
2309.00, 
2310.00, 
2311.00, 
2312.00, 
2313.00, 
2314.00, 
2315.00, 
2316.00, 
2317.00, 
2318.00, 
2319.00, 
2320.00, 
2321.00, 
2322.00, 
2323.00, 
2324.00, 
2325.00, 
2326.00, 
2327.00, 
2328.00, 
2329.00, 
2330.00, 
2331.00, 
2332.00, 
2333.00, 
2334.00, 
2335.00, 
2336.00, 
2337.00, 
2338.00, 
2339.00, 
2340.00, 
2341.00, 
2342.00, 
2343.00, 
2344.00, 
2345.00, 
2346.00, 
2347.00, 
2348.00, 
2349.00, 
2350.00, 
2351.00, 
2352.00, 
2353.00, 
2354.00, 
2355.00, 
2356.00, 
2357.00, 
2358.00, 
2359.00, 
2360.00, 
2361.00, 
2362.00, 
2363.00, 
2364.00, 
2365.00, 
2366.00, 
2367.00, 
2368.00, 
2369.00, 
2370.00, 
2371.00, 
2372.00, 
2373.00, 
2374.00, 
2375.00, 
2376.00, 
2377.00, 
2378.00, 
2379.00, 
2380.00, 
2381.00, 
2382.00, 
2383.00, 
2384.00, 
2385.00, 
2386.00, 
2387.00, 
2388.00, 
2389.00, 
2390.00, 
2391.00, 
2392.00, 
2393.00, 
2394.00, 
2395.00, 
2396.00, 
2397.00, 
2398.00, 
2399.00, 
2400.00, 
2401.00, 
2402.00, 
2403.00, 
2404.00, 
2405.00, 
2406.00, 
2407.00, 
2408.00, 
2409.00, 
2410.00, 
2411.00, 
2412.00, 
2413.00, 
2414.00, 
2415.00, 
2416.00, 
2417.00, 
2418.00, 
2419.00, 
2420.00, 
2421.00, 
2422.00, 
2423.00, 
2424.00, 
2425.00, 
2426.00, 
2427.00, 
2428.00, 
2429.00, 
2430.00, 
2431.00, 
2432.00, 
2433.00, 
2434.00, 
2435.00, 
2436.00, 
2437.00, 
2438.00, 
2439.00, 
2440.00, 
2441.00, 
2442.00, 
2443.00, 
2444.00, 
2445.00, 
2446.00, 
2447.00, 
2448.00, 
2449.00, 
2450.00, 
2451.00, 
2452.00, 
2453.00, 
2454.00, 
2455.00, 
2456.00, 
2457.00, 
2458.00, 
2459.00, 
2460.00, 
2461.00, 
2462.00, 
2463.00, 
2464.00, 
2465.00, 
2466.00, 
2467.00, 
2468.00, 
2469.00, 
2470.00, 
2471.00, 
2472.00, 
2473.00, 
2474.00, 
2475.00, 
2476.00, 
2477.00, 
2478.00, 
2479.00, 
2480.00, 
2481.00, 
2482.00, 
2483.00, 
2484.00, 
2485.00, 
2486.00, 
2487.00, 
2488.00, 
2489.00, 
2490.00, 
2491.00, 
2492.00, 
2493.00, 
2494.00, 
2495.00, 
2496.00, 
2497.00, 
2498.00, 
2499.00, 
2500.00, 
2501.00, 
2502.00, 
2503.00, 
2504.00, 
2505.00, 
2506.00, 
2507.00, 
2508.00, 
2509.00, 
2510.00, 
2511.00, 
2512.00, 
2513.00, 
2514.00, 
2515.00, 
2516.00, 
2517.00, 
2518.00, 
2519.00, 
2520.00, 
2521.00, 
2522.00, 
2523.00, 
2524.00, 
2525.00, 
2526.00, 
2527.00, 
2528.00, 
2529.00, 
2530.00, 
2531.00, 
2532.00, 
2533.00, 
2534.00, 
2535.00, 
2536.00, 
2537.00, 
2538.00, 
2539.00, 
2540.00, 
2541.00, 
2542.00, 
2543.00, 
2544.00, 
2545.00, 
2546.00, 
2547.00, 
2548.00, 
2549.00, 
2550.00, 
2551.00, 
2552.00, 
2553.00, 
2554.00, 
2555.00, 
2556.00, 
2557.00, 
2558.00, 
2559.00, 
2560.00, 
2561.00, 
2562.00, 
2563.00, 
2564.00, 
2565.00, 
2566.00, 
2567.00, 
2568.00, 
2569.00, 
2570.00, 
2571.00, 
2572.00, 
2573.00, 
2574.00, 
2575.00, 
2576.00, 
2577.00, 
2578.00, 
2579.00, 
2580.00, 
2581.00, 
2582.00, 
2583.00, 
2584.00, 
2585.00, 
2586.00, 
2587.00, 
2588.00, 
2589.00, 
2590.00, 
2591.00, 
2592.00, 
2593.00, 
2594.00, 
2595.00, 
2596.00, 
2597.00, 
2598.00, 
2599.00, 
2600.00, 
