"1cP5 - RawData"
"Wavelength nm.","T%"
200.00,0.000
201.00,-0.000
202.00,0.001
203.00,-0.001
204.00,0.001
205.00,0.003
206.00,-0.000
207.00,0.001
208.00,0.003
209.00,0.000
210.00,0.002
211.00,-0.000
212.00,0.002
213.00,0.004
214.00,0.000
215.00,0.001
216.00,-0.001
217.00,0.004
218.00,-0.002
219.00,0.002
220.00,0.000
221.00,-0.001
222.00,0.000
223.00,0.000
224.00,-0.002
225.00,0.001
226.00,-0.000
227.00,0.003
228.00,0.001
229.00,-0.001
230.00,0.001
231.00,0.001
232.00,0.001
233.00,0.000
234.00,0.003
235.00,0.003
236.00,-0.001
237.00,0.001
238.00,0.001
239.00,-0.001
240.00,0.000
241.00,-0.000
242.00,-0.001
243.00,0.000
244.00,0.002
245.00,0.000
246.00,0.001
247.00,0.001
248.00,0.001
249.00,-0.002
250.00,-0.000
251.00,0.002
252.00,0.001
253.00,0.000
254.00,0.000
255.00,0.000
256.00,0.000
257.00,0.000
258.00,0.001
259.00,-0.000
260.00,-0.001
261.00,-0.000
262.00,0.001
263.00,0.002
264.00,0.001
265.00,0.000
266.00,-0.000
267.00,-0.000
268.00,0.000
269.00,0.001
270.00,0.001
271.00,0.000
272.00,-0.000
273.00,-0.000
274.00,0.000
275.00,0.000
276.00,-0.000
277.00,0.001
278.00,0.000
279.00,0.000
280.00,-0.001
281.00,-0.001
282.00,0.000
283.00,0.000
284.00,0.001
285.00,-0.001
286.00,-0.000
287.00,0.001
288.00,0.000
289.00,0.001
290.00,0.001
291.00,-0.003
292.00,-0.000
293.00,0.000
294.00,-0.001
295.00,0.000
296.00,0.000
297.00,0.000
298.00,-0.001
299.00,0.001
300.00,0.000
301.00,0.001
302.00,0.002
303.00,0.001
304.00,0.001
305.00,0.001
306.00,0.000
307.00,0.002
308.00,0.003
309.00,0.007
310.00,0.010
311.00,0.017
312.00,0.026
313.00,0.040
314.00,0.064
315.00,0.093
316.00,0.135
317.00,0.184
318.00,0.246
319.00,0.338
320.00,0.437
321.00,0.572
322.00,0.738
323.00,0.918
324.00,1.129
325.00,1.364
326.00,1.600
327.00,1.913
328.00,2.226
329.00,2.570
330.00,2.931
331.00,3.303
332.00,3.683
333.00,4.145
334.00,4.571
335.00,5.013
336.00,5.423
337.00,5.886
338.00,6.291
339.00,6.754
340.00,7.177
341.00,7.636
342.00,8.019
343.00,8.395
344.00,8.827
345.00,9.156
346.00,9.486
347.00,9.794
348.00,10.097
349.00,10.369
350.00,10.639
351.00,10.902
352.00,11.092
353.00,11.332
354.00,11.526
355.00,11.711
356.00,11.892
357.00,11.993
358.00,12.174
359.00,12.337
360.00,12.436
361.00,12.513
362.00,12.618
363.00,12.697
364.00,12.707
365.00,12.779
366.00,12.822
367.00,12.838
368.00,12.858
369.00,12.874
370.00,12.883
371.00,12.846
372.00,12.816
373.00,12.826
374.00,12.777
375.00,12.696
376.00,12.616
377.00,12.536
378.00,12.483
379.00,12.397
380.00,12.356
381.00,12.317
382.00,12.304
383.00,12.284
384.00,12.288
385.00,12.307
386.00,12.278
387.00,12.307
388.00,12.337
389.00,12.315
390.00,12.312
391.00,12.319
392.00,12.301
393.00,12.308
394.00,12.305
395.00,12.308
396.00,12.277
397.00,12.269
398.00,12.289
399.00,12.262
400.00,12.211
401.00,12.191
402.00,12.242
403.00,12.234
404.00,12.182
405.00,12.156
406.00,12.138
407.00,12.085
408.00,12.079
409.00,12.047
410.00,11.991
411.00,11.995
412.00,11.974
413.00,11.976
414.00,11.950
415.00,11.921
416.00,11.974
417.00,11.947
418.00,11.967
419.00,12.022
420.00,12.060
421.00,11.982
422.00,12.008
423.00,12.052
424.00,12.048
425.00,12.091
426.00,12.076
427.00,12.119
428.00,12.151
429.00,12.166
430.00,12.241
431.00,12.297
432.00,12.308
433.00,12.362
434.00,12.419
435.00,12.458
436.00,12.518
437.00,12.556
438.00,12.610
439.00,12.661
440.00,12.752
441.00,12.788
442.00,12.860
443.00,12.931
444.00,12.975
445.00,13.092
446.00,13.148
447.00,13.245
448.00,13.345
449.00,13.431
450.00,13.532
451.00,13.607
452.00,13.704
453.00,13.824
454.00,13.887
455.00,14.007
456.00,14.095
457.00,14.207
458.00,14.299
459.00,14.432
460.00,14.537
461.00,14.649
462.00,14.760
463.00,14.889
464.00,15.014
465.00,15.127
466.00,15.272
467.00,15.355
468.00,15.437
469.00,15.588
470.00,15.685
471.00,15.774
472.00,15.884
473.00,16.001
474.00,16.153
475.00,16.247
476.00,16.386
477.00,16.522
478.00,16.631
479.00,16.794
480.00,16.957
481.00,17.078
482.00,17.201
483.00,17.364
484.00,17.546
485.00,17.654
486.00,17.803
487.00,17.971
488.00,18.064
489.00,18.299
490.00,18.369
491.00,18.559
492.00,18.689
493.00,18.912
494.00,19.079
495.00,19.116
496.00,19.258
497.00,19.389
498.00,19.530
499.00,19.671
500.00,19.805
501.00,19.879
502.00,20.119
503.00,20.246
504.00,20.330
505.00,20.504
506.00,20.617
507.00,20.729
508.00,20.829
509.00,21.043
510.00,21.175
511.00,21.274
512.00,21.456
513.00,21.606
514.00,21.724
515.00,21.840
516.00,21.969
517.00,22.061
518.00,22.217
519.00,22.311
520.00,22.398
521.00,22.519
522.00,22.628
523.00,22.707
524.00,22.832
525.00,22.974
526.00,23.073
527.00,23.183
528.00,23.288
529.00,23.460
530.00,23.591
531.00,23.703
532.00,23.784
533.00,23.902
534.00,23.996
535.00,24.117
536.00,24.194
537.00,24.294
538.00,24.365
539.00,24.477
540.00,24.573
541.00,24.645
542.00,24.704
543.00,24.759
544.00,24.863
545.00,24.948
546.00,25.016
547.00,25.157
548.00,25.255
549.00,25.264
550.00,25.396
551.00,25.518
552.00,25.579
553.00,25.617
554.00,25.665
555.00,25.740
556.00,25.839
557.00,25.894
558.00,25.976
559.00,26.083
560.00,26.130
561.00,26.238
562.00,26.298
563.00,26.342
564.00,26.369
565.00,26.459
566.00,26.475
567.00,26.498
568.00,26.579
569.00,26.640
570.00,26.653
571.00,26.761
572.00,26.754
573.00,26.693
574.00,26.763
575.00,26.891
576.00,26.849
577.00,26.978
578.00,27.078
579.00,27.134
580.00,27.177
581.00,27.342
582.00,27.340
583.00,27.350
584.00,27.491
585.00,27.548
586.00,27.624
587.00,27.685
588.00,27.642
589.00,27.580
590.00,27.750
591.00,27.855
592.00,27.831
593.00,27.886
594.00,28.031
595.00,28.098
596.00,28.106
597.00,28.201
598.00,28.256
599.00,28.253
600.00,28.387
601.00,28.446
602.00,28.476
603.00,28.532
604.00,28.581
605.00,28.636
606.00,28.675
607.00,28.747
608.00,28.811
609.00,28.935
610.00,29.080
611.00,28.906
612.00,29.023
613.00,29.063
614.00,29.133
615.00,29.236
616.00,29.350
617.00,29.318
618.00,29.357
619.00,29.482
620.00,29.524
621.00,29.593
622.00,29.696
623.00,29.780
624.00,29.882
625.00,29.948
626.00,30.042
627.00,30.061
628.00,30.135
629.00,30.208
630.00,30.290
631.00,30.339
632.00,30.472
633.00,30.634
634.00,30.670
635.00,30.776
636.00,30.851
637.00,30.974
638.00,31.086
639.00,31.160
640.00,31.216
641.00,31.299
642.00,31.336
643.00,31.508
644.00,31.602
645.00,31.639
646.00,31.825
647.00,32.050
648.00,32.111
649.00,32.185
650.00,32.216
651.00,32.388
652.00,32.489
653.00,32.550
654.00,32.671
655.00,32.857
656.00,33.174
657.00,33.219
658.00,33.373
659.00,33.471
660.00,33.523
661.00,33.599
662.00,33.702
663.00,33.834
664.00,34.095
665.00,34.312
666.00,34.227
667.00,34.363
668.00,34.505
669.00,34.656
670.00,34.990
671.00,35.008
672.00,35.060
673.00,35.150
674.00,35.361
675.00,35.538
676.00,35.625
677.00,35.999
678.00,35.945
679.00,36.069
680.00,36.250
681.00,36.444
682.00,36.520
683.00,36.566
684.00,36.782
685.00,36.949
686.00,36.845
687.00,37.149
688.00,37.281
689.00,37.423
690.00,37.631
691.00,37.952
692.00,37.761
693.00,37.857
694.00,38.008
695.00,38.350
696.00,38.364
697.00,38.472
698.00,38.705
699.00,38.928
700.00,39.121
701.00,39.096
702.00,39.231
703.00,39.551
704.00,39.646
705.00,39.620
706.00,39.747
707.00,39.904
708.00,39.875
709.00,40.322
710.00,40.698
711.00,40.317
712.00,40.464
713.00,40.718
714.00,40.759
715.00,40.898
716.00,40.922
717.00,41.130
718.00,41.351
719.00,41.318
720.00,41.567
721.00,45.724
722.00,45.791
723.00,45.830
724.00,45.969
725.00,45.959
726.00,46.132
727.00,46.178
728.00,46.292
729.00,46.323
730.00,46.513
731.00,46.579
732.00,46.626
733.00,46.752
734.00,46.853
735.00,46.946
736.00,46.989
737.00,47.046
738.00,47.178
739.00,47.264
740.00,47.275
741.00,47.368
742.00,47.537
743.00,47.531
744.00,47.603
745.00,47.643
746.00,47.661
747.00,47.804
748.00,47.745
749.00,47.895
750.00,47.909
751.00,47.893
752.00,48.051
753.00,48.049
754.00,48.124
755.00,48.181
756.00,48.129
757.00,48.219
758.00,48.289
759.00,48.311
760.00,48.412
761.00,48.478
762.00,48.490
763.00,48.639
764.00,48.624
765.00,48.658
766.00,48.719
767.00,48.732
768.00,48.783
769.00,48.827
770.00,49.014
771.00,48.891
772.00,48.920
773.00,49.027
774.00,49.082
775.00,49.150
776.00,49.128
777.00,49.207
778.00,49.195
779.00,49.302
780.00,49.274
781.00,49.268
782.00,49.332
783.00,49.399
784.00,49.454
785.00,49.360
786.00,49.403
787.00,49.392
788.00,49.453
789.00,49.516
790.00,49.492
791.00,49.647
792.00,49.475
793.00,49.563
794.00,49.505
795.00,49.558
796.00,49.548
797.00,49.484
798.00,49.600
799.00,49.545
800.00,49.536
801.00,49.605
802.00,49.587
803.00,49.663
804.00,49.662
805.00,49.618
806.00,49.652
807.00,49.627
808.00,49.664
809.00,49.685
810.00,49.647
811.00,49.665
812.00,49.667
813.00,49.653
814.00,49.711
815.00,49.633
816.00,49.627
817.00,49.616
818.00,49.606
819.00,49.718
820.00,49.659
821.00,49.671
822.00,49.700
823.00,49.654
824.00,49.751
825.00,49.669
826.00,49.659
827.00,49.728
828.00,49.768
829.00,49.746
830.00,49.680
831.00,52.130
832.00,52.135
833.00,52.108
834.00,52.086
835.00,52.073
836.00,52.086
837.00,52.101
838.00,52.102
839.00,52.097
840.00,52.089
841.00,52.109
842.00,52.065
843.00,52.079
844.00,52.092
845.00,52.009
846.00,52.082
847.00,52.013
848.00,52.143
849.00,51.978
850.00,51.983
851.00,51.904
852.00,51.966
853.00,51.947
854.00,51.940
855.00,51.896
856.00,51.884
857.00,51.867
858.00,51.824
859.00,51.830
860.00,51.825
861.00,51.875
862.00,51.761
863.00,51.839
864.00,51.948
865.00,51.819
866.00,51.812
867.00,51.783
868.00,51.782
869.00,51.769
870.00,51.806
871.00,51.763
872.00,51.806
873.00,51.742
874.00,51.791
875.00,51.747
876.00,51.786
877.00,51.754
878.00,51.730
879.00,51.858
880.00,51.731
881.00,51.724
882.00,51.769
883.00,51.697
884.00,51.674
885.00,51.650
886.00,51.661
887.00,51.627
888.00,51.638
889.00,51.620
890.00,51.591
891.00,51.588
892.00,51.570
893.00,51.557
894.00,51.549
895.00,51.529
896.00,51.495
897.00,51.479
898.00,51.484
899.00,51.490
900.00,51.455
901.00,51.470
902.00,51.494
903.00,51.444
904.00,51.451
905.00,51.421
906.00,51.451
907.00,51.423
908.00,51.379
909.00,51.386
910.00,51.354
911.00,51.356
912.00,51.313
913.00,51.290
914.00,51.289
915.00,51.289
916.00,51.273
917.00,51.243
918.00,51.180
919.00,51.277
920.00,51.165
921.00,51.161
922.00,51.141
923.00,51.145
924.00,51.118
925.00,51.132
926.00,51.084
927.00,51.106
928.00,51.038
929.00,51.066
930.00,51.031
931.00,51.034
932.00,50.960
933.00,50.979
934.00,51.119
935.00,50.946
936.00,50.931
937.00,50.935
938.00,50.918
939.00,50.923
940.00,50.878
941.00,50.902
942.00,50.852
943.00,50.830
944.00,50.796
945.00,50.807
946.00,50.814
947.00,50.736
948.00,50.732
949.00,50.772
950.00,50.725
951.00,50.672
952.00,50.689
953.00,50.630
954.00,50.615
955.00,50.583
956.00,50.592
957.00,50.547
958.00,50.581
959.00,50.490
960.00,50.511
961.00,50.512
962.00,50.513
963.00,50.466
964.00,50.458
965.00,50.544
966.00,50.443
967.00,50.453
968.00,50.416
969.00,50.442
970.00,50.416
971.00,50.441
972.00,50.396
973.00,50.433
974.00,50.450
975.00,50.422
976.00,50.424
977.00,50.433
978.00,50.472
979.00,50.432
980.00,50.439
981.00,50.455
982.00,50.414
983.00,50.445
984.00,50.397
985.00,50.417
986.00,50.394
987.00,50.417
988.00,50.364
989.00,50.354
990.00,50.362
991.00,50.350
992.00,50.358
993.00,50.326
994.00,50.318
995.00,50.303
996.00,50.292
997.00,50.283
998.00,50.254
999.00,50.271
1000.00,50.226
1001.00,50.220
1002.00,50.241
1003.00,50.218
1004.00,50.200
1005.00,50.153
1006.00,50.194
1007.00,50.181
1008.00,50.163
1009.00,50.137
1010.00,50.148
1011.00,50.123
1012.00,50.086
1013.00,50.100
1014.00,50.059
1015.00,50.076
1016.00,50.037
1017.00,50.017
1018.00,50.017
1019.00,49.991
1020.00,49.997
1021.00,49.971
1022.00,49.985
1023.00,49.936
1024.00,49.953
1025.00,49.929
1026.00,49.931
1027.00,49.895
1028.00,49.896
1029.00,49.889
1030.00,49.847
1031.00,49.868
1032.00,49.822
1033.00,49.821
1034.00,49.797
1035.00,49.754
1036.00,49.721
1037.00,49.709
1038.00,49.699
1039.00,49.664
1040.00,49.688
1041.00,49.642
1042.00,49.644
1043.00,49.623
1044.00,49.650
1045.00,49.630
1046.00,49.612
1047.00,49.647
1048.00,49.656
1049.00,49.663
1050.00,49.658
1051.00,49.705
1052.00,49.691
1053.00,49.704
1054.00,49.715
1055.00,49.747
1056.00,49.781
1057.00,49.744
1058.00,49.724
1059.00,49.742
1060.00,49.764
1061.00,49.724
1062.00,49.712
1063.00,49.715
1064.00,49.706
1065.00,49.671
1066.00,49.684
1067.00,49.681
1068.00,49.713
1069.00,49.666
1070.00,49.666
1071.00,49.647
1072.00,49.656
1073.00,49.640
1074.00,49.636
1075.00,49.617
1076.00,49.633
1077.00,49.615
1078.00,49.599
1079.00,49.599
1080.00,49.592
1081.00,49.578
1082.00,49.576
1083.00,49.560
1084.00,49.574
1085.00,49.566
1086.00,49.564
1087.00,49.592
1088.00,49.541
1089.00,49.537
1090.00,49.528
1091.00,49.523
1092.00,49.513
1093.00,49.509
1094.00,49.479
1095.00,49.485
1096.00,49.465
1097.00,49.470
1098.00,49.456
1099.00,49.451
1100.00,49.433
1101.00,49.436
1102.00,49.407
1103.00,49.423
1104.00,49.405
1105.00,49.382
1106.00,49.377
1107.00,49.381
1108.00,49.372
1109.00,49.355
1110.00,49.352
1111.00,49.347
1112.00,49.335
1113.00,49.339
1114.00,49.331
1115.00,49.334
1116.00,49.314
1117.00,49.313
1118.00,49.295
1119.00,49.295
1120.00,49.290
1121.00,49.288
1122.00,49.261
1123.00,49.263
1124.00,49.254
1125.00,49.275
1126.00,49.258
1127.00,49.258
1128.00,49.226
1129.00,49.231
1130.00,49.208
1131.00,49.224
1132.00,49.250
1133.00,49.197
1134.00,49.203
1135.00,49.179
1136.00,49.196
1137.00,49.221
1138.00,49.199
1139.00,49.211
1140.00,49.192
1141.00,49.191
1142.00,49.175
1143.00,49.195
1144.00,49.184
1145.00,49.186
1146.00,49.171
1147.00,49.179
1148.00,49.172
1149.00,49.165
1150.00,49.161
1151.00,49.165
1152.00,49.145
1153.00,49.140
1154.00,49.128
1155.00,49.139
1156.00,49.128
1157.00,49.141
1158.00,49.125
1159.00,49.133
1160.00,49.112
1161.00,49.130
1162.00,49.118
1163.00,49.119
1164.00,49.133
1165.00,49.124
1166.00,49.142
1167.00,49.110
1168.00,49.123
1169.00,49.122
1170.00,49.130
1171.00,49.117
1172.00,49.120
1173.00,49.115
1174.00,49.113
1175.00,49.113
1176.00,49.111
1177.00,49.105
1178.00,49.123
1179.00,49.118
1180.00,49.103
1181.00,49.135
1182.00,49.105
1183.00,49.117
1184.00,49.101
1185.00,49.097
1186.00,49.090
1187.00,49.099
1188.00,49.108
1189.00,49.102
1190.00,49.088
1191.00,49.084
1192.00,49.115
1193.00,49.091
1194.00,49.096
1195.00,49.071
1196.00,49.106
1197.00,49.105
1198.00,49.087
1199.00,49.094
1200.00,49.101
1201.00,49.105
1202.00,49.087
1203.00,49.088
1204.00,49.088
1205.00,49.119
1206.00,49.103
1207.00,49.107
1208.00,49.095
1209.00,49.095
1210.00,49.115
1211.00,49.102
1212.00,49.119
1213.00,49.090
1214.00,49.112
1215.00,49.083
1216.00,49.119
1217.00,49.107
1218.00,49.084
1219.00,49.139
1220.00,49.091
1221.00,49.122
1222.00,49.108
1223.00,49.140
1224.00,49.142
1225.00,49.107
1226.00,49.110
1227.00,49.110
1228.00,49.129
1229.00,49.119
1230.00,49.152
1231.00,49.138
1232.00,49.169
1233.00,49.168
1234.00,49.161
1235.00,49.161
1236.00,49.159
1237.00,49.168
1238.00,49.167
1239.00,49.176
1240.00,49.151
1241.00,49.184
1242.00,49.185
1243.00,49.204
1244.00,49.180
1245.00,49.212
1246.00,49.230
1247.00,49.203
1248.00,49.204
1249.00,49.228
1250.00,49.225
1251.00,49.202
1252.00,49.232
1253.00,49.212
1254.00,49.243
1255.00,49.220
1256.00,49.225
1257.00,49.218
1258.00,49.253
1259.00,49.246
1260.00,49.274
1261.00,49.268
1262.00,49.266
1263.00,49.282
1264.00,49.291
1265.00,49.282
1266.00,49.284
1267.00,49.288
1268.00,49.286
1269.00,49.303
1270.00,49.316
1271.00,49.321
1272.00,49.323
1273.00,49.341
1274.00,49.346
1275.00,49.351
1276.00,49.342
1277.00,49.353
1278.00,49.342
1279.00,49.362
1280.00,49.342
1281.00,49.362
1282.00,49.381
1283.00,49.374
1284.00,49.430
1285.00,49.402
1286.00,49.410
1287.00,49.399
1288.00,49.399
1289.00,49.386
1290.00,49.433
1291.00,49.419
1292.00,49.400
1293.00,49.432
1294.00,49.448
1295.00,49.448
1296.00,49.466
1297.00,49.477
1298.00,49.514
1299.00,49.476
1300.00,49.504
1301.00,49.480
1302.00,49.521
1303.00,49.507
1304.00,49.491
1305.00,49.517
1306.00,49.505
1307.00,49.523
1308.00,49.531
1309.00,49.559
1310.00,49.547
1311.00,49.545
1312.00,49.547
1313.00,49.577
1314.00,49.578
1315.00,49.609
1316.00,49.613
1317.00,49.633
1318.00,49.638
1319.00,49.646
1320.00,49.633
1321.00,49.809
1322.00,49.786
1323.00,49.774
1324.00,49.766
1325.00,49.744
1326.00,49.756
1327.00,49.772
1328.00,49.795
1329.00,49.711
1330.00,49.774
1331.00,49.780
1332.00,49.787
1333.00,49.802
1334.00,49.825
1335.00,49.837
1336.00,49.873
1337.00,49.902
1338.00,49.964
1339.00,50.010
1340.00,50.067
1341.00,50.132
1342.00,50.178
1343.00,50.204
1344.00,50.263
1345.00,50.317
1346.00,50.363
1347.00,50.354
1348.00,50.394
1349.00,50.430
1350.00,50.461
1351.00,50.478
1352.00,50.479
1353.00,50.512
1354.00,50.509
1355.00,50.440
1356.00,50.549
1357.00,50.502
1358.00,50.550
1359.00,50.496
1360.00,50.466
1361.00,50.148
1362.00,50.437
1363.00,50.593
1364.00,50.651
1365.00,50.531
1366.00,50.655
1367.00,50.553
1368.00,50.501
1369.00,50.598
1370.00,50.545
1371.00,50.466
1372.00,50.518
1373.00,50.565
1374.00,50.583
1375.00,50.541
1376.00,50.536
1377.00,50.513
1378.00,50.624
1379.00,50.598
1380.00,50.603
1381.00,50.662
1382.00,50.527
1383.00,50.611
1384.00,50.539
1385.00,50.518
1386.00,50.570
1387.00,50.589
1388.00,50.500
1389.00,50.500
1390.00,50.521
1391.00,50.561
1392.00,50.519
1393.00,50.491
1394.00,50.578
1395.00,50.518
1396.00,50.484
1397.00,50.477
1398.00,50.540
1399.00,50.532
1400.00,50.534
1401.00,50.503
1402.00,50.514
1403.00,50.630
1404.00,50.650
1405.00,50.535
1406.00,50.625
1407.00,50.599
1408.00,50.656
1409.00,50.591
1410.00,50.652
1411.00,50.638
1412.00,50.734
1413.00,50.672
1414.00,50.614
1415.00,50.658
1416.00,50.682
1417.00,50.745
1418.00,50.697
1419.00,50.702
1420.00,50.724
1421.00,50.786
1422.00,50.764
1423.00,50.798
1424.00,50.790
1425.00,50.816
1426.00,50.815
1427.00,50.833
1428.00,50.832
1429.00,50.840
1430.00,50.862
1431.00,50.898
1432.00,50.915
1433.00,50.940
1434.00,50.926
1435.00,51.005
1436.00,51.006
1437.00,50.988
1438.00,51.004
1439.00,51.042
1440.00,51.050
1441.00,51.059
1442.00,51.089
1443.00,51.111
1444.00,51.155
1445.00,51.110
1446.00,51.175
1447.00,51.195
1448.00,51.241
1449.00,51.237
1450.00,51.258
1451.00,51.290
1452.00,51.302
1453.00,51.295
1454.00,51.333
1455.00,51.346
1456.00,51.350
1457.00,51.342
1458.00,51.376
1459.00,51.390
1460.00,51.427
1461.00,51.412
1462.00,51.465
1463.00,51.457
1464.00,51.473
1465.00,51.502
1466.00,51.503
1467.00,51.517
1468.00,51.585
1469.00,51.558
1470.00,51.593
1471.00,51.601
1472.00,51.601
1473.00,51.629
1474.00,51.654
1475.00,51.676
1476.00,51.686
1477.00,51.674
1478.00,51.711
1479.00,51.728
1480.00,51.718
1481.00,51.737
1482.00,51.785
1483.00,51.784
1484.00,51.811
1485.00,51.797
1486.00,51.825
1487.00,51.848
1488.00,51.861
1489.00,51.857
1490.00,51.874
1491.00,51.873
1492.00,51.917
1493.00,51.883
1494.00,51.945
1495.00,51.916
1496.00,51.959
1497.00,51.943
1498.00,51.963
1499.00,51.986
1500.00,51.985
1501.00, 
1502.00, 
1503.00, 
1504.00, 
1505.00, 
1506.00, 
1507.00, 
1508.00, 
1509.00, 
1510.00, 
1511.00, 
1512.00, 
1513.00, 
1514.00, 
1515.00, 
1516.00, 
1517.00, 
1518.00, 
1519.00, 
1520.00, 
1521.00, 
1522.00, 
1523.00, 
1524.00, 
1525.00, 
1526.00, 
1527.00, 
1528.00, 
1529.00, 
1530.00, 
1531.00, 
1532.00, 
1533.00, 
1534.00, 
1535.00, 
1536.00, 
1537.00, 
1538.00, 
1539.00, 
1540.00, 
1541.00, 
1542.00, 
1543.00, 
1544.00, 
1545.00, 
1546.00, 
1547.00, 
1548.00, 
1549.00, 
1550.00, 
1551.00, 
1552.00, 
1553.00, 
1554.00, 
1555.00, 
1556.00, 
1557.00, 
1558.00, 
1559.00, 
1560.00, 
1561.00, 
1562.00, 
1563.00, 
1564.00, 
1565.00, 
1566.00, 
1567.00, 
1568.00, 
1569.00, 
1570.00, 
1571.00, 
1572.00, 
1573.00, 
1574.00, 
1575.00, 
1576.00, 
1577.00, 
1578.00, 
1579.00, 
1580.00, 
1581.00, 
1582.00, 
1583.00, 
1584.00, 
1585.00, 
1586.00, 
1587.00, 
1588.00, 
1589.00, 
1590.00, 
1591.00, 
1592.00, 
1593.00, 
1594.00, 
1595.00, 
1596.00, 
1597.00, 
1598.00, 
1599.00, 
1600.00, 
1601.00, 
1602.00, 
1603.00, 
1604.00, 
1605.00, 
1606.00, 
1607.00, 
1608.00, 
1609.00, 
1610.00, 
1611.00, 
1612.00, 
1613.00, 
1614.00, 
1615.00, 
1616.00, 
1617.00, 
1618.00, 
1619.00, 
1620.00, 
1621.00, 
1622.00, 
1623.00, 
1624.00, 
1625.00, 
1626.00, 
1627.00, 
1628.00, 
1629.00, 
1630.00, 
1631.00, 
1632.00, 
1633.00, 
1634.00, 
1635.00, 
1636.00, 
1637.00, 
1638.00, 
1639.00, 
1640.00, 
1641.00, 
1642.00, 
1643.00, 
1644.00, 
1645.00, 
1646.00, 
1647.00, 
1648.00, 
1649.00, 
1650.00, 
1651.00, 
1652.00, 
1653.00, 
1654.00, 
1655.00, 
1656.00, 
1657.00, 
1658.00, 
1659.00, 
1660.00, 
1661.00, 
1662.00, 
1663.00, 
1664.00, 
1665.00, 
1666.00, 
1667.00, 
1668.00, 
1669.00, 
1670.00, 
1671.00, 
1672.00, 
1673.00, 
1674.00, 
1675.00, 
1676.00, 
1677.00, 
1678.00, 
1679.00, 
1680.00, 
1681.00, 
1682.00, 
1683.00, 
1684.00, 
1685.00, 
1686.00, 
1687.00, 
1688.00, 
1689.00, 
1690.00, 
1691.00, 
1692.00, 
1693.00, 
1694.00, 
1695.00, 
1696.00, 
1697.00, 
1698.00, 
1699.00, 
1700.00, 
1701.00, 
1702.00, 
1703.00, 
1704.00, 
1705.00, 
1706.00, 
1707.00, 
1708.00, 
1709.00, 
1710.00, 
1711.00, 
1712.00, 
1713.00, 
1714.00, 
1715.00, 
1716.00, 
1717.00, 
1718.00, 
1719.00, 
1720.00, 
1721.00, 
1722.00, 
1723.00, 
1724.00, 
1725.00, 
1726.00, 
1727.00, 
1728.00, 
1729.00, 
1730.00, 
1731.00, 
1732.00, 
1733.00, 
1734.00, 
1735.00, 
1736.00, 
1737.00, 
1738.00, 
1739.00, 
1740.00, 
1741.00, 
1742.00, 
1743.00, 
1744.00, 
1745.00, 
1746.00, 
1747.00, 
1748.00, 
1749.00, 
1750.00, 
1751.00, 
1752.00, 
1753.00, 
1754.00, 
1755.00, 
1756.00, 
1757.00, 
1758.00, 
1759.00, 
1760.00, 
1761.00, 
1762.00, 
1763.00, 
1764.00, 
1765.00, 
1766.00, 
1767.00, 
1768.00, 
1769.00, 
1770.00, 
1771.00, 
1772.00, 
1773.00, 
1774.00, 
1775.00, 
1776.00, 
1777.00, 
1778.00, 
1779.00, 
1780.00, 
1781.00, 
1782.00, 
1783.00, 
1784.00, 
1785.00, 
1786.00, 
1787.00, 
1788.00, 
1789.00, 
1790.00, 
1791.00, 
1792.00, 
1793.00, 
1794.00, 
1795.00, 
1796.00, 
1797.00, 
1798.00, 
1799.00, 
1800.00, 
1801.00, 
1802.00, 
1803.00, 
1804.00, 
1805.00, 
1806.00, 
1807.00, 
1808.00, 
1809.00, 
1810.00, 
1811.00, 
1812.00, 
1813.00, 
1814.00, 
1815.00, 
1816.00, 
1817.00, 
1818.00, 
1819.00, 
1820.00, 
1821.00, 
1822.00, 
1823.00, 
1824.00, 
1825.00, 
1826.00, 
1827.00, 
1828.00, 
1829.00, 
1830.00, 
1831.00, 
1832.00, 
1833.00, 
1834.00, 
1835.00, 
1836.00, 
1837.00, 
1838.00, 
1839.00, 
1840.00, 
1841.00, 
1842.00, 
1843.00, 
1844.00, 
1845.00, 
1846.00, 
1847.00, 
1848.00, 
1849.00, 
1850.00, 
1851.00, 
1852.00, 
1853.00, 
1854.00, 
1855.00, 
1856.00, 
1857.00, 
1858.00, 
1859.00, 
1860.00, 
1861.00, 
1862.00, 
1863.00, 
1864.00, 
1865.00, 
1866.00, 
1867.00, 
1868.00, 
1869.00, 
1870.00, 
1871.00, 
1872.00, 
1873.00, 
1874.00, 
1875.00, 
1876.00, 
1877.00, 
1878.00, 
1879.00, 
1880.00, 
1881.00, 
1882.00, 
1883.00, 
1884.00, 
1885.00, 
1886.00, 
1887.00, 
1888.00, 
1889.00, 
1890.00, 
1891.00, 
1892.00, 
1893.00, 
1894.00, 
1895.00, 
1896.00, 
1897.00, 
1898.00, 
1899.00, 
1900.00, 
1901.00, 
1902.00, 
1903.00, 
1904.00, 
1905.00, 
1906.00, 
1907.00, 
1908.00, 
1909.00, 
1910.00, 
1911.00, 
1912.00, 
1913.00, 
1914.00, 
1915.00, 
1916.00, 
1917.00, 
1918.00, 
1919.00, 
1920.00, 
1921.00, 
1922.00, 
1923.00, 
1924.00, 
1925.00, 
1926.00, 
1927.00, 
1928.00, 
1929.00, 
1930.00, 
1931.00, 
1932.00, 
1933.00, 
1934.00, 
1935.00, 
1936.00, 
1937.00, 
1938.00, 
1939.00, 
1940.00, 
1941.00, 
1942.00, 
1943.00, 
1944.00, 
1945.00, 
1946.00, 
1947.00, 
1948.00, 
1949.00, 
1950.00, 
1951.00, 
1952.00, 
1953.00, 
1954.00, 
1955.00, 
1956.00, 
1957.00, 
1958.00, 
1959.00, 
1960.00, 
1961.00, 
1962.00, 
1963.00, 
1964.00, 
1965.00, 
1966.00, 
1967.00, 
1968.00, 
1969.00, 
1970.00, 
1971.00, 
1972.00, 
1973.00, 
1974.00, 
1975.00, 
1976.00, 
1977.00, 
1978.00, 
1979.00, 
1980.00, 
1981.00, 
1982.00, 
1983.00, 
1984.00, 
1985.00, 
1986.00, 
1987.00, 
1988.00, 
1989.00, 
1990.00, 
1991.00, 
1992.00, 
1993.00, 
1994.00, 
1995.00, 
1996.00, 
1997.00, 
1998.00, 
1999.00, 
2000.00, 
2001.00, 
2002.00, 
2003.00, 
2004.00, 
2005.00, 
2006.00, 
2007.00, 
2008.00, 
2009.00, 
2010.00, 
2011.00, 
2012.00, 
2013.00, 
2014.00, 
2015.00, 
2016.00, 
2017.00, 
2018.00, 
2019.00, 
2020.00, 
2021.00, 
2022.00, 
2023.00, 
2024.00, 
2025.00, 
2026.00, 
2027.00, 
2028.00, 
2029.00, 
2030.00, 
2031.00, 
2032.00, 
2033.00, 
2034.00, 
2035.00, 
2036.00, 
2037.00, 
2038.00, 
2039.00, 
2040.00, 
2041.00, 
2042.00, 
2043.00, 
2044.00, 
2045.00, 
2046.00, 
2047.00, 
2048.00, 
2049.00, 
2050.00, 
2051.00, 
2052.00, 
2053.00, 
2054.00, 
2055.00, 
2056.00, 
2057.00, 
2058.00, 
2059.00, 
2060.00, 
2061.00, 
2062.00, 
2063.00, 
2064.00, 
2065.00, 
2066.00, 
2067.00, 
2068.00, 
2069.00, 
2070.00, 
2071.00, 
2072.00, 
2073.00, 
2074.00, 
2075.00, 
2076.00, 
2077.00, 
2078.00, 
2079.00, 
2080.00, 
2081.00, 
2082.00, 
2083.00, 
2084.00, 
2085.00, 
2086.00, 
2087.00, 
2088.00, 
2089.00, 
2090.00, 
2091.00, 
2092.00, 
2093.00, 
2094.00, 
2095.00, 
2096.00, 
2097.00, 
2098.00, 
2099.00, 
2100.00, 
2101.00, 
2102.00, 
2103.00, 
2104.00, 
2105.00, 
2106.00, 
2107.00, 
2108.00, 
2109.00, 
2110.00, 
2111.00, 
2112.00, 
2113.00, 
2114.00, 
2115.00, 
2116.00, 
2117.00, 
2118.00, 
2119.00, 
2120.00, 
2121.00, 
2122.00, 
2123.00, 
2124.00, 
2125.00, 
2126.00, 
2127.00, 
2128.00, 
2129.00, 
2130.00, 
2131.00, 
2132.00, 
2133.00, 
2134.00, 
2135.00, 
2136.00, 
2137.00, 
2138.00, 
2139.00, 
2140.00, 
2141.00, 
2142.00, 
2143.00, 
2144.00, 
2145.00, 
2146.00, 
2147.00, 
2148.00, 
2149.00, 
2150.00, 
2151.00, 
2152.00, 
2153.00, 
2154.00, 
2155.00, 
2156.00, 
2157.00, 
2158.00, 
2159.00, 
2160.00, 
2161.00, 
2162.00, 
2163.00, 
2164.00, 
2165.00, 
2166.00, 
2167.00, 
2168.00, 
2169.00, 
2170.00, 
2171.00, 
2172.00, 
2173.00, 
2174.00, 
2175.00, 
2176.00, 
2177.00, 
2178.00, 
2179.00, 
2180.00, 
2181.00, 
2182.00, 
2183.00, 
2184.00, 
2185.00, 
2186.00, 
2187.00, 
2188.00, 
2189.00, 
2190.00, 
2191.00, 
2192.00, 
2193.00, 
2194.00, 
2195.00, 
2196.00, 
2197.00, 
2198.00, 
2199.00, 
2200.00, 
2201.00, 
2202.00, 
2203.00, 
2204.00, 
2205.00, 
2206.00, 
2207.00, 
2208.00, 
2209.00, 
2210.00, 
2211.00, 
2212.00, 
2213.00, 
2214.00, 
2215.00, 
2216.00, 
2217.00, 
2218.00, 
2219.00, 
2220.00, 
2221.00, 
2222.00, 
2223.00, 
2224.00, 
2225.00, 
2226.00, 
2227.00, 
2228.00, 
2229.00, 
2230.00, 
2231.00, 
2232.00, 
2233.00, 
2234.00, 
2235.00, 
2236.00, 
2237.00, 
2238.00, 
2239.00, 
2240.00, 
2241.00, 
2242.00, 
2243.00, 
2244.00, 
2245.00, 
2246.00, 
2247.00, 
2248.00, 
2249.00, 
2250.00, 
2251.00, 
2252.00, 
2253.00, 
2254.00, 
2255.00, 
2256.00, 
2257.00, 
2258.00, 
2259.00, 
2260.00, 
2261.00, 
2262.00, 
2263.00, 
2264.00, 
2265.00, 
2266.00, 
2267.00, 
2268.00, 
2269.00, 
2270.00, 
2271.00, 
2272.00, 
2273.00, 
2274.00, 
2275.00, 
2276.00, 
2277.00, 
2278.00, 
2279.00, 
2280.00, 
2281.00, 
2282.00, 
2283.00, 
2284.00, 
2285.00, 
2286.00, 
2287.00, 
2288.00, 
2289.00, 
2290.00, 
2291.00, 
2292.00, 
2293.00, 
2294.00, 
2295.00, 
2296.00, 
2297.00, 
2298.00, 
2299.00, 
2300.00, 
2301.00, 
2302.00, 
2303.00, 
2304.00, 
2305.00, 
2306.00, 
2307.00, 
2308.00, 
2309.00, 
2310.00, 
2311.00, 
2312.00, 
2313.00, 
2314.00, 
2315.00, 
2316.00, 
2317.00, 
2318.00, 
2319.00, 
2320.00, 
2321.00, 
2322.00, 
2323.00, 
2324.00, 
2325.00, 
2326.00, 
2327.00, 
2328.00, 
2329.00, 
2330.00, 
2331.00, 
2332.00, 
2333.00, 
2334.00, 
2335.00, 
2336.00, 
2337.00, 
2338.00, 
2339.00, 
2340.00, 
2341.00, 
2342.00, 
2343.00, 
2344.00, 
2345.00, 
2346.00, 
2347.00, 
2348.00, 
2349.00, 
2350.00, 
2351.00, 
2352.00, 
2353.00, 
2354.00, 
2355.00, 
2356.00, 
2357.00, 
2358.00, 
2359.00, 
2360.00, 
2361.00, 
2362.00, 
2363.00, 
2364.00, 
2365.00, 
2366.00, 
2367.00, 
2368.00, 
2369.00, 
2370.00, 
2371.00, 
2372.00, 
2373.00, 
2374.00, 
2375.00, 
2376.00, 
2377.00, 
2378.00, 
2379.00, 
2380.00, 
2381.00, 
2382.00, 
2383.00, 
2384.00, 
2385.00, 
2386.00, 
2387.00, 
2388.00, 
2389.00, 
2390.00, 
2391.00, 
2392.00, 
2393.00, 
2394.00, 
2395.00, 
2396.00, 
2397.00, 
2398.00, 
2399.00, 
2400.00, 
2401.00, 
2402.00, 
2403.00, 
2404.00, 
2405.00, 
2406.00, 
2407.00, 
2408.00, 
2409.00, 
2410.00, 
2411.00, 
2412.00, 
2413.00, 
2414.00, 
2415.00, 
2416.00, 
2417.00, 
2418.00, 
2419.00, 
2420.00, 
2421.00, 
2422.00, 
2423.00, 
2424.00, 
2425.00, 
2426.00, 
2427.00, 
2428.00, 
2429.00, 
2430.00, 
2431.00, 
2432.00, 
2433.00, 
2434.00, 
2435.00, 
2436.00, 
2437.00, 
2438.00, 
2439.00, 
2440.00, 
2441.00, 
2442.00, 
2443.00, 
2444.00, 
2445.00, 
2446.00, 
2447.00, 
2448.00, 
2449.00, 
2450.00, 
2451.00, 
2452.00, 
2453.00, 
2454.00, 
2455.00, 
2456.00, 
2457.00, 
2458.00, 
2459.00, 
2460.00, 
2461.00, 
2462.00, 
2463.00, 
2464.00, 
2465.00, 
2466.00, 
2467.00, 
2468.00, 
2469.00, 
2470.00, 
2471.00, 
2472.00, 
2473.00, 
2474.00, 
2475.00, 
2476.00, 
2477.00, 
2478.00, 
2479.00, 
2480.00, 
2481.00, 
2482.00, 
2483.00, 
2484.00, 
2485.00, 
2486.00, 
2487.00, 
2488.00, 
2489.00, 
2490.00, 
2491.00, 
2492.00, 
2493.00, 
2494.00, 
2495.00, 
2496.00, 
2497.00, 
2498.00, 
2499.00, 
2500.00, 
2501.00, 
2502.00, 
2503.00, 
2504.00, 
2505.00, 
2506.00, 
2507.00, 
2508.00, 
2509.00, 
2510.00, 
2511.00, 
2512.00, 
2513.00, 
2514.00, 
2515.00, 
2516.00, 
2517.00, 
2518.00, 
2519.00, 
2520.00, 
2521.00, 
2522.00, 
2523.00, 
2524.00, 
2525.00, 
2526.00, 
2527.00, 
2528.00, 
2529.00, 
2530.00, 
2531.00, 
2532.00, 
2533.00, 
2534.00, 
2535.00, 
2536.00, 
2537.00, 
2538.00, 
2539.00, 
2540.00, 
2541.00, 
2542.00, 
2543.00, 
2544.00, 
2545.00, 
2546.00, 
2547.00, 
2548.00, 
2549.00, 
2550.00, 
2551.00, 
2552.00, 
2553.00, 
2554.00, 
2555.00, 
2556.00, 
2557.00, 
2558.00, 
2559.00, 
2560.00, 
2561.00, 
2562.00, 
2563.00, 
2564.00, 
2565.00, 
2566.00, 
2567.00, 
2568.00, 
2569.00, 
2570.00, 
2571.00, 
2572.00, 
2573.00, 
2574.00, 
2575.00, 
2576.00, 
2577.00, 
2578.00, 
2579.00, 
2580.00, 
2581.00, 
2582.00, 
2583.00, 
2584.00, 
2585.00, 
2586.00, 
2587.00, 
2588.00, 
2589.00, 
2590.00, 
2591.00, 
2592.00, 
2593.00, 
2594.00, 
2595.00, 
2596.00, 
2597.00, 
2598.00, 
2599.00, 
2600.00, 
