"2cP2 - RawData"
"Wavelength nm.","T%"
200.00,0.005
201.00,-0.002
202.00,0.002
203.00,-0.002
204.00,-0.000
205.00,0.000
206.00,0.001
207.00,0.001
208.00,0.001
209.00,0.002
210.00,0.002
211.00,0.001
212.00,0.001
213.00,0.000
214.00,-0.002
215.00,0.001
216.00,0.000
217.00,0.001
218.00,0.002
219.00,0.001
220.00,0.001
221.00,0.001
222.00,0.000
223.00,0.000
224.00,0.001
225.00,0.003
226.00,0.001
227.00,0.001
228.00,-0.000
229.00,0.001
230.00,0.001
231.00,0.002
232.00,0.000
233.00,-0.001
234.00,-0.003
235.00,0.001
236.00,-0.001
237.00,-0.002
238.00,-0.001
239.00,0.000
240.00,0.002
241.00,-0.000
242.00,0.002
243.00,0.000
244.00,0.001
245.00,0.001
246.00,0.001
247.00,0.000
248.00,-0.000
249.00,0.001
250.00,-0.000
251.00,0.001
252.00,0.001
253.00,0.001
254.00,0.001
255.00,-0.000
256.00,0.002
257.00,0.001
258.00,-0.001
259.00,-0.000
260.00,0.000
261.00,-0.000
262.00,0.001
263.00,0.002
264.00,-0.000
265.00,-0.001
266.00,0.000
267.00,0.000
268.00,0.000
269.00,-0.000
270.00,0.000
271.00,0.000
272.00,0.000
273.00,0.000
274.00,-0.000
275.00,-0.001
276.00,0.002
277.00,0.001
278.00,0.000
279.00,0.001
280.00,0.000
281.00,0.000
282.00,0.002
283.00,0.002
284.00,0.001
285.00,0.001
286.00,-0.001
287.00,0.002
288.00,0.001
289.00,-0.000
290.00,-0.000
291.00,0.001
292.00,0.001
293.00,-0.001
294.00,0.002
295.00,-0.001
296.00,0.001
297.00,0.000
298.00,0.002
299.00,-0.001
300.00,0.001
301.00,0.002
302.00,0.007
303.00,0.008
304.00,0.012
305.00,0.018
306.00,0.026
307.00,0.038
308.00,0.064
309.00,0.099
310.00,0.141
311.00,0.185
312.00,0.255
313.00,0.345
314.00,0.459
315.00,0.596
316.00,0.763
317.00,0.945
318.00,1.175
319.00,1.452
320.00,1.767
321.00,2.114
322.00,2.493
323.00,2.934
324.00,3.411
325.00,3.874
326.00,4.394
327.00,4.970
328.00,5.562
329.00,6.143
330.00,6.768
331.00,7.390
332.00,8.048
333.00,8.740
334.00,9.243
335.00,10.025
336.00,10.691
337.00,11.419
338.00,11.997
339.00,12.593
340.00,13.241
341.00,13.877
342.00,14.448
343.00,14.957
344.00,15.499
345.00,15.966
346.00,16.484
347.00,16.918
348.00,17.344
349.00,17.728
350.00,18.139
351.00,18.455
352.00,18.754
353.00,19.106
354.00,19.423
355.00,19.672
356.00,19.937
357.00,20.210
358.00,20.387
359.00,20.601
360.00,20.817
361.00,20.919
362.00,21.075
363.00,21.241
364.00,21.355
365.00,21.434
366.00,21.565
367.00,21.612
368.00,21.684
369.00,21.719
370.00,21.790
371.00,21.807
372.00,21.819
373.00,21.787
374.00,21.802
375.00,21.742
376.00,21.683
377.00,21.659
378.00,21.564
379.00,21.516
380.00,21.503
381.00,21.399
382.00,21.353
383.00,21.372
384.00,21.431
385.00,21.464
386.00,21.457
387.00,21.484
388.00,21.503
389.00,21.501
390.00,21.519
391.00,21.534
392.00,21.517
393.00,21.513
394.00,21.504
395.00,21.481
396.00,21.490
397.00,21.470
398.00,21.454
399.00,21.477
400.00,21.465
401.00,21.418
402.00,21.398
403.00,21.415
404.00,21.423
405.00,21.413
406.00,21.405
407.00,21.315
408.00,21.283
409.00,21.231
410.00,21.202
411.00,21.180
412.00,21.091
413.00,21.101
414.00,21.096
415.00,21.095
416.00,21.065
417.00,21.061
418.00,21.066
419.00,21.121
420.00,21.110
421.00,21.094
422.00,21.112
423.00,21.121
424.00,21.134
425.00,21.119
426.00,21.152
427.00,21.164
428.00,21.227
429.00,21.224
430.00,21.272
431.00,21.301
432.00,21.320
433.00,21.379
434.00,21.365
435.00,21.462
436.00,21.520
437.00,21.577
438.00,21.608
439.00,21.629
440.00,21.709
441.00,21.761
442.00,21.841
443.00,21.926
444.00,21.992
445.00,22.058
446.00,22.149
447.00,22.234
448.00,22.342
449.00,22.398
450.00,22.519
451.00,22.635
452.00,22.648
453.00,22.754
454.00,22.834
455.00,22.905
456.00,23.080
457.00,23.195
458.00,23.292
459.00,23.365
460.00,23.509
461.00,23.551
462.00,23.712
463.00,23.814
464.00,23.949
465.00,24.051
466.00,24.190
467.00,24.276
468.00,24.364
469.00,24.501
470.00,24.572
471.00,24.685
472.00,24.813
473.00,24.872
474.00,24.979
475.00,25.122
476.00,25.211
477.00,25.324
478.00,25.444
479.00,25.592
480.00,25.716
481.00,25.810
482.00,26.017
483.00,26.087
484.00,26.214
485.00,26.386
486.00,26.486
487.00,26.705
488.00,26.860
489.00,27.041
490.00,27.174
491.00,27.323
492.00,27.479
493.00,27.623
494.00,27.712
495.00,27.778
496.00,27.897
497.00,28.022
498.00,28.202
499.00,28.308
500.00,28.415
501.00,28.571
502.00,28.702
503.00,28.810
504.00,28.903
505.00,29.014
506.00,29.087
507.00,29.304
508.00,29.447
509.00,29.546
510.00,29.637
511.00,29.742
512.00,29.806
513.00,30.057
514.00,30.251
515.00,30.332
516.00,30.438
517.00,30.549
518.00,30.673
519.00,30.775
520.00,30.847
521.00,30.928
522.00,31.046
523.00,31.139
524.00,31.227
525.00,31.347
526.00,31.459
527.00,31.543
528.00,31.644
529.00,31.737
530.00,31.872
531.00,32.027
532.00,32.107
533.00,32.185
534.00,32.320
535.00,32.374
536.00,32.506
537.00,32.546
538.00,32.687
539.00,32.761
540.00,32.825
541.00,32.906
542.00,32.943
543.00,33.021
544.00,33.125
545.00,33.209
546.00,33.267
547.00,33.349
548.00,33.457
549.00,33.523
550.00,33.554
551.00,33.688
552.00,33.813
553.00,33.778
554.00,33.878
555.00,33.940
556.00,34.019
557.00,34.146
558.00,34.207
559.00,34.235
560.00,34.344
561.00,34.414
562.00,34.459
563.00,34.505
564.00,34.591
565.00,34.571
566.00,34.656
567.00,34.720
568.00,34.692
569.00,34.823
570.00,34.806
571.00,34.758
572.00,34.965
573.00,34.985
574.00,35.044
575.00,35.085
576.00,35.127
577.00,35.201
578.00,35.244
579.00,35.325
580.00,35.382
581.00,35.482
582.00,35.588
583.00,35.605
584.00,35.730
585.00,35.730
586.00,35.767
587.00,35.949
588.00,35.961
589.00,35.981
590.00,36.087
591.00,36.106
592.00,36.152
593.00,36.148
594.00,36.252
595.00,36.287
596.00,36.349
597.00,36.399
598.00,36.501
599.00,36.512
600.00,36.606
601.00,36.645
602.00,36.691
603.00,36.776
604.00,36.832
605.00,36.818
606.00,36.931
607.00,36.985
608.00,36.972
609.00,37.030
610.00,37.064
611.00,37.069
612.00,37.028
613.00,37.185
614.00,37.261
615.00,37.286
616.00,37.426
617.00,37.446
618.00,37.504
619.00,37.584
620.00,37.592
621.00,37.635
622.00,37.703
623.00,37.782
624.00,37.819
625.00,37.908
626.00,37.961
627.00,37.980
628.00,38.092
629.00,38.137
630.00,38.185
631.00,38.276
632.00,38.350
633.00,38.423
634.00,38.469
635.00,38.577
636.00,38.685
637.00,38.726
638.00,38.822
639.00,38.917
640.00,38.926
641.00,38.981
642.00,39.107
643.00,39.173
644.00,39.274
645.00,39.334
646.00,39.440
647.00,39.498
648.00,39.552
649.00,39.625
650.00,39.703
651.00,39.871
652.00,39.933
653.00,40.006
654.00,40.106
655.00,40.163
656.00,40.268
657.00,40.315
658.00,40.382
659.00,40.511
660.00,40.631
661.00,40.729
662.00,40.854
663.00,40.867
664.00,40.985
665.00,41.104
666.00,41.161
667.00,41.334
668.00,41.432
669.00,41.476
670.00,41.588
671.00,41.638
672.00,41.679
673.00,41.792
674.00,41.936
675.00,42.096
676.00,42.138
677.00,42.165
678.00,42.243
679.00,42.250
680.00,42.402
681.00,42.585
682.00,42.584
683.00,42.565
684.00,42.903
685.00,43.059
686.00,43.048
687.00,43.131
688.00,43.209
689.00,43.285
690.00,43.364
691.00,43.449
692.00,43.620
693.00,43.511
694.00,43.746
695.00,43.907
696.00,43.853
697.00,44.012
698.00,44.228
699.00,44.320
700.00,44.409
701.00,44.402
702.00,44.633
703.00,44.654
704.00,44.685
705.00,44.882
706.00,44.932
707.00,45.011
708.00,44.918
709.00,45.184
710.00,45.354
711.00,45.239
712.00,45.273
713.00,45.375
714.00,45.503
715.00,45.645
716.00,45.701
717.00,45.783
718.00,45.776
719.00,45.926
720.00,45.920
721.00,50.075
722.00,50.055
723.00,50.094
724.00,50.081
725.00,50.085
726.00,50.211
727.00,50.179
728.00,50.223
729.00,50.231
730.00,50.357
731.00,50.356
732.00,50.414
733.00,50.453
734.00,50.479
735.00,50.501
736.00,50.541
737.00,50.545
738.00,50.651
739.00,50.694
740.00,50.734
741.00,50.750
742.00,50.770
743.00,50.765
744.00,50.741
745.00,50.821
746.00,50.760
747.00,50.816
748.00,50.757
749.00,50.789
750.00,50.790
751.00,50.804
752.00,50.858
753.00,50.831
754.00,50.874
755.00,50.874
756.00,50.862
757.00,50.907
758.00,50.976
759.00,50.946
760.00,50.907
761.00,50.948
762.00,51.096
763.00,51.045
764.00,51.025
765.00,50.985
766.00,51.064
767.00,51.063
768.00,51.045
769.00,51.109
770.00,51.112
771.00,51.147
772.00,51.178
773.00,51.128
774.00,51.192
775.00,51.243
776.00,51.167
777.00,51.244
778.00,51.238
779.00,51.207
780.00,51.226
781.00,51.247
782.00,51.207
783.00,51.256
784.00,51.214
785.00,51.185
786.00,51.207
787.00,51.271
788.00,51.239
789.00,51.274
790.00,51.199
791.00,51.201
792.00,51.153
793.00,51.218
794.00,51.200
795.00,51.261
796.00,51.189
797.00,51.111
798.00,51.172
799.00,51.132
800.00,51.121
801.00,51.131
802.00,51.117
803.00,51.045
804.00,51.047
805.00,51.110
806.00,51.062
807.00,51.080
808.00,51.062
809.00,51.038
810.00,51.072
811.00,50.987
812.00,51.023
813.00,51.038
814.00,50.986
815.00,50.989
816.00,50.920
817.00,51.012
818.00,50.898
819.00,50.953
820.00,50.869
821.00,50.863
822.00,50.860
823.00,50.851
824.00,50.909
825.00,50.746
826.00,50.790
827.00,50.829
828.00,50.863
829.00,50.855
830.00,50.863
831.00,53.347
832.00,53.355
833.00,53.321
834.00,53.289
835.00,53.352
836.00,53.260
837.00,53.256
838.00,53.196
839.00,53.192
840.00,53.118
841.00,53.155
842.00,53.116
843.00,53.146
844.00,53.141
845.00,53.080
846.00,53.098
847.00,53.087
848.00,53.067
849.00,52.987
850.00,53.017
851.00,52.910
852.00,52.924
853.00,52.891
854.00,52.853
855.00,52.834
856.00,52.823
857.00,52.797
858.00,52.788
859.00,52.724
860.00,52.759
861.00,52.707
862.00,52.657
863.00,52.686
864.00,52.641
865.00,52.670
866.00,52.628
867.00,52.629
868.00,52.605
869.00,52.607
870.00,52.584
871.00,52.578
872.00,52.579
873.00,52.534
874.00,52.561
875.00,52.520
876.00,52.543
877.00,52.527
878.00,52.534
879.00,52.515
880.00,52.498
881.00,52.455
882.00,52.473
883.00,52.448
884.00,52.352
885.00,52.363
886.00,52.388
887.00,52.342
888.00,52.292
889.00,52.379
890.00,52.258
891.00,52.247
892.00,52.278
893.00,52.233
894.00,52.287
895.00,52.093
896.00,52.147
897.00,52.164
898.00,52.128
899.00,52.116
900.00,52.100
901.00,52.123
902.00,52.107
903.00,52.094
904.00,52.031
905.00,52.043
906.00,52.039
907.00,52.013
908.00,51.979
909.00,51.983
910.00,51.956
911.00,51.930
912.00,51.945
913.00,51.856
914.00,51.870
915.00,51.854
916.00,51.827
917.00,51.798
918.00,51.787
919.00,51.773
920.00,51.753
921.00,51.739
922.00,51.748
923.00,51.704
924.00,51.675
925.00,51.692
926.00,51.656
927.00,51.633
928.00,51.593
929.00,51.603
930.00,51.541
931.00,51.543
932.00,51.514
933.00,51.548
934.00,51.506
935.00,51.465
936.00,51.450
937.00,51.460
938.00,51.378
939.00,51.429
940.00,51.388
941.00,51.382
942.00,51.342
943.00,51.343
944.00,51.325
945.00,51.294
946.00,51.301
947.00,51.250
948.00,51.226
949.00,51.203
950.00,51.182
951.00,51.165
952.00,51.142
953.00,51.116
954.00,51.099
955.00,51.072
956.00,51.050
957.00,51.023
958.00,51.028
959.00,50.971
960.00,50.969
961.00,50.958
962.00,50.951
963.00,50.918
964.00,50.910
965.00,50.893
966.00,50.896
967.00,50.881
968.00,50.847
969.00,50.878
970.00,50.849
971.00,50.858
972.00,50.832
973.00,50.844
974.00,50.871
975.00,50.817
976.00,50.850
977.00,50.838
978.00,50.867
979.00,50.826
980.00,50.856
981.00,50.846
982.00,50.822
983.00,50.847
984.00,50.818
985.00,50.861
986.00,50.799
987.00,50.833
988.00,50.805
989.00,50.775
990.00,50.781
991.00,50.753
992.00,50.766
993.00,50.768
994.00,50.720
995.00,50.707
996.00,50.713
997.00,50.702
998.00,50.664
999.00,50.690
1000.00,50.623
1001.00,50.638
1002.00,50.630
1003.00,50.596
1004.00,50.598
1005.00,50.591
1006.00,50.602
1007.00,50.555
1008.00,50.552
1009.00,50.535
1010.00,50.527
1011.00,50.515
1012.00,50.478
1013.00,50.490
1014.00,50.434
1015.00,50.456
1016.00,50.431
1017.00,50.415
1018.00,50.411
1019.00,50.358
1020.00,50.367
1021.00,50.355
1022.00,50.332
1023.00,50.301
1024.00,50.306
1025.00,50.286
1026.00,50.268
1027.00,50.253
1028.00,50.232
1029.00,50.234
1030.00,50.194
1031.00,50.203
1032.00,50.171
1033.00,50.157
1034.00,50.135
1035.00,50.103
1036.00,50.072
1037.00,50.072
1038.00,50.055
1039.00,50.024
1040.00,50.032
1041.00,49.990
1042.00,49.980
1043.00,49.961
1044.00,49.976
1045.00,49.955
1046.00,49.956
1047.00,49.952
1048.00,49.968
1049.00,49.992
1050.00,49.984
1051.00,50.016
1052.00,50.006
1053.00,50.023
1054.00,50.014
1055.00,50.047
1056.00,50.051
1057.00,50.053
1058.00,50.034
1059.00,50.035
1060.00,50.045
1061.00,50.014
1062.00,50.012
1063.00,50.017
1064.00,49.986
1065.00,50.008
1066.00,49.972
1067.00,49.974
1068.00,50.010
1069.00,49.974
1070.00,49.938
1071.00,49.921
1072.00,49.933
1073.00,49.917
1074.00,49.911
1075.00,49.886
1076.00,49.887
1077.00,49.869
1078.00,49.846
1079.00,49.838
1080.00,49.829
1081.00,49.821
1082.00,49.829
1083.00,49.811
1084.00,49.814
1085.00,49.788
1086.00,49.782
1087.00,49.790
1088.00,49.755
1089.00,49.744
1090.00,49.760
1091.00,49.742
1092.00,49.733
1093.00,49.716
1094.00,49.696
1095.00,49.694
1096.00,49.685
1097.00,49.669
1098.00,49.686
1099.00,49.669
1100.00,49.660
1101.00,49.645
1102.00,49.623
1103.00,49.631
1104.00,49.623
1105.00,49.595
1106.00,49.597
1107.00,49.587
1108.00,49.563
1109.00,49.578
1110.00,49.564
1111.00,49.551
1112.00,49.558
1113.00,49.519
1114.00,49.549
1115.00,49.557
1116.00,49.515
1117.00,49.506
1118.00,49.491
1119.00,49.497
1120.00,49.499
1121.00,49.483
1122.00,49.460
1123.00,49.449
1124.00,49.455
1125.00,49.442
1126.00,49.447
1127.00,49.449
1128.00,49.456
1129.00,49.447
1130.00,49.394
1131.00,49.401
1132.00,49.369
1133.00,49.386
1134.00,49.388
1135.00,49.357
1136.00,49.352
1137.00,49.356
1138.00,49.352
1139.00,49.363
1140.00,49.349
1141.00,49.329
1142.00,49.342
1143.00,49.335
1144.00,49.309
1145.00,49.312
1146.00,49.294
1147.00,49.293
1148.00,49.290
1149.00,49.286
1150.00,49.302
1151.00,49.293
1152.00,49.281
1153.00,49.283
1154.00,49.268
1155.00,49.276
1156.00,49.258
1157.00,49.251
1158.00,49.244
1159.00,49.248
1160.00,49.236
1161.00,49.251
1162.00,49.232
1163.00,49.231
1164.00,49.238
1165.00,49.225
1166.00,49.234
1167.00,49.238
1168.00,49.234
1169.00,49.222
1170.00,49.225
1171.00,49.203
1172.00,49.220
1173.00,49.213
1174.00,49.201
1175.00,49.217
1176.00,49.205
1177.00,49.190
1178.00,49.192
1179.00,49.185
1180.00,49.190
1181.00,49.205
1182.00,49.192
1183.00,49.194
1184.00,49.178
1185.00,49.183
1186.00,49.190
1187.00,49.184
1188.00,49.162
1189.00,49.178
1190.00,49.166
1191.00,49.155
1192.00,49.167
1193.00,49.158
1194.00,49.164
1195.00,49.129
1196.00,49.154
1197.00,49.156
1198.00,49.125
1199.00,49.147
1200.00,49.148
1201.00,49.154
1202.00,49.134
1203.00,49.150
1204.00,49.135
1205.00,49.161
1206.00,49.150
1207.00,49.152
1208.00,49.149
1209.00,49.135
1210.00,49.140
1211.00,49.136
1212.00,49.125
1213.00,49.101
1214.00,49.137
1215.00,49.107
1216.00,49.115
1217.00,49.117
1218.00,49.106
1219.00,49.131
1220.00,49.100
1221.00,49.117
1222.00,49.098
1223.00,49.095
1224.00,49.125
1225.00,49.107
1226.00,49.106
1227.00,49.109
1228.00,49.117
1229.00,49.112
1230.00,49.158
1231.00,49.143
1232.00,49.157
1233.00,49.151
1234.00,49.155
1235.00,49.144
1236.00,49.171
1237.00,49.163
1238.00,49.159
1239.00,49.157
1240.00,49.148
1241.00,49.167
1242.00,49.152
1243.00,49.172
1244.00,49.151
1245.00,49.166
1246.00,49.183
1247.00,49.172
1248.00,49.164
1249.00,49.177
1250.00,49.164
1251.00,49.162
1252.00,49.200
1253.00,49.170
1254.00,49.199
1255.00,49.197
1256.00,49.163
1257.00,49.155
1258.00,49.196
1259.00,49.188
1260.00,49.211
1261.00,49.194
1262.00,49.193
1263.00,49.209
1264.00,49.206
1265.00,49.217
1266.00,49.219
1267.00,49.208
1268.00,49.229
1269.00,49.227
1270.00,49.229
1271.00,49.237
1272.00,49.230
1273.00,49.242
1274.00,49.250
1275.00,49.259
1276.00,49.264
1277.00,49.260
1278.00,49.263
1279.00,49.286
1280.00,49.289
1281.00,49.285
1282.00,49.291
1283.00,49.318
1284.00,49.264
1285.00,49.273
1286.00,49.278
1287.00,49.263
1288.00,49.296
1289.00,49.272
1290.00,49.305
1291.00,49.302
1292.00,49.299
1293.00,49.306
1294.00,49.314
1295.00,49.329
1296.00,49.343
1297.00,49.334
1298.00,49.341
1299.00,49.324
1300.00,49.325
1301.00,49.336
1302.00,49.348
1303.00,49.358
1304.00,49.350
1305.00,49.359
1306.00,49.364
1307.00,49.391
1308.00,49.382
1309.00,49.396
1310.00,49.401
1311.00,49.383
1312.00,49.398
1313.00,49.401
1314.00,49.405
1315.00,49.421
1316.00,49.419
1317.00,49.432
1318.00,49.431
1319.00,49.425
1320.00,49.449
1321.00,49.586
1322.00,49.588
1323.00,49.583
1324.00,49.598
1325.00,49.562
1326.00,49.601
1327.00,49.595
1328.00,49.564
1329.00,49.591
1330.00,49.591
1331.00,49.578
1332.00,49.599
1333.00,49.579
1334.00,49.615
1335.00,49.629
1336.00,49.646
1337.00,49.688
1338.00,49.755
1339.00,49.790
1340.00,49.869
1341.00,49.934
1342.00,49.975
1343.00,50.046
1344.00,50.069
1345.00,50.135
1346.00,50.184
1347.00,50.190
1348.00,50.222
1349.00,50.233
1350.00,50.241
1351.00,50.265
1352.00,50.263
1353.00,50.275
1354.00,50.289
1355.00,50.259
1356.00,50.302
1357.00,50.312
1358.00,50.308
1359.00,50.318
1360.00,50.338
1361.00,50.267
1362.00,50.312
1363.00,50.353
1364.00,50.298
1365.00,50.309
1366.00,50.329
1367.00,50.286
1368.00,50.294
1369.00,50.293
1370.00,50.302
1371.00,50.223
1372.00,50.261
1373.00,50.283
1374.00,50.294
1375.00,50.266
1376.00,50.275
1377.00,50.290
1378.00,50.344
1379.00,50.268
1380.00,50.252
1381.00,50.329
1382.00,50.120
1383.00,50.238
1384.00,50.214
1385.00,50.201
1386.00,50.299
1387.00,50.231
1388.00,50.183
1389.00,50.193
1390.00,50.252
1391.00,50.227
1392.00,50.233
1393.00,50.275
1394.00,50.248
1395.00,50.205
1396.00,50.166
1397.00,50.218
1398.00,50.278
1399.00,50.244
1400.00,50.218
1401.00,50.254
1402.00,50.231
1403.00,50.235
1404.00,50.250
1405.00,50.295
1406.00,50.261
1407.00,50.312
1408.00,50.270
1409.00,50.266
1410.00,50.298
1411.00,50.270
1412.00,50.375
1413.00,50.303
1414.00,50.280
1415.00,50.327
1416.00,50.364
1417.00,50.385
1418.00,50.357
1419.00,50.344
1420.00,50.390
1421.00,50.422
1422.00,50.423
1423.00,50.432
1424.00,50.433
1425.00,50.460
1426.00,50.468
1427.00,50.471
1428.00,50.488
1429.00,50.505
1430.00,50.520
1431.00,50.533
1432.00,50.548
1433.00,50.576
1434.00,50.572
1435.00,50.610
1436.00,50.618
1437.00,50.625
1438.00,50.620
1439.00,50.655
1440.00,50.656
1441.00,50.649
1442.00,50.676
1443.00,50.705
1444.00,50.733
1445.00,50.696
1446.00,50.713
1447.00,50.764
1448.00,50.786
1449.00,50.785
1450.00,50.794
1451.00,50.809
1452.00,50.805
1453.00,50.843
1454.00,50.839
1455.00,50.869
1456.00,50.888
1457.00,50.868
1458.00,50.907
1459.00,50.907
1460.00,50.921
1461.00,50.956
1462.00,50.966
1463.00,50.969
1464.00,50.991
1465.00,50.998
1466.00,51.012
1467.00,51.057
1468.00,51.075
1469.00,51.067
1470.00,51.069
1471.00,51.075
1472.00,51.102
1473.00,51.107
1474.00,51.127
1475.00,51.153
1476.00,51.152
1477.00,51.154
1478.00,51.174
1479.00,51.181
1480.00,51.202
1481.00,51.215
1482.00,51.246
1483.00,51.261
1484.00,51.252
1485.00,51.272
1486.00,51.280
1487.00,51.284
1488.00,51.306
1489.00,51.313
1490.00,51.312
1491.00,51.339
1492.00,51.340
1493.00,51.360
1494.00,51.377
1495.00,51.369
1496.00,51.358
1497.00,51.388
1498.00,51.383
1499.00,51.404
1500.00,51.429
1501.00, 
1502.00, 
1503.00, 
1504.00, 
1505.00, 
1506.00, 
1507.00, 
1508.00, 
1509.00, 
1510.00, 
1511.00, 
1512.00, 
1513.00, 
1514.00, 
1515.00, 
1516.00, 
1517.00, 
1518.00, 
1519.00, 
1520.00, 
1521.00, 
1522.00, 
1523.00, 
1524.00, 
1525.00, 
1526.00, 
1527.00, 
1528.00, 
1529.00, 
1530.00, 
1531.00, 
1532.00, 
1533.00, 
1534.00, 
1535.00, 
1536.00, 
1537.00, 
1538.00, 
1539.00, 
1540.00, 
1541.00, 
1542.00, 
1543.00, 
1544.00, 
1545.00, 
1546.00, 
1547.00, 
1548.00, 
1549.00, 
1550.00, 
1551.00, 
1552.00, 
1553.00, 
1554.00, 
1555.00, 
1556.00, 
1557.00, 
1558.00, 
1559.00, 
1560.00, 
1561.00, 
1562.00, 
1563.00, 
1564.00, 
1565.00, 
1566.00, 
1567.00, 
1568.00, 
1569.00, 
1570.00, 
1571.00, 
1572.00, 
1573.00, 
1574.00, 
1575.00, 
1576.00, 
1577.00, 
1578.00, 
1579.00, 
1580.00, 
1581.00, 
1582.00, 
1583.00, 
1584.00, 
1585.00, 
1586.00, 
1587.00, 
1588.00, 
1589.00, 
1590.00, 
1591.00, 
1592.00, 
1593.00, 
1594.00, 
1595.00, 
1596.00, 
1597.00, 
1598.00, 
1599.00, 
1600.00, 
1601.00, 
1602.00, 
1603.00, 
1604.00, 
1605.00, 
1606.00, 
1607.00, 
1608.00, 
1609.00, 
1610.00, 
1611.00, 
1612.00, 
1613.00, 
1614.00, 
1615.00, 
1616.00, 
1617.00, 
1618.00, 
1619.00, 
1620.00, 
1621.00, 
1622.00, 
1623.00, 
1624.00, 
1625.00, 
1626.00, 
1627.00, 
1628.00, 
1629.00, 
1630.00, 
1631.00, 
1632.00, 
1633.00, 
1634.00, 
1635.00, 
1636.00, 
1637.00, 
1638.00, 
1639.00, 
1640.00, 
1641.00, 
1642.00, 
1643.00, 
1644.00, 
1645.00, 
1646.00, 
1647.00, 
1648.00, 
1649.00, 
1650.00, 
1651.00, 
1652.00, 
1653.00, 
1654.00, 
1655.00, 
1656.00, 
1657.00, 
1658.00, 
1659.00, 
1660.00, 
1661.00, 
1662.00, 
1663.00, 
1664.00, 
1665.00, 
1666.00, 
1667.00, 
1668.00, 
1669.00, 
1670.00, 
1671.00, 
1672.00, 
1673.00, 
1674.00, 
1675.00, 
1676.00, 
1677.00, 
1678.00, 
1679.00, 
1680.00, 
1681.00, 
1682.00, 
1683.00, 
1684.00, 
1685.00, 
1686.00, 
1687.00, 
1688.00, 
1689.00, 
1690.00, 
1691.00, 
1692.00, 
1693.00, 
1694.00, 
1695.00, 
1696.00, 
1697.00, 
1698.00, 
1699.00, 
1700.00, 
1701.00, 
1702.00, 
1703.00, 
1704.00, 
1705.00, 
1706.00, 
1707.00, 
1708.00, 
1709.00, 
1710.00, 
1711.00, 
1712.00, 
1713.00, 
1714.00, 
1715.00, 
1716.00, 
1717.00, 
1718.00, 
1719.00, 
1720.00, 
1721.00, 
1722.00, 
1723.00, 
1724.00, 
1725.00, 
1726.00, 
1727.00, 
1728.00, 
1729.00, 
1730.00, 
1731.00, 
1732.00, 
1733.00, 
1734.00, 
1735.00, 
1736.00, 
1737.00, 
1738.00, 
1739.00, 
1740.00, 
1741.00, 
1742.00, 
1743.00, 
1744.00, 
1745.00, 
1746.00, 
1747.00, 
1748.00, 
1749.00, 
1750.00, 
1751.00, 
1752.00, 
1753.00, 
1754.00, 
1755.00, 
1756.00, 
1757.00, 
1758.00, 
1759.00, 
1760.00, 
1761.00, 
1762.00, 
1763.00, 
1764.00, 
1765.00, 
1766.00, 
1767.00, 
1768.00, 
1769.00, 
1770.00, 
1771.00, 
1772.00, 
1773.00, 
1774.00, 
1775.00, 
1776.00, 
1777.00, 
1778.00, 
1779.00, 
1780.00, 
1781.00, 
1782.00, 
1783.00, 
1784.00, 
1785.00, 
1786.00, 
1787.00, 
1788.00, 
1789.00, 
1790.00, 
1791.00, 
1792.00, 
1793.00, 
1794.00, 
1795.00, 
1796.00, 
1797.00, 
1798.00, 
1799.00, 
1800.00, 
1801.00, 
1802.00, 
1803.00, 
1804.00, 
1805.00, 
1806.00, 
1807.00, 
1808.00, 
1809.00, 
1810.00, 
1811.00, 
1812.00, 
1813.00, 
1814.00, 
1815.00, 
1816.00, 
1817.00, 
1818.00, 
1819.00, 
1820.00, 
1821.00, 
1822.00, 
1823.00, 
1824.00, 
1825.00, 
1826.00, 
1827.00, 
1828.00, 
1829.00, 
1830.00, 
1831.00, 
1832.00, 
1833.00, 
1834.00, 
1835.00, 
1836.00, 
1837.00, 
1838.00, 
1839.00, 
1840.00, 
1841.00, 
1842.00, 
1843.00, 
1844.00, 
1845.00, 
1846.00, 
1847.00, 
1848.00, 
1849.00, 
1850.00, 
1851.00, 
1852.00, 
1853.00, 
1854.00, 
1855.00, 
1856.00, 
1857.00, 
1858.00, 
1859.00, 
1860.00, 
1861.00, 
1862.00, 
1863.00, 
1864.00, 
1865.00, 
1866.00, 
1867.00, 
1868.00, 
1869.00, 
1870.00, 
1871.00, 
1872.00, 
1873.00, 
1874.00, 
1875.00, 
1876.00, 
1877.00, 
1878.00, 
1879.00, 
1880.00, 
1881.00, 
1882.00, 
1883.00, 
1884.00, 
1885.00, 
1886.00, 
1887.00, 
1888.00, 
1889.00, 
1890.00, 
1891.00, 
1892.00, 
1893.00, 
1894.00, 
1895.00, 
1896.00, 
1897.00, 
1898.00, 
1899.00, 
1900.00, 
1901.00, 
1902.00, 
1903.00, 
1904.00, 
1905.00, 
1906.00, 
1907.00, 
1908.00, 
1909.00, 
1910.00, 
1911.00, 
1912.00, 
1913.00, 
1914.00, 
1915.00, 
1916.00, 
1917.00, 
1918.00, 
1919.00, 
1920.00, 
1921.00, 
1922.00, 
1923.00, 
1924.00, 
1925.00, 
1926.00, 
1927.00, 
1928.00, 
1929.00, 
1930.00, 
1931.00, 
1932.00, 
1933.00, 
1934.00, 
1935.00, 
1936.00, 
1937.00, 
1938.00, 
1939.00, 
1940.00, 
1941.00, 
1942.00, 
1943.00, 
1944.00, 
1945.00, 
1946.00, 
1947.00, 
1948.00, 
1949.00, 
1950.00, 
1951.00, 
1952.00, 
1953.00, 
1954.00, 
1955.00, 
1956.00, 
1957.00, 
1958.00, 
1959.00, 
1960.00, 
1961.00, 
1962.00, 
1963.00, 
1964.00, 
1965.00, 
1966.00, 
1967.00, 
1968.00, 
1969.00, 
1970.00, 
1971.00, 
1972.00, 
1973.00, 
1974.00, 
1975.00, 
1976.00, 
1977.00, 
1978.00, 
1979.00, 
1980.00, 
1981.00, 
1982.00, 
1983.00, 
1984.00, 
1985.00, 
1986.00, 
1987.00, 
1988.00, 
1989.00, 
1990.00, 
1991.00, 
1992.00, 
1993.00, 
1994.00, 
1995.00, 
1996.00, 
1997.00, 
1998.00, 
1999.00, 
2000.00, 
2001.00, 
2002.00, 
2003.00, 
2004.00, 
2005.00, 
2006.00, 
2007.00, 
2008.00, 
2009.00, 
2010.00, 
2011.00, 
2012.00, 
2013.00, 
2014.00, 
2015.00, 
2016.00, 
2017.00, 
2018.00, 
2019.00, 
2020.00, 
2021.00, 
2022.00, 
2023.00, 
2024.00, 
2025.00, 
2026.00, 
2027.00, 
2028.00, 
2029.00, 
2030.00, 
2031.00, 
2032.00, 
2033.00, 
2034.00, 
2035.00, 
2036.00, 
2037.00, 
2038.00, 
2039.00, 
2040.00, 
2041.00, 
2042.00, 
2043.00, 
2044.00, 
2045.00, 
2046.00, 
2047.00, 
2048.00, 
2049.00, 
2050.00, 
2051.00, 
2052.00, 
2053.00, 
2054.00, 
2055.00, 
2056.00, 
2057.00, 
2058.00, 
2059.00, 
2060.00, 
2061.00, 
2062.00, 
2063.00, 
2064.00, 
2065.00, 
2066.00, 
2067.00, 
2068.00, 
2069.00, 
2070.00, 
2071.00, 
2072.00, 
2073.00, 
2074.00, 
2075.00, 
2076.00, 
2077.00, 
2078.00, 
2079.00, 
2080.00, 
2081.00, 
2082.00, 
2083.00, 
2084.00, 
2085.00, 
2086.00, 
2087.00, 
2088.00, 
2089.00, 
2090.00, 
2091.00, 
2092.00, 
2093.00, 
2094.00, 
2095.00, 
2096.00, 
2097.00, 
2098.00, 
2099.00, 
2100.00, 
2101.00, 
2102.00, 
2103.00, 
2104.00, 
2105.00, 
2106.00, 
2107.00, 
2108.00, 
2109.00, 
2110.00, 
2111.00, 
2112.00, 
2113.00, 
2114.00, 
2115.00, 
2116.00, 
2117.00, 
2118.00, 
2119.00, 
2120.00, 
2121.00, 
2122.00, 
2123.00, 
2124.00, 
2125.00, 
2126.00, 
2127.00, 
2128.00, 
2129.00, 
2130.00, 
2131.00, 
2132.00, 
2133.00, 
2134.00, 
2135.00, 
2136.00, 
2137.00, 
2138.00, 
2139.00, 
2140.00, 
2141.00, 
2142.00, 
2143.00, 
2144.00, 
2145.00, 
2146.00, 
2147.00, 
2148.00, 
2149.00, 
2150.00, 
2151.00, 
2152.00, 
2153.00, 
2154.00, 
2155.00, 
2156.00, 
2157.00, 
2158.00, 
2159.00, 
2160.00, 
2161.00, 
2162.00, 
2163.00, 
2164.00, 
2165.00, 
2166.00, 
2167.00, 
2168.00, 
2169.00, 
2170.00, 
2171.00, 
2172.00, 
2173.00, 
2174.00, 
2175.00, 
2176.00, 
2177.00, 
2178.00, 
2179.00, 
2180.00, 
2181.00, 
2182.00, 
2183.00, 
2184.00, 
2185.00, 
2186.00, 
2187.00, 
2188.00, 
2189.00, 
2190.00, 
2191.00, 
2192.00, 
2193.00, 
2194.00, 
2195.00, 
2196.00, 
2197.00, 
2198.00, 
2199.00, 
2200.00, 
2201.00, 
2202.00, 
2203.00, 
2204.00, 
2205.00, 
2206.00, 
2207.00, 
2208.00, 
2209.00, 
2210.00, 
2211.00, 
2212.00, 
2213.00, 
2214.00, 
2215.00, 
2216.00, 
2217.00, 
2218.00, 
2219.00, 
2220.00, 
2221.00, 
2222.00, 
2223.00, 
2224.00, 
2225.00, 
2226.00, 
2227.00, 
2228.00, 
2229.00, 
2230.00, 
2231.00, 
2232.00, 
2233.00, 
2234.00, 
2235.00, 
2236.00, 
2237.00, 
2238.00, 
2239.00, 
2240.00, 
2241.00, 
2242.00, 
2243.00, 
2244.00, 
2245.00, 
2246.00, 
2247.00, 
2248.00, 
2249.00, 
2250.00, 
2251.00, 
2252.00, 
2253.00, 
2254.00, 
2255.00, 
2256.00, 
2257.00, 
2258.00, 
2259.00, 
2260.00, 
2261.00, 
2262.00, 
2263.00, 
2264.00, 
2265.00, 
2266.00, 
2267.00, 
2268.00, 
2269.00, 
2270.00, 
2271.00, 
2272.00, 
2273.00, 
2274.00, 
2275.00, 
2276.00, 
2277.00, 
2278.00, 
2279.00, 
2280.00, 
2281.00, 
2282.00, 
2283.00, 
2284.00, 
2285.00, 
2286.00, 
2287.00, 
2288.00, 
2289.00, 
2290.00, 
2291.00, 
2292.00, 
2293.00, 
2294.00, 
2295.00, 
2296.00, 
2297.00, 
2298.00, 
2299.00, 
2300.00, 
2301.00, 
2302.00, 
2303.00, 
2304.00, 
2305.00, 
2306.00, 
2307.00, 
2308.00, 
2309.00, 
2310.00, 
2311.00, 
2312.00, 
2313.00, 
2314.00, 
2315.00, 
2316.00, 
2317.00, 
2318.00, 
2319.00, 
2320.00, 
2321.00, 
2322.00, 
2323.00, 
2324.00, 
2325.00, 
2326.00, 
2327.00, 
2328.00, 
2329.00, 
2330.00, 
2331.00, 
2332.00, 
2333.00, 
2334.00, 
2335.00, 
2336.00, 
2337.00, 
2338.00, 
2339.00, 
2340.00, 
2341.00, 
2342.00, 
2343.00, 
2344.00, 
2345.00, 
2346.00, 
2347.00, 
2348.00, 
2349.00, 
2350.00, 
2351.00, 
2352.00, 
2353.00, 
2354.00, 
2355.00, 
2356.00, 
2357.00, 
2358.00, 
2359.00, 
2360.00, 
2361.00, 
2362.00, 
2363.00, 
2364.00, 
2365.00, 
2366.00, 
2367.00, 
2368.00, 
2369.00, 
2370.00, 
2371.00, 
2372.00, 
2373.00, 
2374.00, 
2375.00, 
2376.00, 
2377.00, 
2378.00, 
2379.00, 
2380.00, 
2381.00, 
2382.00, 
2383.00, 
2384.00, 
2385.00, 
2386.00, 
2387.00, 
2388.00, 
2389.00, 
2390.00, 
2391.00, 
2392.00, 
2393.00, 
2394.00, 
2395.00, 
2396.00, 
2397.00, 
2398.00, 
2399.00, 
2400.00, 
2401.00, 
2402.00, 
2403.00, 
2404.00, 
2405.00, 
2406.00, 
2407.00, 
2408.00, 
2409.00, 
2410.00, 
2411.00, 
2412.00, 
2413.00, 
2414.00, 
2415.00, 
2416.00, 
2417.00, 
2418.00, 
2419.00, 
2420.00, 
2421.00, 
2422.00, 
2423.00, 
2424.00, 
2425.00, 
2426.00, 
2427.00, 
2428.00, 
2429.00, 
2430.00, 
2431.00, 
2432.00, 
2433.00, 
2434.00, 
2435.00, 
2436.00, 
2437.00, 
2438.00, 
2439.00, 
2440.00, 
2441.00, 
2442.00, 
2443.00, 
2444.00, 
2445.00, 
2446.00, 
2447.00, 
2448.00, 
2449.00, 
2450.00, 
2451.00, 
2452.00, 
2453.00, 
2454.00, 
2455.00, 
2456.00, 
2457.00, 
2458.00, 
2459.00, 
2460.00, 
2461.00, 
2462.00, 
2463.00, 
2464.00, 
2465.00, 
2466.00, 
2467.00, 
2468.00, 
2469.00, 
2470.00, 
2471.00, 
2472.00, 
2473.00, 
2474.00, 
2475.00, 
2476.00, 
2477.00, 
2478.00, 
2479.00, 
2480.00, 
2481.00, 
2482.00, 
2483.00, 
2484.00, 
2485.00, 
2486.00, 
2487.00, 
2488.00, 
2489.00, 
2490.00, 
2491.00, 
2492.00, 
2493.00, 
2494.00, 
2495.00, 
2496.00, 
2497.00, 
2498.00, 
2499.00, 
2500.00, 
2501.00, 
2502.00, 
2503.00, 
2504.00, 
2505.00, 
2506.00, 
2507.00, 
2508.00, 
2509.00, 
2510.00, 
2511.00, 
2512.00, 
2513.00, 
2514.00, 
2515.00, 
2516.00, 
2517.00, 
2518.00, 
2519.00, 
2520.00, 
2521.00, 
2522.00, 
2523.00, 
2524.00, 
2525.00, 
2526.00, 
2527.00, 
2528.00, 
2529.00, 
2530.00, 
2531.00, 
2532.00, 
2533.00, 
2534.00, 
2535.00, 
2536.00, 
2537.00, 
2538.00, 
2539.00, 
2540.00, 
2541.00, 
2542.00, 
2543.00, 
2544.00, 
2545.00, 
2546.00, 
2547.00, 
2548.00, 
2549.00, 
2550.00, 
2551.00, 
2552.00, 
2553.00, 
2554.00, 
2555.00, 
2556.00, 
2557.00, 
2558.00, 
2559.00, 
2560.00, 
2561.00, 
2562.00, 
2563.00, 
2564.00, 
2565.00, 
2566.00, 
2567.00, 
2568.00, 
2569.00, 
2570.00, 
2571.00, 
2572.00, 
2573.00, 
2574.00, 
2575.00, 
2576.00, 
2577.00, 
2578.00, 
2579.00, 
2580.00, 
2581.00, 
2582.00, 
2583.00, 
2584.00, 
2585.00, 
2586.00, 
2587.00, 
2588.00, 
2589.00, 
2590.00, 
2591.00, 
2592.00, 
2593.00, 
2594.00, 
2595.00, 
2596.00, 
2597.00, 
2598.00, 
2599.00, 
2600.00, 
