"1cP2 - RawData"
"Wavelength nm.","T%"
200.00,0.001
201.00,0.002
202.00,0.004
203.00,-0.000
204.00,-0.000
205.00,-0.000
206.00,0.002
207.00,0.002
208.00,-0.000
209.00,0.002
210.00,0.001
211.00,0.003
212.00,0.000
213.00,0.001
214.00,0.001
215.00,0.001
216.00,0.005
217.00,0.004
218.00,-0.002
219.00,0.004
220.00,0.002
221.00,0.000
222.00,0.002
223.00,0.004
224.00,0.000
225.00,-0.001
226.00,-0.001
227.00,-0.001
228.00,0.001
229.00,0.003
230.00,-0.002
231.00,0.001
232.00,-0.000
233.00,0.001
234.00,0.003
235.00,0.001
236.00,0.002
237.00,0.002
238.00,-0.000
239.00,0.001
240.00,0.001
241.00,0.001
242.00,0.003
243.00,0.001
244.00,-0.002
245.00,0.001
246.00,-0.001
247.00,0.000
248.00,-0.000
249.00,0.002
250.00,0.001
251.00,-0.000
252.00,0.000
253.00,0.001
254.00,0.001
255.00,0.001
256.00,-0.001
257.00,0.001
258.00,-0.001
259.00,0.001
260.00,0.001
261.00,-0.001
262.00,0.001
263.00,-0.001
264.00,0.000
265.00,-0.001
266.00,0.001
267.00,0.000
268.00,-0.001
269.00,0.001
270.00,0.000
271.00,-0.001
272.00,0.001
273.00,-0.000
274.00,-0.001
275.00,-0.000
276.00,-0.001
277.00,0.001
278.00,0.000
279.00,0.000
280.00,-0.001
281.00,0.000
282.00,0.000
283.00,0.001
284.00,-0.001
285.00,-0.000
286.00,0.002
287.00,-0.003
288.00,-0.000
289.00,0.001
290.00,0.000
291.00,-0.000
292.00,-0.001
293.00,-0.001
294.00,-0.000
295.00,0.001
296.00,0.000
297.00,-0.001
298.00,-0.000
299.00,0.001
300.00,0.001
301.00,0.002
302.00,0.001
303.00,0.001
304.00,0.002
305.00,0.001
306.00,0.003
307.00,0.003
308.00,0.007
309.00,0.015
310.00,0.027
311.00,0.038
312.00,0.057
313.00,0.091
314.00,0.137
315.00,0.201
316.00,0.288
317.00,0.411
318.00,0.557
319.00,0.750
320.00,0.996
321.00,1.291
322.00,1.651
323.00,2.100
324.00,2.598
325.00,3.143
326.00,3.742
327.00,4.458
328.00,5.219
329.00,6.002
330.00,6.937
331.00,7.817
332.00,8.789
333.00,9.885
334.00,10.881
335.00,12.035
336.00,13.142
337.00,14.294
338.00,15.415
339.00,16.488
340.00,17.591
341.00,18.688
342.00,19.703
343.00,20.774
344.00,21.856
345.00,22.779
346.00,23.692
347.00,24.477
348.00,25.394
349.00,26.132
350.00,26.940
351.00,27.615
352.00,28.236
353.00,28.907
354.00,29.552
355.00,30.135
356.00,30.609
357.00,31.115
358.00,31.597
359.00,32.132
360.00,32.597
361.00,32.804
362.00,33.222
363.00,33.603
364.00,33.789
365.00,34.055
366.00,34.294
367.00,34.481
368.00,34.664
369.00,34.866
370.00,34.924
371.00,35.091
372.00,35.058
373.00,35.117
374.00,35.188
375.00,35.174
376.00,35.044
377.00,34.916
378.00,34.848
379.00,34.761
380.00,34.757
381.00,34.788
382.00,34.828
383.00,34.880
384.00,35.088
385.00,35.133
386.00,35.311
387.00,35.407
388.00,35.645
389.00,35.730
390.00,35.897
391.00,35.960
392.00,36.054
393.00,36.120
394.00,36.234
395.00,36.342
396.00,36.273
397.00,36.352
398.00,36.423
399.00,36.456
400.00,36.481
401.00,36.433
402.00,36.525
403.00,36.363
404.00,36.467
405.00,36.466
406.00,36.481
407.00,36.443
408.00,36.453
409.00,36.332
410.00,36.254
411.00,36.226
412.00,36.216
413.00,36.203
414.00,36.092
415.00,36.116
416.00,36.194
417.00,36.155
418.00,36.139
419.00,36.264
420.00,36.354
421.00,36.246
422.00,36.242
423.00,36.300
424.00,36.335
425.00,36.341
426.00,36.333
427.00,36.382
428.00,36.459
429.00,36.422
430.00,36.403
431.00,36.481
432.00,36.374
433.00,36.510
434.00,36.559
435.00,36.630
436.00,36.627
437.00,36.671
438.00,36.716
439.00,36.766
440.00,36.796
441.00,36.886
442.00,36.911
443.00,36.945
444.00,37.058
445.00,37.081
446.00,37.173
447.00,37.222
448.00,37.281
449.00,37.396
450.00,37.499
451.00,37.522
452.00,37.574
453.00,37.711
454.00,37.724
455.00,37.832
456.00,37.938
457.00,38.024
458.00,38.023
459.00,38.192
460.00,38.250
461.00,38.385
462.00,38.471
463.00,38.512
464.00,38.622
465.00,38.683
466.00,38.816
467.00,38.943
468.00,38.934
469.00,38.998
470.00,39.018
471.00,39.078
472.00,39.182
473.00,39.197
474.00,39.265
475.00,39.278
476.00,39.379
477.00,39.433
478.00,39.530
479.00,39.723
480.00,39.802
481.00,39.861
482.00,39.957
483.00,40.100
484.00,40.222
485.00,40.176
486.00,40.387
487.00,40.476
488.00,40.636
489.00,40.794
490.00,40.854
491.00,40.967
492.00,41.200
493.00,41.317
494.00,41.165
495.00,41.289
496.00,41.353
497.00,41.464
498.00,41.565
499.00,41.639
500.00,41.779
501.00,41.790
502.00,41.932
503.00,41.990
504.00,41.957
505.00,42.092
506.00,42.223
507.00,42.202
508.00,42.307
509.00,42.426
510.00,42.526
511.00,42.540
512.00,42.798
513.00,42.831
514.00,42.878
515.00,42.987
516.00,43.061
517.00,43.087
518.00,43.223
519.00,43.245
520.00,43.260
521.00,43.325
522.00,43.339
523.00,43.363
524.00,43.447
525.00,43.556
526.00,43.653
527.00,43.609
528.00,43.624
529.00,43.878
530.00,44.023
531.00,43.957
532.00,44.149
533.00,44.099
534.00,44.270
535.00,44.316
536.00,44.394
537.00,44.420
538.00,44.422
539.00,44.454
540.00,44.546
541.00,44.605
542.00,44.632
543.00,44.631
544.00,44.696
545.00,44.753
546.00,44.769
547.00,44.889
548.00,44.973
549.00,44.976
550.00,45.134
551.00,45.181
552.00,45.287
553.00,45.356
554.00,45.279
555.00,45.286
556.00,45.339
557.00,45.334
558.00,45.381
559.00,45.457
560.00,45.554
561.00,45.597
562.00,45.625
563.00,45.669
564.00,45.685
565.00,45.684
566.00,45.670
567.00,45.715
568.00,45.681
569.00,45.796
570.00,45.733
571.00,45.827
572.00,45.775
573.00,45.820
574.00,45.855
575.00,45.802
576.00,45.758
577.00,45.855
578.00,45.948
579.00,46.011
580.00,46.009
581.00,46.189
582.00,46.234
583.00,46.202
584.00,46.330
585.00,46.350
586.00,46.403
587.00,46.442
588.00,46.423
589.00,46.388
590.00,46.459
591.00,46.502
592.00,46.220
593.00,46.402
594.00,46.607
595.00,46.635
596.00,46.692
597.00,46.745
598.00,46.784
599.00,46.724
600.00,46.766
601.00,46.770
602.00,46.754
603.00,46.847
604.00,46.904
605.00,46.908
606.00,46.869
607.00,46.879
608.00,47.084
609.00,47.108
610.00,46.896
611.00,46.923
612.00,46.874
613.00,47.005
614.00,46.959
615.00,47.056
616.00,47.129
617.00,47.048
618.00,46.957
619.00,47.174
620.00,47.361
621.00,47.236
622.00,47.284
623.00,47.247
624.00,47.289
625.00,47.362
626.00,47.341
627.00,47.310
628.00,47.392
629.00,47.389
630.00,47.396
631.00,47.323
632.00,47.359
633.00,47.545
634.00,47.589
635.00,47.707
636.00,47.623
637.00,47.653
638.00,47.706
639.00,47.783
640.00,47.684
641.00,47.645
642.00,47.781
643.00,47.774
644.00,47.841
645.00,47.825
646.00,47.932
647.00,48.009
648.00,47.950
649.00,47.922
650.00,47.886
651.00,48.027
652.00,47.924
653.00,48.005
654.00,48.023
655.00,48.028
656.00,48.390
657.00,47.235
658.00,48.142
659.00,48.211
660.00,48.254
661.00,48.202
662.00,48.202
663.00,48.349
664.00,48.684
665.00,48.734
666.00,48.504
667.00,48.506
668.00,48.588
669.00,48.860
670.00,48.934
671.00,48.736
672.00,48.841
673.00,48.753
674.00,48.837
675.00,48.877
676.00,48.904
677.00,49.144
678.00,48.820
679.00,48.992
680.00,48.985
681.00,49.226
682.00,49.084
683.00,48.996
684.00,49.317
685.00,49.235
686.00,48.957
687.00,48.980
688.00,49.089
689.00,49.083
690.00,49.380
691.00,49.558
692.00,49.246
693.00,49.146
694.00,49.285
695.00,49.414
696.00,49.380
697.00,49.282
698.00,49.319
699.00,49.641
700.00,49.593
701.00,49.424
702.00,49.509
703.00,49.632
704.00,49.689
705.00,49.519
706.00,49.538
707.00,49.493
708.00,49.361
709.00,49.738
710.00,50.070
711.00,49.716
712.00,49.620
713.00,49.566
714.00,49.599
715.00,49.556
716.00,49.634
717.00,49.661
718.00,49.718
719.00,49.816
720.00,49.768
721.00,54.475
722.00,54.331
723.00,54.406
724.00,54.381
725.00,54.384
726.00,54.340
727.00,54.233
728.00,54.244
729.00,54.180
730.00,54.160
731.00,54.150
732.00,54.051
733.00,54.102
734.00,54.008
735.00,53.977
736.00,54.020
737.00,54.041
738.00,54.086
739.00,53.938
740.00,53.969
741.00,53.916
742.00,53.965
743.00,53.822
744.00,53.859
745.00,53.802
746.00,53.745
747.00,53.656
748.00,53.649
749.00,53.699
750.00,53.610
751.00,53.596
752.00,53.493
753.00,53.521
754.00,53.484
755.00,53.409
756.00,53.370
757.00,53.474
758.00,53.367
759.00,53.307
760.00,53.265
761.00,53.290
762.00,53.206
763.00,53.287
764.00,53.138
765.00,53.213
766.00,53.115
767.00,53.197
768.00,53.065
769.00,53.062
770.00,53.103
771.00,53.065
772.00,53.088
773.00,52.991
774.00,53.035
775.00,52.998
776.00,52.917
777.00,53.018
778.00,52.732
779.00,52.963
780.00,52.882
781.00,52.813
782.00,52.805
783.00,52.779
784.00,52.696
785.00,52.759
786.00,52.718
787.00,52.683
788.00,52.686
789.00,52.525
790.00,52.497
791.00,52.606
792.00,52.412
793.00,52.352
794.00,52.407
795.00,52.376
796.00,52.387
797.00,52.296
798.00,52.346
799.00,52.217
800.00,52.215
801.00,52.098
802.00,52.192
803.00,52.126
804.00,51.977
805.00,52.100
806.00,52.001
807.00,51.967
808.00,52.001
809.00,51.899
810.00,51.872
811.00,51.852
812.00,51.888
813.00,51.714
814.00,51.851
815.00,51.710
816.00,51.740
817.00,51.757
818.00,51.566
819.00,51.632
820.00,51.595
821.00,51.543
822.00,51.622
823.00,51.509
824.00,51.556
825.00,51.380
826.00,51.456
827.00,51.504
828.00,51.487
829.00,51.352
830.00,51.346
831.00,53.775
832.00,53.705
833.00,53.640
834.00,53.694
835.00,53.609
836.00,53.630
837.00,53.578
838.00,53.525
839.00,53.535
840.00,53.436
841.00,53.471
842.00,53.423
843.00,53.428
844.00,53.357
845.00,53.310
846.00,53.350
847.00,53.323
848.00,53.292
849.00,53.181
850.00,53.187
851.00,53.110
852.00,53.114
853.00,53.033
854.00,53.027
855.00,52.957
856.00,52.980
857.00,52.932
858.00,52.854
859.00,52.867
860.00,52.862
861.00,52.880
862.00,52.781
863.00,52.837
864.00,52.765
865.00,52.781
866.00,52.750
867.00,52.737
868.00,52.729
869.00,52.675
870.00,52.704
871.00,52.644
872.00,52.653
873.00,52.620
874.00,52.631
875.00,52.602
876.00,52.631
877.00,52.498
878.00,52.650
879.00,52.511
880.00,52.462
881.00,52.454
882.00,52.452
883.00,52.406
884.00,52.373
885.00,52.362
886.00,52.363
887.00,52.318
888.00,52.277
889.00,52.278
890.00,52.267
891.00,52.222
892.00,52.205
893.00,52.153
894.00,52.164
895.00,52.141
896.00,52.097
897.00,52.103
898.00,52.064
899.00,52.049
900.00,52.033
901.00,52.169
902.00,52.032
903.00,51.990
904.00,51.973
905.00,51.970
906.00,51.974
907.00,51.923
908.00,51.853
909.00,51.866
910.00,51.809
911.00,51.820
912.00,51.804
913.00,51.771
914.00,51.761
915.00,51.741
916.00,51.686
917.00,51.678
918.00,51.685
919.00,51.626
920.00,51.589
921.00,51.586
922.00,51.586
923.00,51.546
924.00,51.465
925.00,51.523
926.00,51.499
927.00,51.435
928.00,51.398
929.00,51.455
930.00,51.372
931.00,51.368
932.00,51.328
933.00,51.345
934.00,51.318
935.00,51.275
936.00,51.265
937.00,51.249
938.00,51.251
939.00,51.221
940.00,51.184
941.00,51.173
942.00,51.150
943.00,51.109
944.00,51.080
945.00,51.086
946.00,51.067
947.00,50.996
948.00,51.042
949.00,51.007
950.00,50.988
951.00,50.971
952.00,50.937
953.00,50.898
954.00,50.858
955.00,50.823
956.00,50.809
957.00,50.780
958.00,50.807
959.00,50.750
960.00,50.741
961.00,50.717
962.00,50.723
963.00,50.689
964.00,50.676
965.00,50.672
966.00,50.632
967.00,50.644
968.00,50.619
969.00,50.648
970.00,50.612
971.00,50.614
972.00,50.586
973.00,50.651
974.00,50.656
975.00,50.601
976.00,50.615
977.00,50.597
978.00,50.642
979.00,50.598
980.00,50.605
981.00,50.636
982.00,50.549
983.00,50.607
984.00,50.577
985.00,50.581
986.00,50.543
987.00,50.562
988.00,50.530
989.00,50.506
990.00,50.507
991.00,50.502
992.00,50.517
993.00,50.471
994.00,50.458
995.00,50.463
996.00,50.451
997.00,50.425
998.00,50.423
999.00,50.426
1000.00,50.364
1001.00,50.366
1002.00,50.366
1003.00,50.350
1004.00,50.326
1005.00,50.287
1006.00,50.331
1007.00,50.275
1008.00,50.266
1009.00,50.280
1010.00,50.251
1011.00,50.232
1012.00,50.198
1013.00,50.207
1014.00,50.179
1015.00,50.188
1016.00,50.144
1017.00,50.143
1018.00,50.131
1019.00,50.100
1020.00,50.095
1021.00,50.071
1022.00,50.071
1023.00,50.019
1024.00,50.031
1025.00,50.019
1026.00,49.997
1027.00,49.981
1028.00,49.980
1029.00,49.970
1030.00,49.926
1031.00,49.941
1032.00,49.902
1033.00,49.898
1034.00,49.869
1035.00,49.824
1036.00,49.824
1037.00,49.805
1038.00,49.789
1039.00,49.761
1040.00,49.735
1041.00,49.718
1042.00,49.712
1043.00,49.672
1044.00,49.705
1045.00,49.692
1046.00,49.683
1047.00,49.714
1048.00,49.716
1049.00,49.740
1050.00,49.742
1051.00,49.766
1052.00,49.763
1053.00,49.759
1054.00,49.753
1055.00,49.774
1056.00,49.800
1057.00,49.785
1058.00,49.775
1059.00,49.762
1060.00,49.782
1061.00,49.754
1062.00,49.745
1063.00,49.762
1064.00,49.774
1065.00,49.761
1066.00,49.733
1067.00,49.725
1068.00,49.751
1069.00,49.708
1070.00,49.693
1071.00,49.694
1072.00,49.718
1073.00,49.682
1074.00,49.667
1075.00,49.666
1076.00,49.662
1077.00,49.649
1078.00,49.638
1079.00,49.642
1080.00,49.642
1081.00,49.620
1082.00,49.619
1083.00,49.628
1084.00,49.598
1085.00,49.632
1086.00,49.621
1087.00,49.605
1088.00,49.571
1089.00,49.578
1090.00,49.567
1091.00,49.583
1092.00,49.568
1093.00,49.563
1094.00,49.548
1095.00,49.538
1096.00,49.514
1097.00,49.507
1098.00,49.491
1099.00,49.475
1100.00,49.458
1101.00,49.460
1102.00,49.437
1103.00,49.438
1104.00,49.440
1105.00,49.439
1106.00,49.407
1107.00,49.416
1108.00,49.406
1109.00,49.398
1110.00,49.389
1111.00,49.388
1112.00,49.378
1113.00,49.375
1114.00,49.359
1115.00,49.369
1116.00,49.343
1117.00,49.324
1118.00,49.308
1119.00,49.305
1120.00,49.304
1121.00,49.298
1122.00,49.284
1123.00,49.284
1124.00,49.277
1125.00,49.282
1126.00,49.266
1127.00,49.274
1128.00,49.249
1129.00,49.243
1130.00,49.211
1131.00,49.223
1132.00,49.205
1133.00,49.208
1134.00,49.206
1135.00,49.199
1136.00,49.190
1137.00,49.206
1138.00,49.208
1139.00,49.229
1140.00,49.210
1141.00,49.196
1142.00,49.176
1143.00,49.200
1144.00,49.188
1145.00,49.212
1146.00,49.211
1147.00,49.168
1148.00,49.163
1149.00,49.188
1150.00,49.162
1151.00,49.168
1152.00,49.160
1153.00,49.165
1154.00,49.149
1155.00,49.159
1156.00,49.148
1157.00,49.170
1158.00,49.151
1159.00,49.152
1160.00,49.164
1161.00,49.160
1162.00,49.146
1163.00,49.134
1164.00,49.148
1165.00,49.125
1166.00,49.141
1167.00,49.128
1168.00,49.158
1169.00,49.143
1170.00,49.141
1171.00,49.138
1172.00,49.126
1173.00,49.117
1174.00,49.124
1175.00,49.114
1176.00,49.124
1177.00,49.103
1178.00,49.108
1179.00,49.126
1180.00,49.096
1181.00,49.127
1182.00,49.108
1183.00,49.099
1184.00,49.097
1185.00,49.115
1186.00,49.114
1187.00,49.114
1188.00,49.111
1189.00,49.108
1190.00,49.130
1191.00,49.125
1192.00,49.145
1193.00,49.130
1194.00,49.112
1195.00,49.101
1196.00,49.132
1197.00,49.141
1198.00,49.114
1199.00,49.116
1200.00,49.119
1201.00,49.138
1202.00,49.103
1203.00,49.113
1204.00,49.128
1205.00,49.142
1206.00,49.119
1207.00,49.116
1208.00,49.105
1209.00,49.120
1210.00,49.112
1211.00,49.106
1212.00,49.117
1213.00,49.071
1214.00,49.116
1215.00,49.099
1216.00,49.107
1217.00,49.116
1218.00,49.095
1219.00,49.124
1220.00,49.114
1221.00,49.129
1222.00,49.109
1223.00,49.140
1224.00,49.126
1225.00,49.112
1226.00,49.118
1227.00,49.103
1228.00,49.138
1229.00,49.150
1230.00,49.168
1231.00,49.152
1232.00,49.226
1233.00,49.198
1234.00,49.204
1235.00,49.194
1236.00,49.194
1237.00,49.208
1238.00,49.196
1239.00,49.203
1240.00,49.175
1241.00,49.187
1242.00,49.191
1243.00,49.206
1244.00,49.192
1245.00,49.229
1246.00,49.217
1247.00,49.213
1248.00,49.220
1249.00,49.228
1250.00,49.238
1251.00,49.226
1252.00,49.241
1253.00,49.225
1254.00,49.260
1255.00,49.246
1256.00,49.260
1257.00,49.273
1258.00,49.274
1259.00,49.273
1260.00,49.288
1261.00,49.303
1262.00,49.291
1263.00,49.286
1264.00,49.295
1265.00,49.298
1266.00,49.285
1267.00,49.311
1268.00,49.309
1269.00,49.318
1270.00,49.332
1271.00,49.321
1272.00,49.320
1273.00,49.344
1274.00,49.335
1275.00,49.343
1276.00,49.346
1277.00,49.368
1278.00,49.379
1279.00,49.371
1280.00,49.365
1281.00,49.402
1282.00,49.407
1283.00,49.395
1284.00,49.410
1285.00,49.397
1286.00,49.408
1287.00,49.414
1288.00,49.417
1289.00,49.417
1290.00,49.443
1291.00,49.431
1292.00,49.428
1293.00,49.420
1294.00,49.447
1295.00,49.454
1296.00,49.458
1297.00,49.466
1298.00,49.493
1299.00,49.449
1300.00,49.485
1301.00,49.489
1302.00,49.521
1303.00,49.511
1304.00,49.497
1305.00,49.527
1306.00,49.557
1307.00,49.559
1308.00,49.550
1309.00,49.583
1310.00,49.556
1311.00,49.547
1312.00,49.534
1313.00,49.566
1314.00,49.576
1315.00,49.582
1316.00,49.585
1317.00,49.620
1318.00,49.592
1319.00,49.627
1320.00,49.638
1321.00,49.820
1322.00,49.812
1323.00,49.804
1324.00,49.788
1325.00,49.789
1326.00,49.821
1327.00,49.791
1328.00,49.790
1329.00,49.784
1330.00,49.842
1331.00,49.774
1332.00,49.771
1333.00,49.873
1334.00,49.838
1335.00,49.852
1336.00,49.886
1337.00,49.924
1338.00,49.989
1339.00,50.034
1340.00,50.066
1341.00,50.141
1342.00,50.199
1343.00,50.266
1344.00,50.295
1345.00,50.358
1346.00,50.414
1347.00,50.426
1348.00,50.450
1349.00,50.462
1350.00,50.492
1351.00,50.492
1352.00,50.515
1353.00,50.535
1354.00,50.525
1355.00,50.481
1356.00,50.557
1357.00,50.533
1358.00,50.574
1359.00,50.581
1360.00,50.603
1361.00,50.687
1362.00,50.549
1363.00,50.584
1364.00,50.628
1365.00,50.555
1366.00,50.632
1367.00,50.606
1368.00,50.536
1369.00,50.562
1370.00,50.564
1371.00,50.535
1372.00,50.577
1373.00,50.575
1374.00,50.626
1375.00,50.564
1376.00,50.575
1377.00,50.560
1378.00,50.604
1379.00,50.603
1380.00,50.601
1381.00,50.635
1382.00,50.584
1383.00,50.591
1384.00,50.532
1385.00,50.549
1386.00,50.677
1387.00,50.581
1388.00,50.530
1389.00,50.563
1390.00,50.553
1391.00,50.576
1392.00,50.515
1393.00,50.602
1394.00,50.596
1395.00,50.536
1396.00,50.508
1397.00,50.545
1398.00,50.526
1399.00,50.574
1400.00,50.491
1401.00,50.542
1402.00,50.581
1403.00,50.603
1404.00,50.574
1405.00,50.606
1406.00,50.625
1407.00,50.625
1408.00,50.669
1409.00,50.772
1410.00,50.661
1411.00,50.633
1412.00,50.697
1413.00,50.659
1414.00,50.654
1415.00,50.683
1416.00,50.729
1417.00,50.741
1418.00,50.716
1419.00,50.733
1420.00,50.743
1421.00,50.800
1422.00,50.805
1423.00,50.829
1424.00,50.829
1425.00,50.846
1426.00,50.846
1427.00,50.881
1428.00,50.877
1429.00,50.891
1430.00,50.877
1431.00,50.895
1432.00,50.923
1433.00,50.945
1434.00,50.945
1435.00,51.014
1436.00,50.997
1437.00,50.984
1438.00,51.008
1439.00,51.034
1440.00,51.056
1441.00,51.050
1442.00,51.090
1443.00,51.110
1444.00,51.139
1445.00,51.128
1446.00,51.168
1447.00,51.195
1448.00,51.225
1449.00,51.239
1450.00,51.232
1451.00,51.256
1452.00,51.291
1453.00,51.283
1454.00,51.310
1455.00,51.343
1456.00,51.351
1457.00,51.341
1458.00,51.381
1459.00,51.399
1460.00,51.434
1461.00,51.407
1462.00,51.455
1463.00,51.467
1464.00,51.464
1465.00,51.485
1466.00,51.494
1467.00,51.519
1468.00,51.565
1469.00,51.547
1470.00,51.567
1471.00,51.597
1472.00,51.593
1473.00,51.620
1474.00,51.662
1475.00,51.645
1476.00,51.672
1477.00,51.652
1478.00,51.694
1479.00,51.721
1480.00,51.722
1481.00,51.715
1482.00,51.763
1483.00,51.776
1484.00,51.782
1485.00,51.800
1486.00,51.811
1487.00,51.820
1488.00,51.841
1489.00,51.828
1490.00,51.856
1491.00,51.862
1492.00,51.891
1493.00,51.876
1494.00,51.926
1495.00,51.903
1496.00,51.943
1497.00,51.922
1498.00,51.930
1499.00,51.963
1500.00,51.971
1501.00, 
1502.00, 
1503.00, 
1504.00, 
1505.00, 
1506.00, 
1507.00, 
1508.00, 
1509.00, 
1510.00, 
1511.00, 
1512.00, 
1513.00, 
1514.00, 
1515.00, 
1516.00, 
1517.00, 
1518.00, 
1519.00, 
1520.00, 
1521.00, 
1522.00, 
1523.00, 
1524.00, 
1525.00, 
1526.00, 
1527.00, 
1528.00, 
1529.00, 
1530.00, 
1531.00, 
1532.00, 
1533.00, 
1534.00, 
1535.00, 
1536.00, 
1537.00, 
1538.00, 
1539.00, 
1540.00, 
1541.00, 
1542.00, 
1543.00, 
1544.00, 
1545.00, 
1546.00, 
1547.00, 
1548.00, 
1549.00, 
1550.00, 
1551.00, 
1552.00, 
1553.00, 
1554.00, 
1555.00, 
1556.00, 
1557.00, 
1558.00, 
1559.00, 
1560.00, 
1561.00, 
1562.00, 
1563.00, 
1564.00, 
1565.00, 
1566.00, 
1567.00, 
1568.00, 
1569.00, 
1570.00, 
1571.00, 
1572.00, 
1573.00, 
1574.00, 
1575.00, 
1576.00, 
1577.00, 
1578.00, 
1579.00, 
1580.00, 
1581.00, 
1582.00, 
1583.00, 
1584.00, 
1585.00, 
1586.00, 
1587.00, 
1588.00, 
1589.00, 
1590.00, 
1591.00, 
1592.00, 
1593.00, 
1594.00, 
1595.00, 
1596.00, 
1597.00, 
1598.00, 
1599.00, 
1600.00, 
1601.00, 
1602.00, 
1603.00, 
1604.00, 
1605.00, 
1606.00, 
1607.00, 
1608.00, 
1609.00, 
1610.00, 
1611.00, 
1612.00, 
1613.00, 
1614.00, 
1615.00, 
1616.00, 
1617.00, 
1618.00, 
1619.00, 
1620.00, 
1621.00, 
1622.00, 
1623.00, 
1624.00, 
1625.00, 
1626.00, 
1627.00, 
1628.00, 
1629.00, 
1630.00, 
1631.00, 
1632.00, 
1633.00, 
1634.00, 
1635.00, 
1636.00, 
1637.00, 
1638.00, 
1639.00, 
1640.00, 
1641.00, 
1642.00, 
1643.00, 
1644.00, 
1645.00, 
1646.00, 
1647.00, 
1648.00, 
1649.00, 
1650.00, 
1651.00, 
1652.00, 
1653.00, 
1654.00, 
1655.00, 
1656.00, 
1657.00, 
1658.00, 
1659.00, 
1660.00, 
1661.00, 
1662.00, 
1663.00, 
1664.00, 
1665.00, 
1666.00, 
1667.00, 
1668.00, 
1669.00, 
1670.00, 
1671.00, 
1672.00, 
1673.00, 
1674.00, 
1675.00, 
1676.00, 
1677.00, 
1678.00, 
1679.00, 
1680.00, 
1681.00, 
1682.00, 
1683.00, 
1684.00, 
1685.00, 
1686.00, 
1687.00, 
1688.00, 
1689.00, 
1690.00, 
1691.00, 
1692.00, 
1693.00, 
1694.00, 
1695.00, 
1696.00, 
1697.00, 
1698.00, 
1699.00, 
1700.00, 
1701.00, 
1702.00, 
1703.00, 
1704.00, 
1705.00, 
1706.00, 
1707.00, 
1708.00, 
1709.00, 
1710.00, 
1711.00, 
1712.00, 
1713.00, 
1714.00, 
1715.00, 
1716.00, 
1717.00, 
1718.00, 
1719.00, 
1720.00, 
1721.00, 
1722.00, 
1723.00, 
1724.00, 
1725.00, 
1726.00, 
1727.00, 
1728.00, 
1729.00, 
1730.00, 
1731.00, 
1732.00, 
1733.00, 
1734.00, 
1735.00, 
1736.00, 
1737.00, 
1738.00, 
1739.00, 
1740.00, 
1741.00, 
1742.00, 
1743.00, 
1744.00, 
1745.00, 
1746.00, 
1747.00, 
1748.00, 
1749.00, 
1750.00, 
1751.00, 
1752.00, 
1753.00, 
1754.00, 
1755.00, 
1756.00, 
1757.00, 
1758.00, 
1759.00, 
1760.00, 
1761.00, 
1762.00, 
1763.00, 
1764.00, 
1765.00, 
1766.00, 
1767.00, 
1768.00, 
1769.00, 
1770.00, 
1771.00, 
1772.00, 
1773.00, 
1774.00, 
1775.00, 
1776.00, 
1777.00, 
1778.00, 
1779.00, 
1780.00, 
1781.00, 
1782.00, 
1783.00, 
1784.00, 
1785.00, 
1786.00, 
1787.00, 
1788.00, 
1789.00, 
1790.00, 
1791.00, 
1792.00, 
1793.00, 
1794.00, 
1795.00, 
1796.00, 
1797.00, 
1798.00, 
1799.00, 
1800.00, 
1801.00, 
1802.00, 
1803.00, 
1804.00, 
1805.00, 
1806.00, 
1807.00, 
1808.00, 
1809.00, 
1810.00, 
1811.00, 
1812.00, 
1813.00, 
1814.00, 
1815.00, 
1816.00, 
1817.00, 
1818.00, 
1819.00, 
1820.00, 
1821.00, 
1822.00, 
1823.00, 
1824.00, 
1825.00, 
1826.00, 
1827.00, 
1828.00, 
1829.00, 
1830.00, 
1831.00, 
1832.00, 
1833.00, 
1834.00, 
1835.00, 
1836.00, 
1837.00, 
1838.00, 
1839.00, 
1840.00, 
1841.00, 
1842.00, 
1843.00, 
1844.00, 
1845.00, 
1846.00, 
1847.00, 
1848.00, 
1849.00, 
1850.00, 
1851.00, 
1852.00, 
1853.00, 
1854.00, 
1855.00, 
1856.00, 
1857.00, 
1858.00, 
1859.00, 
1860.00, 
1861.00, 
1862.00, 
1863.00, 
1864.00, 
1865.00, 
1866.00, 
1867.00, 
1868.00, 
1869.00, 
1870.00, 
1871.00, 
1872.00, 
1873.00, 
1874.00, 
1875.00, 
1876.00, 
1877.00, 
1878.00, 
1879.00, 
1880.00, 
1881.00, 
1882.00, 
1883.00, 
1884.00, 
1885.00, 
1886.00, 
1887.00, 
1888.00, 
1889.00, 
1890.00, 
1891.00, 
1892.00, 
1893.00, 
1894.00, 
1895.00, 
1896.00, 
1897.00, 
1898.00, 
1899.00, 
1900.00, 
1901.00, 
1902.00, 
1903.00, 
1904.00, 
1905.00, 
1906.00, 
1907.00, 
1908.00, 
1909.00, 
1910.00, 
1911.00, 
1912.00, 
1913.00, 
1914.00, 
1915.00, 
1916.00, 
1917.00, 
1918.00, 
1919.00, 
1920.00, 
1921.00, 
1922.00, 
1923.00, 
1924.00, 
1925.00, 
1926.00, 
1927.00, 
1928.00, 
1929.00, 
1930.00, 
1931.00, 
1932.00, 
1933.00, 
1934.00, 
1935.00, 
1936.00, 
1937.00, 
1938.00, 
1939.00, 
1940.00, 
1941.00, 
1942.00, 
1943.00, 
1944.00, 
1945.00, 
1946.00, 
1947.00, 
1948.00, 
1949.00, 
1950.00, 
1951.00, 
1952.00, 
1953.00, 
1954.00, 
1955.00, 
1956.00, 
1957.00, 
1958.00, 
1959.00, 
1960.00, 
1961.00, 
1962.00, 
1963.00, 
1964.00, 
1965.00, 
1966.00, 
1967.00, 
1968.00, 
1969.00, 
1970.00, 
1971.00, 
1972.00, 
1973.00, 
1974.00, 
1975.00, 
1976.00, 
1977.00, 
1978.00, 
1979.00, 
1980.00, 
1981.00, 
1982.00, 
1983.00, 
1984.00, 
1985.00, 
1986.00, 
1987.00, 
1988.00, 
1989.00, 
1990.00, 
1991.00, 
1992.00, 
1993.00, 
1994.00, 
1995.00, 
1996.00, 
1997.00, 
1998.00, 
1999.00, 
2000.00, 
2001.00, 
2002.00, 
2003.00, 
2004.00, 
2005.00, 
2006.00, 
2007.00, 
2008.00, 
2009.00, 
2010.00, 
2011.00, 
2012.00, 
2013.00, 
2014.00, 
2015.00, 
2016.00, 
2017.00, 
2018.00, 
2019.00, 
2020.00, 
2021.00, 
2022.00, 
2023.00, 
2024.00, 
2025.00, 
2026.00, 
2027.00, 
2028.00, 
2029.00, 
2030.00, 
2031.00, 
2032.00, 
2033.00, 
2034.00, 
2035.00, 
2036.00, 
2037.00, 
2038.00, 
2039.00, 
2040.00, 
2041.00, 
2042.00, 
2043.00, 
2044.00, 
2045.00, 
2046.00, 
2047.00, 
2048.00, 
2049.00, 
2050.00, 
2051.00, 
2052.00, 
2053.00, 
2054.00, 
2055.00, 
2056.00, 
2057.00, 
2058.00, 
2059.00, 
2060.00, 
2061.00, 
2062.00, 
2063.00, 
2064.00, 
2065.00, 
2066.00, 
2067.00, 
2068.00, 
2069.00, 
2070.00, 
2071.00, 
2072.00, 
2073.00, 
2074.00, 
2075.00, 
2076.00, 
2077.00, 
2078.00, 
2079.00, 
2080.00, 
2081.00, 
2082.00, 
2083.00, 
2084.00, 
2085.00, 
2086.00, 
2087.00, 
2088.00, 
2089.00, 
2090.00, 
2091.00, 
2092.00, 
2093.00, 
2094.00, 
2095.00, 
2096.00, 
2097.00, 
2098.00, 
2099.00, 
2100.00, 
2101.00, 
2102.00, 
2103.00, 
2104.00, 
2105.00, 
2106.00, 
2107.00, 
2108.00, 
2109.00, 
2110.00, 
2111.00, 
2112.00, 
2113.00, 
2114.00, 
2115.00, 
2116.00, 
2117.00, 
2118.00, 
2119.00, 
2120.00, 
2121.00, 
2122.00, 
2123.00, 
2124.00, 
2125.00, 
2126.00, 
2127.00, 
2128.00, 
2129.00, 
2130.00, 
2131.00, 
2132.00, 
2133.00, 
2134.00, 
2135.00, 
2136.00, 
2137.00, 
2138.00, 
2139.00, 
2140.00, 
2141.00, 
2142.00, 
2143.00, 
2144.00, 
2145.00, 
2146.00, 
2147.00, 
2148.00, 
2149.00, 
2150.00, 
2151.00, 
2152.00, 
2153.00, 
2154.00, 
2155.00, 
2156.00, 
2157.00, 
2158.00, 
2159.00, 
2160.00, 
2161.00, 
2162.00, 
2163.00, 
2164.00, 
2165.00, 
2166.00, 
2167.00, 
2168.00, 
2169.00, 
2170.00, 
2171.00, 
2172.00, 
2173.00, 
2174.00, 
2175.00, 
2176.00, 
2177.00, 
2178.00, 
2179.00, 
2180.00, 
2181.00, 
2182.00, 
2183.00, 
2184.00, 
2185.00, 
2186.00, 
2187.00, 
2188.00, 
2189.00, 
2190.00, 
2191.00, 
2192.00, 
2193.00, 
2194.00, 
2195.00, 
2196.00, 
2197.00, 
2198.00, 
2199.00, 
2200.00, 
2201.00, 
2202.00, 
2203.00, 
2204.00, 
2205.00, 
2206.00, 
2207.00, 
2208.00, 
2209.00, 
2210.00, 
2211.00, 
2212.00, 
2213.00, 
2214.00, 
2215.00, 
2216.00, 
2217.00, 
2218.00, 
2219.00, 
2220.00, 
2221.00, 
2222.00, 
2223.00, 
2224.00, 
2225.00, 
2226.00, 
2227.00, 
2228.00, 
2229.00, 
2230.00, 
2231.00, 
2232.00, 
2233.00, 
2234.00, 
2235.00, 
2236.00, 
2237.00, 
2238.00, 
2239.00, 
2240.00, 
2241.00, 
2242.00, 
2243.00, 
2244.00, 
2245.00, 
2246.00, 
2247.00, 
2248.00, 
2249.00, 
2250.00, 
2251.00, 
2252.00, 
2253.00, 
2254.00, 
2255.00, 
2256.00, 
2257.00, 
2258.00, 
2259.00, 
2260.00, 
2261.00, 
2262.00, 
2263.00, 
2264.00, 
2265.00, 
2266.00, 
2267.00, 
2268.00, 
2269.00, 
2270.00, 
2271.00, 
2272.00, 
2273.00, 
2274.00, 
2275.00, 
2276.00, 
2277.00, 
2278.00, 
2279.00, 
2280.00, 
2281.00, 
2282.00, 
2283.00, 
2284.00, 
2285.00, 
2286.00, 
2287.00, 
2288.00, 
2289.00, 
2290.00, 
2291.00, 
2292.00, 
2293.00, 
2294.00, 
2295.00, 
2296.00, 
2297.00, 
2298.00, 
2299.00, 
2300.00, 
2301.00, 
2302.00, 
2303.00, 
2304.00, 
2305.00, 
2306.00, 
2307.00, 
2308.00, 
2309.00, 
2310.00, 
2311.00, 
2312.00, 
2313.00, 
2314.00, 
2315.00, 
2316.00, 
2317.00, 
2318.00, 
2319.00, 
2320.00, 
2321.00, 
2322.00, 
2323.00, 
2324.00, 
2325.00, 
2326.00, 
2327.00, 
2328.00, 
2329.00, 
2330.00, 
2331.00, 
2332.00, 
2333.00, 
2334.00, 
2335.00, 
2336.00, 
2337.00, 
2338.00, 
2339.00, 
2340.00, 
2341.00, 
2342.00, 
2343.00, 
2344.00, 
2345.00, 
2346.00, 
2347.00, 
2348.00, 
2349.00, 
2350.00, 
2351.00, 
2352.00, 
2353.00, 
2354.00, 
2355.00, 
2356.00, 
2357.00, 
2358.00, 
2359.00, 
2360.00, 
2361.00, 
2362.00, 
2363.00, 
2364.00, 
2365.00, 
2366.00, 
2367.00, 
2368.00, 
2369.00, 
2370.00, 
2371.00, 
2372.00, 
2373.00, 
2374.00, 
2375.00, 
2376.00, 
2377.00, 
2378.00, 
2379.00, 
2380.00, 
2381.00, 
2382.00, 
2383.00, 
2384.00, 
2385.00, 
2386.00, 
2387.00, 
2388.00, 
2389.00, 
2390.00, 
2391.00, 
2392.00, 
2393.00, 
2394.00, 
2395.00, 
2396.00, 
2397.00, 
2398.00, 
2399.00, 
2400.00, 
2401.00, 
2402.00, 
2403.00, 
2404.00, 
2405.00, 
2406.00, 
2407.00, 
2408.00, 
2409.00, 
2410.00, 
2411.00, 
2412.00, 
2413.00, 
2414.00, 
2415.00, 
2416.00, 
2417.00, 
2418.00, 
2419.00, 
2420.00, 
2421.00, 
2422.00, 
2423.00, 
2424.00, 
2425.00, 
2426.00, 
2427.00, 
2428.00, 
2429.00, 
2430.00, 
2431.00, 
2432.00, 
2433.00, 
2434.00, 
2435.00, 
2436.00, 
2437.00, 
2438.00, 
2439.00, 
2440.00, 
2441.00, 
2442.00, 
2443.00, 
2444.00, 
2445.00, 
2446.00, 
2447.00, 
2448.00, 
2449.00, 
2450.00, 
2451.00, 
2452.00, 
2453.00, 
2454.00, 
2455.00, 
2456.00, 
2457.00, 
2458.00, 
2459.00, 
2460.00, 
2461.00, 
2462.00, 
2463.00, 
2464.00, 
2465.00, 
2466.00, 
2467.00, 
2468.00, 
2469.00, 
2470.00, 
2471.00, 
2472.00, 
2473.00, 
2474.00, 
2475.00, 
2476.00, 
2477.00, 
2478.00, 
2479.00, 
2480.00, 
2481.00, 
2482.00, 
2483.00, 
2484.00, 
2485.00, 
2486.00, 
2487.00, 
2488.00, 
2489.00, 
2490.00, 
2491.00, 
2492.00, 
2493.00, 
2494.00, 
2495.00, 
2496.00, 
2497.00, 
2498.00, 
2499.00, 
2500.00, 
2501.00, 
2502.00, 
2503.00, 
2504.00, 
2505.00, 
2506.00, 
2507.00, 
2508.00, 
2509.00, 
2510.00, 
2511.00, 
2512.00, 
2513.00, 
2514.00, 
2515.00, 
2516.00, 
2517.00, 
2518.00, 
2519.00, 
2520.00, 
2521.00, 
2522.00, 
2523.00, 
2524.00, 
2525.00, 
2526.00, 
2527.00, 
2528.00, 
2529.00, 
2530.00, 
2531.00, 
2532.00, 
2533.00, 
2534.00, 
2535.00, 
2536.00, 
2537.00, 
2538.00, 
2539.00, 
2540.00, 
2541.00, 
2542.00, 
2543.00, 
2544.00, 
2545.00, 
2546.00, 
2547.00, 
2548.00, 
2549.00, 
2550.00, 
2551.00, 
2552.00, 
2553.00, 
2554.00, 
2555.00, 
2556.00, 
2557.00, 
2558.00, 
2559.00, 
2560.00, 
2561.00, 
2562.00, 
2563.00, 
2564.00, 
2565.00, 
2566.00, 
2567.00, 
2568.00, 
2569.00, 
2570.00, 
2571.00, 
2572.00, 
2573.00, 
2574.00, 
2575.00, 
2576.00, 
2577.00, 
2578.00, 
2579.00, 
2580.00, 
2581.00, 
2582.00, 
2583.00, 
2584.00, 
2585.00, 
2586.00, 
2587.00, 
2588.00, 
2589.00, 
2590.00, 
2591.00, 
2592.00, 
2593.00, 
2594.00, 
2595.00, 
2596.00, 
2597.00, 
2598.00, 
2599.00, 
2600.00, 
