"1cP3 - RawData"
"Wavelength nm.","T%"
200.00,-0.001
201.00,0.000
202.00,0.001
203.00,0.001
204.00,0.001
205.00,0.002
206.00,0.002
207.00,-0.001
208.00,0.002
209.00,0.002
210.00,-0.001
211.00,-0.001
212.00,0.003
213.00,0.001
214.00,-0.000
215.00,0.000
216.00,0.002
217.00,0.004
218.00,0.001
219.00,-0.003
220.00,-0.003
221.00,-0.000
222.00,0.000
223.00,0.002
224.00,0.000
225.00,-0.000
226.00,-0.001
227.00,0.002
228.00,0.001
229.00,-0.000
230.00,-0.001
231.00,0.001
232.00,0.002
233.00,0.001
234.00,0.000
235.00,-0.001
236.00,0.001
237.00,0.002
238.00,0.001
239.00,-0.001
240.00,0.000
241.00,0.001
242.00,-0.001
243.00,0.002
244.00,0.003
245.00,0.000
246.00,-0.001
247.00,0.000
248.00,0.000
249.00,-0.000
250.00,0.001
251.00,0.001
252.00,0.001
253.00,0.002
254.00,0.000
255.00,0.002
256.00,0.002
257.00,0.001
258.00,-0.001
259.00,0.000
260.00,-0.001
261.00,0.002
262.00,0.000
263.00,0.000
264.00,-0.001
265.00,0.001
266.00,0.001
267.00,-0.000
268.00,0.001
269.00,-0.001
270.00,0.000
271.00,-0.000
272.00,0.001
273.00,0.001
274.00,0.000
275.00,-0.001
276.00,0.001
277.00,-0.001
278.00,-0.000
279.00,0.001
280.00,0.001
281.00,0.001
282.00,0.000
283.00,-0.001
284.00,0.000
285.00,-0.000
286.00,0.000
287.00,-0.000
288.00,0.001
289.00,0.001
290.00,0.002
291.00,0.000
292.00,-0.001
293.00,-0.001
294.00,0.002
295.00,0.000
296.00,0.002
297.00,0.001
298.00,-0.000
299.00,0.001
300.00,0.002
301.00,0.000
302.00,0.000
303.00,0.000
304.00,0.002
305.00,0.001
306.00,0.000
307.00,0.002
308.00,0.007
309.00,0.012
310.00,0.018
311.00,0.029
312.00,0.043
313.00,0.066
314.00,0.094
315.00,0.145
316.00,0.208
317.00,0.284
318.00,0.396
319.00,0.539
320.00,0.721
321.00,0.928
322.00,1.188
323.00,1.512
324.00,1.860
325.00,2.260
326.00,2.669
327.00,3.184
328.00,3.737
329.00,4.303
330.00,4.947
331.00,5.579
332.00,6.243
333.00,7.024
334.00,7.724
335.00,8.525
336.00,9.305
337.00,10.122
338.00,10.919
339.00,11.629
340.00,12.415
341.00,13.188
342.00,13.875
343.00,14.623
344.00,15.357
345.00,15.985
346.00,16.610
347.00,17.209
348.00,17.754
349.00,18.289
350.00,18.863
351.00,19.308
352.00,19.681
353.00,20.109
354.00,20.591
355.00,20.899
356.00,21.284
357.00,21.622
358.00,21.911
359.00,22.260
360.00,22.571
361.00,22.686
362.00,22.968
363.00,23.093
364.00,23.338
365.00,23.454
366.00,23.601
367.00,23.690
368.00,23.844
369.00,23.886
370.00,23.966
371.00,24.016
372.00,23.968
373.00,24.014
374.00,24.035
375.00,24.007
376.00,23.869
377.00,23.769
378.00,23.647
379.00,23.656
380.00,23.533
381.00,23.588
382.00,23.601
383.00,23.625
384.00,23.700
385.00,23.795
386.00,23.818
387.00,23.955
388.00,24.039
389.00,24.059
390.00,24.160
391.00,24.209
392.00,24.266
393.00,24.238
394.00,24.317
395.00,24.385
396.00,24.327
397.00,24.369
398.00,24.405
399.00,24.413
400.00,24.391
401.00,24.414
402.00,24.419
403.00,24.364
404.00,24.367
405.00,24.363
406.00,24.364
407.00,24.315
408.00,24.334
409.00,24.285
410.00,24.189
411.00,24.177
412.00,24.154
413.00,24.182
414.00,24.101
415.00,24.147
416.00,24.182
417.00,24.096
418.00,24.149
419.00,24.239
420.00,24.326
421.00,24.246
422.00,24.232
423.00,24.343
424.00,24.315
425.00,24.394
426.00,24.411
427.00,24.458
428.00,24.490
429.00,24.542
430.00,24.617
431.00,24.569
432.00,24.575
433.00,24.619
434.00,24.715
435.00,24.834
436.00,24.817
437.00,24.853
438.00,24.930
439.00,24.930
440.00,25.059
441.00,25.144
442.00,25.224
443.00,25.260
444.00,25.377
445.00,25.423
446.00,25.527
447.00,25.621
448.00,25.706
449.00,25.831
450.00,25.913
451.00,25.982
452.00,26.056
453.00,26.201
454.00,26.255
455.00,26.357
456.00,26.536
457.00,26.611
458.00,26.680
459.00,26.832
460.00,26.966
461.00,27.089
462.00,27.164
463.00,27.292
464.00,27.418
465.00,27.536
466.00,27.671
467.00,27.795
468.00,27.867
469.00,27.955
470.00,28.060
471.00,28.113
472.00,28.280
473.00,28.378
474.00,28.457
475.00,28.557
476.00,28.675
477.00,28.776
478.00,28.877
479.00,29.100
480.00,29.192
481.00,29.290
482.00,29.448
483.00,29.608
484.00,29.753
485.00,29.867
486.00,30.016
487.00,30.152
488.00,30.278
489.00,30.498
490.00,30.612
491.00,30.726
492.00,30.951
493.00,31.107
494.00,30.966
495.00,31.173
496.00,31.211
497.00,31.464
498.00,31.577
499.00,31.723
500.00,31.860
501.00,31.977
502.00,32.079
503.00,32.194
504.00,32.264
505.00,32.349
506.00,32.573
507.00,32.624
508.00,32.739
509.00,32.889
510.00,33.007
511.00,33.071
512.00,33.270
513.00,33.421
514.00,33.475
515.00,33.643
516.00,33.761
517.00,33.806
518.00,33.995
519.00,34.041
520.00,34.084
521.00,34.210
522.00,34.296
523.00,34.296
524.00,34.448
525.00,34.598
526.00,34.684
527.00,34.724
528.00,34.800
529.00,35.029
530.00,35.177
531.00,35.264
532.00,35.365
533.00,35.483
534.00,35.575
535.00,35.649
536.00,35.722
537.00,35.804
538.00,35.876
539.00,35.915
540.00,36.004
541.00,36.055
542.00,36.100
543.00,36.174
544.00,36.269
545.00,36.346
546.00,36.362
547.00,36.546
548.00,36.614
549.00,36.603
550.00,36.814
551.00,36.926
552.00,36.938
553.00,37.032
554.00,37.076
555.00,37.141
556.00,37.199
557.00,37.267
558.00,37.358
559.00,37.420
560.00,37.500
561.00,37.600
562.00,37.643
563.00,37.691
564.00,37.762
565.00,37.801
566.00,37.820
567.00,37.837
568.00,37.867
569.00,37.974
570.00,37.986
571.00,38.037
572.00,38.053
573.00,38.028
574.00,38.104
575.00,38.112
576.00,38.142
577.00,38.236
578.00,38.312
579.00,38.383
580.00,38.417
581.00,38.549
582.00,38.709
583.00,38.649
584.00,38.782
585.00,38.826
586.00,38.886
587.00,38.955
588.00,38.962
589.00,38.916
590.00,39.000
591.00,39.146
592.00,38.959
593.00,38.995
594.00,39.184
595.00,39.216
596.00,39.326
597.00,39.395
598.00,39.380
599.00,39.323
600.00,39.518
601.00,39.618
602.00,39.526
603.00,39.566
604.00,39.710
605.00,39.753
606.00,39.690
607.00,39.694
608.00,39.916
609.00,39.980
610.00,39.873
611.00,40.121
612.00,40.082
613.00,40.102
614.00,40.141
615.00,40.191
616.00,40.259
617.00,40.317
618.00,40.281
619.00,40.338
620.00,40.423
621.00,40.433
622.00,40.599
623.00,40.602
624.00,40.632
625.00,40.679
626.00,40.743
627.00,40.830
628.00,40.856
629.00,40.884
630.00,40.917
631.00,41.002
632.00,41.065
633.00,41.165
634.00,41.221
635.00,41.358
636.00,41.301
637.00,41.429
638.00,41.493
639.00,41.567
640.00,41.511
641.00,41.555
642.00,41.671
643.00,41.720
644.00,41.853
645.00,41.915
646.00,42.031
647.00,42.114
648.00,42.174
649.00,42.176
650.00,42.136
651.00,42.381
652.00,42.430
653.00,42.390
654.00,42.496
655.00,42.598
656.00,42.914
657.00,42.672
658.00,42.690
659.00,42.904
660.00,42.960
661.00,42.935
662.00,42.965
663.00,43.143
664.00,43.472
665.00,43.581
666.00,43.486
667.00,43.510
668.00,43.537
669.00,43.959
670.00,44.050
671.00,43.976
672.00,44.047
673.00,43.984
674.00,43.960
675.00,44.215
676.00,44.460
677.00,44.537
678.00,44.352
679.00,44.544
680.00,44.628
681.00,44.777
682.00,44.755
683.00,44.780
684.00,45.126
685.00,45.154
686.00,44.917
687.00,45.034
688.00,45.066
689.00,45.060
690.00,45.381
691.00,45.574
692.00,45.475
693.00,45.326
694.00,45.540
695.00,45.543
696.00,45.530
697.00,45.390
698.00,45.927
699.00,46.473
700.00,46.111
701.00,46.037
702.00,46.187
703.00,46.309
704.00,46.422
705.00,46.297
706.00,46.401
707.00,46.435
708.00,46.306
709.00,46.736
710.00,47.118
711.00,46.756
712.00,46.780
713.00,46.859
714.00,47.035
715.00,46.900
716.00,46.887
717.00,47.056
718.00,47.178
719.00,47.248
720.00,47.279
721.00,51.750
722.00,51.686
723.00,51.744
724.00,51.806
725.00,51.817
726.00,51.759
727.00,51.730
728.00,51.893
729.00,51.816
730.00,51.796
731.00,51.833
732.00,51.854
733.00,51.889
734.00,51.890
735.00,51.911
736.00,52.004
737.00,52.003
738.00,52.025
739.00,52.029
740.00,52.020
741.00,52.006
742.00,52.044
743.00,51.996
744.00,52.086
745.00,52.090
746.00,52.109
747.00,52.002
748.00,52.073
749.00,52.057
750.00,52.028
751.00,52.002
752.00,52.123
753.00,52.115
754.00,52.077
755.00,52.071
756.00,52.008
757.00,52.055
758.00,52.096
759.00,52.097
760.00,52.093
761.00,52.066
762.00,52.030
763.00,52.135
764.00,52.089
765.00,52.160
766.00,52.129
767.00,52.159
768.00,52.133
769.00,52.104
770.00,52.105
771.00,52.103
772.00,52.154
773.00,52.110
774.00,52.164
775.00,52.173
776.00,52.174
777.00,52.144
778.00,52.112
779.00,52.201
780.00,52.099
781.00,52.166
782.00,52.138
783.00,52.109
784.00,52.089
785.00,52.019
786.00,52.107
787.00,52.021
788.00,52.058
789.00,51.967
790.00,52.049
791.00,52.066
792.00,51.943
793.00,51.867
794.00,51.922
795.00,51.998
796.00,52.006
797.00,51.847
798.00,51.934
799.00,51.805
800.00,51.831
801.00,51.784
802.00,51.818
803.00,51.790
804.00,51.709
805.00,51.733
806.00,51.775
807.00,51.755
808.00,51.799
809.00,51.703
810.00,51.591
811.00,51.656
812.00,51.736
813.00,51.637
814.00,51.685
815.00,51.568
816.00,51.627
817.00,51.605
818.00,51.415
819.00,51.581
820.00,51.498
821.00,51.551
822.00,51.480
823.00,51.443
824.00,51.477
825.00,51.408
826.00,51.430
827.00,51.443
828.00,51.414
829.00,51.364
830.00,51.356
831.00,53.803
832.00,53.772
833.00,53.704
834.00,53.747
835.00,53.720
836.00,53.668
837.00,53.651
838.00,53.665
839.00,53.622
840.00,53.518
841.00,53.571
842.00,53.588
843.00,53.574
844.00,53.517
845.00,53.507
846.00,53.495
847.00,53.462
848.00,53.469
849.00,53.353
850.00,53.371
851.00,53.313
852.00,53.311
853.00,53.235
854.00,53.235
855.00,53.171
856.00,53.202
857.00,53.170
858.00,53.118
859.00,53.118
860.00,53.122
861.00,53.149
862.00,53.031
863.00,53.038
864.00,53.006
865.00,53.026
866.00,53.016
867.00,52.999
868.00,53.003
869.00,52.956
870.00,52.988
871.00,52.963
872.00,52.949
873.00,52.914
874.00,52.939
875.00,52.908
876.00,52.925
877.00,52.855
878.00,52.867
879.00,52.846
880.00,52.803
881.00,52.783
882.00,52.795
883.00,52.783
884.00,52.736
885.00,52.711
886.00,52.736
887.00,52.694
888.00,52.645
889.00,52.668
890.00,52.648
891.00,52.523
892.00,52.622
893.00,52.557
894.00,52.552
895.00,52.551
896.00,52.486
897.00,52.494
898.00,52.459
899.00,52.459
900.00,52.438
901.00,52.402
902.00,52.436
903.00,52.405
904.00,52.379
905.00,52.410
906.00,52.357
907.00,52.383
908.00,52.271
909.00,52.297
910.00,52.223
911.00,52.240
912.00,52.239
913.00,52.177
914.00,52.170
915.00,52.173
916.00,52.133
917.00,52.116
918.00,52.069
919.00,52.145
920.00,52.020
921.00,52.035
922.00,52.040
923.00,51.981
924.00,51.920
925.00,51.963
926.00,51.952
927.00,51.902
928.00,51.857
929.00,51.899
930.00,51.847
931.00,51.852
932.00,51.795
933.00,51.811
934.00,51.798
935.00,51.734
936.00,51.735
937.00,51.719
938.00,51.727
939.00,51.691
940.00,51.660
941.00,51.662
942.00,51.620
943.00,51.598
944.00,51.583
945.00,51.597
946.00,51.575
947.00,51.528
948.00,51.517
949.00,51.498
950.00,51.478
951.00,51.455
952.00,51.437
953.00,51.392
954.00,51.369
955.00,51.338
956.00,51.313
957.00,51.285
958.00,51.299
959.00,51.260
960.00,51.246
961.00,51.235
962.00,51.254
963.00,51.188
964.00,51.198
965.00,51.296
966.00,51.180
967.00,51.161
968.00,51.142
969.00,51.166
970.00,51.119
971.00,51.124
972.00,51.085
973.00,51.138
974.00,51.146
975.00,51.086
976.00,51.126
977.00,51.109
978.00,51.139
979.00,51.096
980.00,51.097
981.00,51.118
982.00,51.040
983.00,51.104
984.00,51.068
985.00,51.081
986.00,51.040
987.00,51.076
988.00,51.025
989.00,51.000
990.00,50.999
991.00,50.979
992.00,50.999
993.00,50.962
994.00,50.956
995.00,50.953
996.00,50.946
997.00,50.922
998.00,50.913
999.00,50.930
1000.00,50.882
1001.00,50.868
1002.00,50.865
1003.00,50.856
1004.00,50.843
1005.00,50.786
1006.00,50.848
1007.00,50.805
1008.00,50.774
1009.00,50.754
1010.00,50.787
1011.00,50.755
1012.00,50.708
1013.00,50.734
1014.00,50.692
1015.00,50.698
1016.00,50.669
1017.00,50.659
1018.00,50.657
1019.00,50.605
1020.00,50.623
1021.00,50.588
1022.00,50.585
1023.00,50.563
1024.00,50.545
1025.00,50.524
1026.00,50.523
1027.00,50.508
1028.00,50.502
1029.00,50.485
1030.00,50.446
1031.00,50.466
1032.00,50.429
1033.00,50.426
1034.00,50.390
1035.00,50.361
1036.00,50.358
1037.00,50.337
1038.00,50.344
1039.00,50.310
1040.00,50.285
1041.00,50.262
1042.00,50.253
1043.00,50.223
1044.00,50.262
1045.00,50.238
1046.00,50.218
1047.00,50.236
1048.00,50.250
1049.00,50.258
1050.00,50.257
1051.00,50.333
1052.00,50.272
1053.00,50.283
1054.00,50.289
1055.00,50.311
1056.00,50.325
1057.00,50.330
1058.00,50.331
1059.00,50.306
1060.00,50.331
1061.00,50.307
1062.00,50.286
1063.00,50.292
1064.00,50.296
1065.00,50.282
1066.00,50.267
1067.00,50.263
1068.00,50.292
1069.00,50.249
1070.00,50.229
1071.00,50.247
1072.00,50.248
1073.00,50.203
1074.00,50.206
1075.00,50.204
1076.00,50.204
1077.00,50.194
1078.00,50.175
1079.00,50.188
1080.00,50.171
1081.00,50.162
1082.00,50.158
1083.00,50.151
1084.00,50.148
1085.00,50.144
1086.00,50.136
1087.00,50.156
1088.00,50.110
1089.00,50.106
1090.00,50.099
1091.00,50.115
1092.00,50.092
1093.00,50.090
1094.00,50.067
1095.00,50.062
1096.00,50.033
1097.00,50.042
1098.00,50.033
1099.00,50.029
1100.00,50.005
1101.00,50.002
1102.00,49.974
1103.00,49.981
1104.00,49.980
1105.00,49.978
1106.00,49.949
1107.00,49.948
1108.00,49.932
1109.00,49.927
1110.00,49.915
1111.00,49.891
1112.00,49.887
1113.00,49.882
1114.00,49.862
1115.00,49.885
1116.00,49.871
1117.00,49.854
1118.00,49.846
1119.00,49.867
1120.00,49.862
1121.00,49.853
1122.00,49.832
1123.00,49.845
1124.00,49.832
1125.00,49.823
1126.00,49.808
1127.00,49.806
1128.00,49.779
1129.00,49.779
1130.00,49.756
1131.00,49.774
1132.00,49.743
1133.00,49.742
1134.00,49.756
1135.00,49.738
1136.00,49.718
1137.00,49.728
1138.00,49.731
1139.00,49.743
1140.00,49.741
1141.00,49.742
1142.00,49.717
1143.00,49.739
1144.00,49.708
1145.00,49.712
1146.00,49.704
1147.00,49.695
1148.00,49.693
1149.00,49.720
1150.00,49.715
1151.00,49.708
1152.00,49.708
1153.00,49.708
1154.00,49.687
1155.00,49.697
1156.00,49.694
1157.00,49.694
1158.00,49.679
1159.00,49.681
1160.00,49.671
1161.00,49.682
1162.00,49.672
1163.00,49.660
1164.00,49.684
1165.00,49.669
1166.00,49.666
1167.00,49.660
1168.00,49.688
1169.00,49.655
1170.00,49.655
1171.00,49.651
1172.00,49.651
1173.00,49.642
1174.00,49.657
1175.00,49.668
1176.00,49.660
1177.00,49.649
1178.00,49.684
1179.00,49.686
1180.00,49.654
1181.00,49.680
1182.00,49.660
1183.00,49.658
1184.00,49.643
1185.00,49.658
1186.00,49.643
1187.00,49.654
1188.00,49.649
1189.00,49.654
1190.00,49.651
1191.00,49.631
1192.00,49.668
1193.00,49.646
1194.00,49.651
1195.00,49.619
1196.00,49.645
1197.00,49.650
1198.00,49.638
1199.00,49.641
1200.00,49.660
1201.00,49.682
1202.00,49.644
1203.00,49.648
1204.00,49.641
1205.00,49.663
1206.00,49.649
1207.00,49.638
1208.00,49.635
1209.00,49.646
1210.00,49.634
1211.00,49.636
1212.00,49.664
1213.00,49.619
1214.00,49.653
1215.00,49.650
1216.00,49.668
1217.00,49.661
1218.00,49.647
1219.00,49.673
1220.00,49.647
1221.00,49.673
1222.00,49.663
1223.00,49.701
1224.00,49.687
1225.00,49.658
1226.00,49.673
1227.00,49.641
1228.00,49.669
1229.00,49.671
1230.00,49.689
1231.00,49.682
1232.00,49.739
1233.00,49.713
1234.00,49.720
1235.00,49.717
1236.00,49.727
1237.00,49.723
1238.00,49.720
1239.00,49.740
1240.00,49.700
1241.00,49.718
1242.00,49.708
1243.00,49.722
1244.00,49.709
1245.00,49.742
1246.00,49.751
1247.00,49.746
1248.00,49.757
1249.00,49.771
1250.00,49.778
1251.00,49.765
1252.00,49.786
1253.00,49.779
1254.00,49.810
1255.00,49.788
1256.00,49.784
1257.00,49.767
1258.00,49.805
1259.00,49.806
1260.00,49.827
1261.00,49.822
1262.00,49.825
1263.00,49.821
1264.00,49.838
1265.00,49.847
1266.00,49.833
1267.00,49.861
1268.00,49.852
1269.00,49.856
1270.00,49.871
1271.00,49.869
1272.00,49.874
1273.00,49.896
1274.00,49.889
1275.00,49.890
1276.00,49.885
1277.00,49.905
1278.00,49.908
1279.00,49.905
1280.00,49.893
1281.00,49.925
1282.00,49.931
1283.00,49.932
1284.00,49.998
1285.00,49.957
1286.00,49.962
1287.00,49.962
1288.00,49.968
1289.00,49.954
1290.00,49.993
1291.00,49.992
1292.00,49.995
1293.00,50.000
1294.00,50.017
1295.00,50.026
1296.00,50.017
1297.00,50.042
1298.00,50.065
1299.00,50.041
1300.00,50.083
1301.00,50.052
1302.00,50.084
1303.00,50.075
1304.00,50.071
1305.00,50.102
1306.00,50.100
1307.00,50.128
1308.00,50.100
1309.00,50.099
1310.00,50.089
1311.00,50.095
1312.00,50.101
1313.00,50.114
1314.00,50.157
1315.00,50.185
1316.00,50.158
1317.00,50.183
1318.00,50.161
1319.00,50.189
1320.00,50.189
1321.00,50.381
1322.00,50.358
1323.00,50.353
1324.00,50.343
1325.00,50.329
1326.00,50.356
1327.00,50.344
1328.00,50.346
1329.00,50.339
1330.00,50.366
1331.00,50.378
1332.00,50.350
1333.00,50.445
1334.00,50.420
1335.00,50.422
1336.00,50.457
1337.00,50.489
1338.00,50.554
1339.00,50.602
1340.00,50.654
1341.00,50.718
1342.00,50.783
1343.00,50.818
1344.00,50.848
1345.00,50.908
1346.00,50.949
1347.00,50.978
1348.00,51.006
1349.00,51.011
1350.00,51.049
1351.00,51.048
1352.00,51.081
1353.00,51.118
1354.00,51.092
1355.00,51.039
1356.00,51.108
1357.00,51.124
1358.00,51.116
1359.00,51.175
1360.00,51.442
1361.00,51.239
1362.00,51.065
1363.00,51.165
1364.00,51.145
1365.00,51.119
1366.00,51.208
1367.00,51.175
1368.00,51.127
1369.00,51.148
1370.00,51.136
1371.00,51.147
1372.00,51.149
1373.00,51.156
1374.00,51.180
1375.00,51.160
1376.00,51.162
1377.00,51.144
1378.00,51.244
1379.00,51.195
1380.00,51.199
1381.00,51.214
1382.00,51.137
1383.00,51.166
1384.00,51.101
1385.00,51.128
1386.00,51.212
1387.00,51.140
1388.00,51.102
1389.00,51.122
1390.00,51.141
1391.00,51.152
1392.00,51.127
1393.00,51.158
1394.00,51.184
1395.00,51.101
1396.00,51.086
1397.00,51.139
1398.00,51.124
1399.00,51.176
1400.00,51.135
1401.00,51.150
1402.00,51.194
1403.00,51.215
1404.00,51.165
1405.00,51.194
1406.00,51.232
1407.00,51.201
1408.00,51.257
1409.00,51.380
1410.00,51.276
1411.00,51.265
1412.00,51.328
1413.00,51.291
1414.00,51.302
1415.00,51.313
1416.00,51.352
1417.00,51.354
1418.00,51.332
1419.00,51.364
1420.00,51.360
1421.00,51.413
1422.00,51.410
1423.00,51.432
1424.00,51.441
1425.00,51.454
1426.00,51.449
1427.00,51.478
1428.00,51.484
1429.00,51.506
1430.00,51.513
1431.00,51.517
1432.00,51.547
1433.00,51.572
1434.00,51.574
1435.00,51.634
1436.00,51.623
1437.00,51.616
1438.00,51.661
1439.00,51.689
1440.00,51.689
1441.00,51.704
1442.00,51.740
1443.00,51.760
1444.00,51.776
1445.00,51.757
1446.00,51.803
1447.00,51.833
1448.00,51.869
1449.00,51.862
1450.00,51.874
1451.00,51.886
1452.00,51.928
1453.00,51.928
1454.00,51.934
1455.00,51.953
1456.00,51.969
1457.00,51.986
1458.00,52.035
1459.00,52.036
1460.00,52.088
1461.00,52.078
1462.00,52.125
1463.00,52.127
1464.00,52.138
1465.00,52.152
1466.00,52.147
1467.00,52.177
1468.00,52.214
1469.00,52.223
1470.00,52.239
1471.00,52.275
1472.00,52.266
1473.00,52.268
1474.00,52.307
1475.00,52.304
1476.00,52.332
1477.00,52.313
1478.00,52.344
1479.00,52.369
1480.00,52.367
1481.00,52.377
1482.00,52.415
1483.00,52.436
1484.00,52.453
1485.00,52.475
1486.00,52.481
1487.00,52.503
1488.00,52.515
1489.00,52.511
1490.00,52.542
1491.00,52.555
1492.00,52.584
1493.00,52.572
1494.00,52.611
1495.00,52.589
1496.00,52.632
1497.00,52.598
1498.00,52.615
1499.00,52.644
1500.00,52.661
1501.00, 
1502.00, 
1503.00, 
1504.00, 
1505.00, 
1506.00, 
1507.00, 
1508.00, 
1509.00, 
1510.00, 
1511.00, 
1512.00, 
1513.00, 
1514.00, 
1515.00, 
1516.00, 
1517.00, 
1518.00, 
1519.00, 
1520.00, 
1521.00, 
1522.00, 
1523.00, 
1524.00, 
1525.00, 
1526.00, 
1527.00, 
1528.00, 
1529.00, 
1530.00, 
1531.00, 
1532.00, 
1533.00, 
1534.00, 
1535.00, 
1536.00, 
1537.00, 
1538.00, 
1539.00, 
1540.00, 
1541.00, 
1542.00, 
1543.00, 
1544.00, 
1545.00, 
1546.00, 
1547.00, 
1548.00, 
1549.00, 
1550.00, 
1551.00, 
1552.00, 
1553.00, 
1554.00, 
1555.00, 
1556.00, 
1557.00, 
1558.00, 
1559.00, 
1560.00, 
1561.00, 
1562.00, 
1563.00, 
1564.00, 
1565.00, 
1566.00, 
1567.00, 
1568.00, 
1569.00, 
1570.00, 
1571.00, 
1572.00, 
1573.00, 
1574.00, 
1575.00, 
1576.00, 
1577.00, 
1578.00, 
1579.00, 
1580.00, 
1581.00, 
1582.00, 
1583.00, 
1584.00, 
1585.00, 
1586.00, 
1587.00, 
1588.00, 
1589.00, 
1590.00, 
1591.00, 
1592.00, 
1593.00, 
1594.00, 
1595.00, 
1596.00, 
1597.00, 
1598.00, 
1599.00, 
1600.00, 
1601.00, 
1602.00, 
1603.00, 
1604.00, 
1605.00, 
1606.00, 
1607.00, 
1608.00, 
1609.00, 
1610.00, 
1611.00, 
1612.00, 
1613.00, 
1614.00, 
1615.00, 
1616.00, 
1617.00, 
1618.00, 
1619.00, 
1620.00, 
1621.00, 
1622.00, 
1623.00, 
1624.00, 
1625.00, 
1626.00, 
1627.00, 
1628.00, 
1629.00, 
1630.00, 
1631.00, 
1632.00, 
1633.00, 
1634.00, 
1635.00, 
1636.00, 
1637.00, 
1638.00, 
1639.00, 
1640.00, 
1641.00, 
1642.00, 
1643.00, 
1644.00, 
1645.00, 
1646.00, 
1647.00, 
1648.00, 
1649.00, 
1650.00, 
1651.00, 
1652.00, 
1653.00, 
1654.00, 
1655.00, 
1656.00, 
1657.00, 
1658.00, 
1659.00, 
1660.00, 
1661.00, 
1662.00, 
1663.00, 
1664.00, 
1665.00, 
1666.00, 
1667.00, 
1668.00, 
1669.00, 
1670.00, 
1671.00, 
1672.00, 
1673.00, 
1674.00, 
1675.00, 
1676.00, 
1677.00, 
1678.00, 
1679.00, 
1680.00, 
1681.00, 
1682.00, 
1683.00, 
1684.00, 
1685.00, 
1686.00, 
1687.00, 
1688.00, 
1689.00, 
1690.00, 
1691.00, 
1692.00, 
1693.00, 
1694.00, 
1695.00, 
1696.00, 
1697.00, 
1698.00, 
1699.00, 
1700.00, 
1701.00, 
1702.00, 
1703.00, 
1704.00, 
1705.00, 
1706.00, 
1707.00, 
1708.00, 
1709.00, 
1710.00, 
1711.00, 
1712.00, 
1713.00, 
1714.00, 
1715.00, 
1716.00, 
1717.00, 
1718.00, 
1719.00, 
1720.00, 
1721.00, 
1722.00, 
1723.00, 
1724.00, 
1725.00, 
1726.00, 
1727.00, 
1728.00, 
1729.00, 
1730.00, 
1731.00, 
1732.00, 
1733.00, 
1734.00, 
1735.00, 
1736.00, 
1737.00, 
1738.00, 
1739.00, 
1740.00, 
1741.00, 
1742.00, 
1743.00, 
1744.00, 
1745.00, 
1746.00, 
1747.00, 
1748.00, 
1749.00, 
1750.00, 
1751.00, 
1752.00, 
1753.00, 
1754.00, 
1755.00, 
1756.00, 
1757.00, 
1758.00, 
1759.00, 
1760.00, 
1761.00, 
1762.00, 
1763.00, 
1764.00, 
1765.00, 
1766.00, 
1767.00, 
1768.00, 
1769.00, 
1770.00, 
1771.00, 
1772.00, 
1773.00, 
1774.00, 
1775.00, 
1776.00, 
1777.00, 
1778.00, 
1779.00, 
1780.00, 
1781.00, 
1782.00, 
1783.00, 
1784.00, 
1785.00, 
1786.00, 
1787.00, 
1788.00, 
1789.00, 
1790.00, 
1791.00, 
1792.00, 
1793.00, 
1794.00, 
1795.00, 
1796.00, 
1797.00, 
1798.00, 
1799.00, 
1800.00, 
1801.00, 
1802.00, 
1803.00, 
1804.00, 
1805.00, 
1806.00, 
1807.00, 
1808.00, 
1809.00, 
1810.00, 
1811.00, 
1812.00, 
1813.00, 
1814.00, 
1815.00, 
1816.00, 
1817.00, 
1818.00, 
1819.00, 
1820.00, 
1821.00, 
1822.00, 
1823.00, 
1824.00, 
1825.00, 
1826.00, 
1827.00, 
1828.00, 
1829.00, 
1830.00, 
1831.00, 
1832.00, 
1833.00, 
1834.00, 
1835.00, 
1836.00, 
1837.00, 
1838.00, 
1839.00, 
1840.00, 
1841.00, 
1842.00, 
1843.00, 
1844.00, 
1845.00, 
1846.00, 
1847.00, 
1848.00, 
1849.00, 
1850.00, 
1851.00, 
1852.00, 
1853.00, 
1854.00, 
1855.00, 
1856.00, 
1857.00, 
1858.00, 
1859.00, 
1860.00, 
1861.00, 
1862.00, 
1863.00, 
1864.00, 
1865.00, 
1866.00, 
1867.00, 
1868.00, 
1869.00, 
1870.00, 
1871.00, 
1872.00, 
1873.00, 
1874.00, 
1875.00, 
1876.00, 
1877.00, 
1878.00, 
1879.00, 
1880.00, 
1881.00, 
1882.00, 
1883.00, 
1884.00, 
1885.00, 
1886.00, 
1887.00, 
1888.00, 
1889.00, 
1890.00, 
1891.00, 
1892.00, 
1893.00, 
1894.00, 
1895.00, 
1896.00, 
1897.00, 
1898.00, 
1899.00, 
1900.00, 
1901.00, 
1902.00, 
1903.00, 
1904.00, 
1905.00, 
1906.00, 
1907.00, 
1908.00, 
1909.00, 
1910.00, 
1911.00, 
1912.00, 
1913.00, 
1914.00, 
1915.00, 
1916.00, 
1917.00, 
1918.00, 
1919.00, 
1920.00, 
1921.00, 
1922.00, 
1923.00, 
1924.00, 
1925.00, 
1926.00, 
1927.00, 
1928.00, 
1929.00, 
1930.00, 
1931.00, 
1932.00, 
1933.00, 
1934.00, 
1935.00, 
1936.00, 
1937.00, 
1938.00, 
1939.00, 
1940.00, 
1941.00, 
1942.00, 
1943.00, 
1944.00, 
1945.00, 
1946.00, 
1947.00, 
1948.00, 
1949.00, 
1950.00, 
1951.00, 
1952.00, 
1953.00, 
1954.00, 
1955.00, 
1956.00, 
1957.00, 
1958.00, 
1959.00, 
1960.00, 
1961.00, 
1962.00, 
1963.00, 
1964.00, 
1965.00, 
1966.00, 
1967.00, 
1968.00, 
1969.00, 
1970.00, 
1971.00, 
1972.00, 
1973.00, 
1974.00, 
1975.00, 
1976.00, 
1977.00, 
1978.00, 
1979.00, 
1980.00, 
1981.00, 
1982.00, 
1983.00, 
1984.00, 
1985.00, 
1986.00, 
1987.00, 
1988.00, 
1989.00, 
1990.00, 
1991.00, 
1992.00, 
1993.00, 
1994.00, 
1995.00, 
1996.00, 
1997.00, 
1998.00, 
1999.00, 
2000.00, 
2001.00, 
2002.00, 
2003.00, 
2004.00, 
2005.00, 
2006.00, 
2007.00, 
2008.00, 
2009.00, 
2010.00, 
2011.00, 
2012.00, 
2013.00, 
2014.00, 
2015.00, 
2016.00, 
2017.00, 
2018.00, 
2019.00, 
2020.00, 
2021.00, 
2022.00, 
2023.00, 
2024.00, 
2025.00, 
2026.00, 
2027.00, 
2028.00, 
2029.00, 
2030.00, 
2031.00, 
2032.00, 
2033.00, 
2034.00, 
2035.00, 
2036.00, 
2037.00, 
2038.00, 
2039.00, 
2040.00, 
2041.00, 
2042.00, 
2043.00, 
2044.00, 
2045.00, 
2046.00, 
2047.00, 
2048.00, 
2049.00, 
2050.00, 
2051.00, 
2052.00, 
2053.00, 
2054.00, 
2055.00, 
2056.00, 
2057.00, 
2058.00, 
2059.00, 
2060.00, 
2061.00, 
2062.00, 
2063.00, 
2064.00, 
2065.00, 
2066.00, 
2067.00, 
2068.00, 
2069.00, 
2070.00, 
2071.00, 
2072.00, 
2073.00, 
2074.00, 
2075.00, 
2076.00, 
2077.00, 
2078.00, 
2079.00, 
2080.00, 
2081.00, 
2082.00, 
2083.00, 
2084.00, 
2085.00, 
2086.00, 
2087.00, 
2088.00, 
2089.00, 
2090.00, 
2091.00, 
2092.00, 
2093.00, 
2094.00, 
2095.00, 
2096.00, 
2097.00, 
2098.00, 
2099.00, 
2100.00, 
2101.00, 
2102.00, 
2103.00, 
2104.00, 
2105.00, 
2106.00, 
2107.00, 
2108.00, 
2109.00, 
2110.00, 
2111.00, 
2112.00, 
2113.00, 
2114.00, 
2115.00, 
2116.00, 
2117.00, 
2118.00, 
2119.00, 
2120.00, 
2121.00, 
2122.00, 
2123.00, 
2124.00, 
2125.00, 
2126.00, 
2127.00, 
2128.00, 
2129.00, 
2130.00, 
2131.00, 
2132.00, 
2133.00, 
2134.00, 
2135.00, 
2136.00, 
2137.00, 
2138.00, 
2139.00, 
2140.00, 
2141.00, 
2142.00, 
2143.00, 
2144.00, 
2145.00, 
2146.00, 
2147.00, 
2148.00, 
2149.00, 
2150.00, 
2151.00, 
2152.00, 
2153.00, 
2154.00, 
2155.00, 
2156.00, 
2157.00, 
2158.00, 
2159.00, 
2160.00, 
2161.00, 
2162.00, 
2163.00, 
2164.00, 
2165.00, 
2166.00, 
2167.00, 
2168.00, 
2169.00, 
2170.00, 
2171.00, 
2172.00, 
2173.00, 
2174.00, 
2175.00, 
2176.00, 
2177.00, 
2178.00, 
2179.00, 
2180.00, 
2181.00, 
2182.00, 
2183.00, 
2184.00, 
2185.00, 
2186.00, 
2187.00, 
2188.00, 
2189.00, 
2190.00, 
2191.00, 
2192.00, 
2193.00, 
2194.00, 
2195.00, 
2196.00, 
2197.00, 
2198.00, 
2199.00, 
2200.00, 
2201.00, 
2202.00, 
2203.00, 
2204.00, 
2205.00, 
2206.00, 
2207.00, 
2208.00, 
2209.00, 
2210.00, 
2211.00, 
2212.00, 
2213.00, 
2214.00, 
2215.00, 
2216.00, 
2217.00, 
2218.00, 
2219.00, 
2220.00, 
2221.00, 
2222.00, 
2223.00, 
2224.00, 
2225.00, 
2226.00, 
2227.00, 
2228.00, 
2229.00, 
2230.00, 
2231.00, 
2232.00, 
2233.00, 
2234.00, 
2235.00, 
2236.00, 
2237.00, 
2238.00, 
2239.00, 
2240.00, 
2241.00, 
2242.00, 
2243.00, 
2244.00, 
2245.00, 
2246.00, 
2247.00, 
2248.00, 
2249.00, 
2250.00, 
2251.00, 
2252.00, 
2253.00, 
2254.00, 
2255.00, 
2256.00, 
2257.00, 
2258.00, 
2259.00, 
2260.00, 
2261.00, 
2262.00, 
2263.00, 
2264.00, 
2265.00, 
2266.00, 
2267.00, 
2268.00, 
2269.00, 
2270.00, 
2271.00, 
2272.00, 
2273.00, 
2274.00, 
2275.00, 
2276.00, 
2277.00, 
2278.00, 
2279.00, 
2280.00, 
2281.00, 
2282.00, 
2283.00, 
2284.00, 
2285.00, 
2286.00, 
2287.00, 
2288.00, 
2289.00, 
2290.00, 
2291.00, 
2292.00, 
2293.00, 
2294.00, 
2295.00, 
2296.00, 
2297.00, 
2298.00, 
2299.00, 
2300.00, 
2301.00, 
2302.00, 
2303.00, 
2304.00, 
2305.00, 
2306.00, 
2307.00, 
2308.00, 
2309.00, 
2310.00, 
2311.00, 
2312.00, 
2313.00, 
2314.00, 
2315.00, 
2316.00, 
2317.00, 
2318.00, 
2319.00, 
2320.00, 
2321.00, 
2322.00, 
2323.00, 
2324.00, 
2325.00, 
2326.00, 
2327.00, 
2328.00, 
2329.00, 
2330.00, 
2331.00, 
2332.00, 
2333.00, 
2334.00, 
2335.00, 
2336.00, 
2337.00, 
2338.00, 
2339.00, 
2340.00, 
2341.00, 
2342.00, 
2343.00, 
2344.00, 
2345.00, 
2346.00, 
2347.00, 
2348.00, 
2349.00, 
2350.00, 
2351.00, 
2352.00, 
2353.00, 
2354.00, 
2355.00, 
2356.00, 
2357.00, 
2358.00, 
2359.00, 
2360.00, 
2361.00, 
2362.00, 
2363.00, 
2364.00, 
2365.00, 
2366.00, 
2367.00, 
2368.00, 
2369.00, 
2370.00, 
2371.00, 
2372.00, 
2373.00, 
2374.00, 
2375.00, 
2376.00, 
2377.00, 
2378.00, 
2379.00, 
2380.00, 
2381.00, 
2382.00, 
2383.00, 
2384.00, 
2385.00, 
2386.00, 
2387.00, 
2388.00, 
2389.00, 
2390.00, 
2391.00, 
2392.00, 
2393.00, 
2394.00, 
2395.00, 
2396.00, 
2397.00, 
2398.00, 
2399.00, 
2400.00, 
2401.00, 
2402.00, 
2403.00, 
2404.00, 
2405.00, 
2406.00, 
2407.00, 
2408.00, 
2409.00, 
2410.00, 
2411.00, 
2412.00, 
2413.00, 
2414.00, 
2415.00, 
2416.00, 
2417.00, 
2418.00, 
2419.00, 
2420.00, 
2421.00, 
2422.00, 
2423.00, 
2424.00, 
2425.00, 
2426.00, 
2427.00, 
2428.00, 
2429.00, 
2430.00, 
2431.00, 
2432.00, 
2433.00, 
2434.00, 
2435.00, 
2436.00, 
2437.00, 
2438.00, 
2439.00, 
2440.00, 
2441.00, 
2442.00, 
2443.00, 
2444.00, 
2445.00, 
2446.00, 
2447.00, 
2448.00, 
2449.00, 
2450.00, 
2451.00, 
2452.00, 
2453.00, 
2454.00, 
2455.00, 
2456.00, 
2457.00, 
2458.00, 
2459.00, 
2460.00, 
2461.00, 
2462.00, 
2463.00, 
2464.00, 
2465.00, 
2466.00, 
2467.00, 
2468.00, 
2469.00, 
2470.00, 
2471.00, 
2472.00, 
2473.00, 
2474.00, 
2475.00, 
2476.00, 
2477.00, 
2478.00, 
2479.00, 
2480.00, 
2481.00, 
2482.00, 
2483.00, 
2484.00, 
2485.00, 
2486.00, 
2487.00, 
2488.00, 
2489.00, 
2490.00, 
2491.00, 
2492.00, 
2493.00, 
2494.00, 
2495.00, 
2496.00, 
2497.00, 
2498.00, 
2499.00, 
2500.00, 
2501.00, 
2502.00, 
2503.00, 
2504.00, 
2505.00, 
2506.00, 
2507.00, 
2508.00, 
2509.00, 
2510.00, 
2511.00, 
2512.00, 
2513.00, 
2514.00, 
2515.00, 
2516.00, 
2517.00, 
2518.00, 
2519.00, 
2520.00, 
2521.00, 
2522.00, 
2523.00, 
2524.00, 
2525.00, 
2526.00, 
2527.00, 
2528.00, 
2529.00, 
2530.00, 
2531.00, 
2532.00, 
2533.00, 
2534.00, 
2535.00, 
2536.00, 
2537.00, 
2538.00, 
2539.00, 
2540.00, 
2541.00, 
2542.00, 
2543.00, 
2544.00, 
2545.00, 
2546.00, 
2547.00, 
2548.00, 
2549.00, 
2550.00, 
2551.00, 
2552.00, 
2553.00, 
2554.00, 
2555.00, 
2556.00, 
2557.00, 
2558.00, 
2559.00, 
2560.00, 
2561.00, 
2562.00, 
2563.00, 
2564.00, 
2565.00, 
2566.00, 
2567.00, 
2568.00, 
2569.00, 
2570.00, 
2571.00, 
2572.00, 
2573.00, 
2574.00, 
2575.00, 
2576.00, 
2577.00, 
2578.00, 
2579.00, 
2580.00, 
2581.00, 
2582.00, 
2583.00, 
2584.00, 
2585.00, 
2586.00, 
2587.00, 
2588.00, 
2589.00, 
2590.00, 
2591.00, 
2592.00, 
2593.00, 
2594.00, 
2595.00, 
2596.00, 
2597.00, 
2598.00, 
2599.00, 
2600.00, 
