"2cP1 - RawData"
"Wavelength nm.","T%"
200.00,0.000
201.00,0.002
202.00,-0.001
203.00,0.000
204.00,0.000
205.00,0.001
206.00,0.001
207.00,0.001
208.00,-0.002
209.00,0.003
210.00,0.002
211.00,0.001
212.00,0.001
213.00,-0.001
214.00,-0.001
215.00,-0.000
216.00,0.001
217.00,-0.000
218.00,0.001
219.00,0.002
220.00,0.004
221.00,0.001
222.00,0.001
223.00,-0.001
224.00,0.002
225.00,0.001
226.00,0.001
227.00,0.001
228.00,-0.001
229.00,0.002
230.00,-0.001
231.00,-0.001
232.00,-0.000
233.00,0.003
234.00,-0.001
235.00,-0.001
236.00,0.000
237.00,-0.001
238.00,0.001
239.00,-0.000
240.00,-0.000
241.00,0.000
242.00,-0.001
243.00,0.001
244.00,0.002
245.00,-0.001
246.00,0.001
247.00,-0.000
248.00,0.002
249.00,0.002
250.00,0.002
251.00,0.001
252.00,0.000
253.00,-0.001
254.00,0.002
255.00,0.000
256.00,0.003
257.00,-0.001
258.00,0.000
259.00,-0.001
260.00,0.001
261.00,0.002
262.00,0.001
263.00,0.003
264.00,0.001
265.00,-0.001
266.00,-0.001
267.00,-0.001
268.00,0.001
269.00,-0.000
270.00,0.001
271.00,-0.001
272.00,0.001
273.00,-0.001
274.00,0.000
275.00,0.002
276.00,0.000
277.00,0.000
278.00,-0.000
279.00,0.000
280.00,-0.001
281.00,-0.000
282.00,-0.000
283.00,-0.001
284.00,0.001
285.00,-0.001
286.00,0.003
287.00,0.001
288.00,0.000
289.00,0.002
290.00,0.001
291.00,0.000
292.00,0.001
293.00,-0.000
294.00,-0.001
295.00,0.000
296.00,-0.000
297.00,-0.000
298.00,0.001
299.00,0.001
300.00,0.003
301.00,0.003
302.00,0.006
303.00,0.007
304.00,0.012
305.00,0.015
306.00,0.027
307.00,0.037
308.00,0.056
309.00,0.089
310.00,0.124
311.00,0.164
312.00,0.233
313.00,0.316
314.00,0.413
315.00,0.529
316.00,0.678
317.00,0.856
318.00,1.060
319.00,1.297
320.00,1.593
321.00,1.908
322.00,2.266
323.00,2.655
324.00,3.068
325.00,3.505
326.00,3.944
327.00,4.452
328.00,4.980
329.00,5.523
330.00,6.090
331.00,6.660
332.00,7.216
333.00,7.852
334.00,8.331
335.00,9.006
336.00,9.586
337.00,10.202
338.00,10.792
339.00,11.307
340.00,11.863
341.00,12.399
342.00,12.893
343.00,13.401
344.00,13.906
345.00,14.298
346.00,14.750
347.00,15.145
348.00,15.533
349.00,15.901
350.00,16.200
351.00,16.503
352.00,16.783
353.00,17.095
354.00,17.352
355.00,17.589
356.00,17.795
357.00,18.043
358.00,18.197
359.00,18.416
360.00,18.573
361.00,18.722
362.00,18.844
363.00,18.981
364.00,19.120
365.00,19.228
366.00,19.242
367.00,19.328
368.00,19.397
369.00,19.462
370.00,19.436
371.00,19.478
372.00,19.490
373.00,19.498
374.00,19.494
375.00,19.467
376.00,19.416
377.00,19.378
378.00,19.314
379.00,19.300
380.00,19.260
381.00,19.228
382.00,19.232
383.00,19.215
384.00,19.251
385.00,19.295
386.00,19.301
387.00,19.355
388.00,19.339
389.00,19.374
390.00,19.383
391.00,19.409
392.00,19.411
393.00,19.406
394.00,19.420
395.00,19.459
396.00,19.447
397.00,19.431
398.00,19.437
399.00,19.440
400.00,19.391
401.00,19.430
402.00,19.419
403.00,19.402
404.00,19.394
405.00,19.403
406.00,19.368
407.00,19.333
408.00,19.326
409.00,19.305
410.00,19.291
411.00,19.266
412.00,19.270
413.00,19.239
414.00,19.231
415.00,19.252
416.00,19.259
417.00,19.277
418.00,19.282
419.00,19.301
420.00,19.349
421.00,19.400
422.00,19.398
423.00,19.419
424.00,19.476
425.00,19.433
426.00,19.509
427.00,19.564
428.00,19.614
429.00,19.619
430.00,19.706
431.00,19.720
432.00,19.752
433.00,19.818
434.00,19.872
435.00,19.933
436.00,19.990
437.00,20.066
438.00,20.107
439.00,20.193
440.00,20.268
441.00,20.339
442.00,20.402
443.00,20.488
444.00,20.555
445.00,20.628
446.00,20.748
447.00,20.812
448.00,20.925
449.00,21.007
450.00,21.143
451.00,21.215
452.00,21.296
453.00,21.430
454.00,21.523
455.00,21.581
456.00,21.737
457.00,21.846
458.00,21.944
459.00,22.059
460.00,22.212
461.00,22.312
462.00,22.408
463.00,22.539
464.00,22.657
465.00,22.800
466.00,22.899
467.00,23.052
468.00,23.135
469.00,23.276
470.00,23.364
471.00,23.464
472.00,23.592
473.00,23.695
474.00,23.812
475.00,23.918
476.00,24.034
477.00,24.158
478.00,24.295
479.00,24.432
480.00,24.574
481.00,24.719
482.00,24.869
483.00,25.046
484.00,25.157
485.00,25.314
486.00,25.456
487.00,25.608
488.00,25.741
489.00,25.917
490.00,26.051
491.00,26.167
492.00,26.390
493.00,26.490
494.00,26.531
495.00,26.673
496.00,26.787
497.00,26.827
498.00,27.081
499.00,27.238
500.00,27.375
501.00,27.496
502.00,27.630
503.00,27.769
504.00,27.849
505.00,28.007
506.00,28.162
507.00,28.222
508.00,28.398
509.00,28.514
510.00,28.669
511.00,28.772
512.00,28.933
513.00,29.049
514.00,29.162
515.00,29.272
516.00,29.401
517.00,29.496
518.00,29.677
519.00,29.708
520.00,29.805
521.00,29.896
522.00,30.004
523.00,30.092
524.00,30.173
525.00,30.287
526.00,30.420
527.00,30.493
528.00,30.556
529.00,30.691
530.00,30.762
531.00,30.923
532.00,31.015
533.00,31.139
534.00,31.242
535.00,31.316
536.00,31.449
537.00,31.491
538.00,31.609
539.00,31.665
540.00,31.746
541.00,31.838
542.00,31.892
543.00,31.958
544.00,32.046
545.00,32.135
546.00,32.228
547.00,32.305
548.00,32.375
549.00,32.455
550.00,32.557
551.00,32.609
552.00,32.818
553.00,32.846
554.00,32.825
555.00,32.881
556.00,32.943
557.00,33.048
558.00,33.119
559.00,33.208
560.00,33.273
561.00,33.328
562.00,33.402
563.00,33.461
564.00,33.496
565.00,33.562
566.00,33.595
567.00,33.657
568.00,33.642
569.00,33.731
570.00,33.698
571.00,33.786
572.00,33.824
573.00,33.895
574.00,33.964
575.00,33.991
576.00,34.039
577.00,34.105
578.00,34.164
579.00,34.220
580.00,34.239
581.00,34.398
582.00,34.480
583.00,34.476
584.00,34.613
585.00,34.599
586.00,34.678
587.00,34.828
588.00,34.861
589.00,34.911
590.00,34.972
591.00,35.044
592.00,35.041
593.00,35.107
594.00,35.133
595.00,35.182
596.00,35.269
597.00,35.307
598.00,35.407
599.00,35.475
600.00,35.521
601.00,35.600
602.00,35.599
603.00,35.647
604.00,35.739
605.00,35.757
606.00,35.885
607.00,35.853
608.00,35.900
609.00,35.935
610.00,35.896
611.00,36.025
612.00,36.014
613.00,36.096
614.00,36.176
615.00,36.230
616.00,36.321
617.00,36.358
618.00,36.412
619.00,36.533
620.00,36.575
621.00,36.648
622.00,36.649
623.00,36.768
624.00,36.846
625.00,36.838
626.00,36.924
627.00,36.957
628.00,37.029
629.00,37.153
630.00,37.232
631.00,37.277
632.00,37.300
633.00,37.448
634.00,37.507
635.00,37.598
636.00,37.666
637.00,37.786
638.00,37.917
639.00,37.915
640.00,37.945
641.00,38.036
642.00,38.163
643.00,38.153
644.00,38.261
645.00,38.385
646.00,38.466
647.00,38.579
648.00,38.675
649.00,38.773
650.00,38.731
651.00,38.894
652.00,39.000
653.00,39.051
654.00,39.210
655.00,39.252
656.00,39.394
657.00,39.528
658.00,39.502
659.00,39.572
660.00,39.779
661.00,39.752
662.00,39.937
663.00,40.048
664.00,40.185
665.00,40.262
666.00,40.314
667.00,40.354
668.00,40.563
669.00,40.715
670.00,40.781
671.00,40.841
672.00,40.937
673.00,41.057
674.00,41.098
675.00,41.180
676.00,41.310
677.00,41.448
678.00,41.535
679.00,41.645
680.00,41.784
681.00,41.908
682.00,41.956
683.00,41.980
684.00,42.315
685.00,42.324
686.00,42.313
687.00,42.487
688.00,42.464
689.00,42.515
690.00,42.675
691.00,42.761
692.00,42.835
693.00,43.074
694.00,43.002
695.00,43.113
696.00,43.146
697.00,43.227
698.00,43.258
699.00,43.687
700.00,44.140
701.00,43.778
702.00,43.924
703.00,44.020
704.00,44.129
705.00,44.144
706.00,44.210
707.00,44.374
708.00,44.299
709.00,44.461
710.00,44.685
711.00,44.852
712.00,44.770
713.00,44.853
714.00,44.906
715.00,44.977
716.00,45.083
717.00,45.039
718.00,45.230
719.00,45.359
720.00,45.379
721.00,49.318
722.00,49.329
723.00,49.456
724.00,49.387
725.00,49.549
726.00,49.499
727.00,49.506
728.00,49.635
729.00,49.551
730.00,49.652
731.00,49.736
732.00,49.697
733.00,49.719
734.00,49.841
735.00,49.756
736.00,49.880
737.00,49.929
738.00,50.023
739.00,50.085
740.00,50.037
741.00,50.059
742.00,50.097
743.00,50.118
744.00,50.192
745.00,50.135
746.00,50.223
747.00,50.204
748.00,50.189
749.00,50.245
750.00,50.258
751.00,50.271
752.00,50.255
753.00,50.360
754.00,50.365
755.00,50.363
756.00,50.302
757.00,50.407
758.00,50.358
759.00,50.447
760.00,50.493
761.00,50.498
762.00,50.449
763.00,50.508
764.00,50.527
765.00,50.658
766.00,50.568
767.00,50.619
768.00,50.587
769.00,50.655
770.00,50.719
771.00,50.695
772.00,50.710
773.00,50.688
774.00,50.776
775.00,50.746
776.00,50.781
777.00,50.808
778.00,50.745
779.00,50.798
780.00,50.850
781.00,50.810
782.00,50.822
783.00,50.834
784.00,50.799
785.00,50.822
786.00,50.813
787.00,50.739
788.00,50.842
789.00,50.722
790.00,50.735
791.00,50.918
792.00,50.803
793.00,50.778
794.00,50.804
795.00,50.833
796.00,50.811
797.00,50.815
798.00,50.731
799.00,50.722
800.00,50.712
801.00,50.656
802.00,50.769
803.00,50.733
804.00,50.728
805.00,50.698
806.00,50.708
807.00,50.729
808.00,50.760
809.00,50.693
810.00,50.678
811.00,50.586
812.00,50.664
813.00,50.642
814.00,50.686
815.00,50.613
816.00,50.674
817.00,50.570
818.00,50.525
819.00,50.549
820.00,50.609
821.00,50.508
822.00,50.572
823.00,50.528
824.00,50.573
825.00,50.547
826.00,50.599
827.00,50.619
828.00,50.453
829.00,50.459
830.00,50.488
831.00,53.021
832.00,52.964
833.00,52.952
834.00,52.990
835.00,52.912
836.00,52.929
837.00,52.927
838.00,52.875
839.00,52.901
840.00,52.812
841.00,52.885
842.00,52.825
843.00,52.834
844.00,52.813
845.00,52.771
846.00,52.806
847.00,52.802
848.00,52.744
849.00,52.695
850.00,52.679
851.00,52.645
852.00,52.635
853.00,52.591
854.00,52.597
855.00,52.532
856.00,52.509
857.00,52.547
858.00,52.491
859.00,52.460
860.00,52.441
861.00,52.465
862.00,52.386
863.00,52.406
864.00,52.370
865.00,52.411
866.00,52.360
867.00,52.368
868.00,52.369
869.00,52.333
870.00,52.353
871.00,52.329
872.00,52.320
873.00,52.294
874.00,52.306
875.00,52.280
876.00,52.283
877.00,52.266
878.00,52.278
879.00,52.226
880.00,52.208
881.00,52.204
882.00,52.186
883.00,52.185
884.00,52.151
885.00,52.155
886.00,52.157
887.00,52.042
888.00,52.093
889.00,52.061
890.00,52.062
891.00,52.018
892.00,52.021
893.00,51.963
894.00,51.965
895.00,51.957
896.00,51.932
897.00,51.931
898.00,51.893
899.00,51.902
900.00,51.904
901.00,51.890
902.00,51.904
903.00,51.851
904.00,51.835
905.00,51.834
906.00,51.808
907.00,51.773
908.00,51.733
909.00,51.753
910.00,51.688
911.00,51.686
912.00,51.721
913.00,51.657
914.00,51.647
915.00,51.618
916.00,51.598
917.00,51.583
918.00,51.576
919.00,51.540
920.00,51.514
921.00,51.503
922.00,51.510
923.00,51.475
924.00,51.438
925.00,51.444
926.00,51.410
927.00,51.395
928.00,51.384
929.00,51.387
930.00,51.335
931.00,51.353
932.00,51.300
933.00,51.319
934.00,51.302
935.00,51.256
936.00,51.240
937.00,51.238
938.00,51.217
939.00,51.210
940.00,51.187
941.00,51.168
942.00,51.140
943.00,51.136
944.00,51.106
945.00,51.090
946.00,51.094
947.00,51.060
948.00,51.040
949.00,51.003
950.00,50.995
951.00,50.972
952.00,50.938
953.00,50.926
954.00,50.899
955.00,50.873
956.00,50.859
957.00,50.822
958.00,50.837
959.00,50.788
960.00,50.776
961.00,50.744
962.00,50.783
963.00,50.720
964.00,50.720
965.00,50.697
966.00,50.689
967.00,50.690
968.00,50.664
969.00,50.696
970.00,50.667
971.00,50.676
972.00,50.663
973.00,50.680
974.00,50.701
975.00,50.667
976.00,50.696
977.00,50.667
978.00,50.705
979.00,50.663
980.00,50.675
981.00,50.695
982.00,50.625
983.00,50.667
984.00,50.646
985.00,50.655
986.00,50.623
987.00,50.634
988.00,50.635
989.00,50.589
990.00,50.594
991.00,50.579
992.00,50.601
993.00,50.566
994.00,50.546
995.00,50.555
996.00,50.535
997.00,50.527
998.00,50.498
999.00,50.513
1000.00,50.452
1001.00,50.478
1002.00,50.460
1003.00,50.438
1004.00,50.455
1005.00,50.402
1006.00,50.429
1007.00,50.392
1008.00,50.381
1009.00,50.376
1010.00,50.353
1011.00,50.340
1012.00,50.307
1013.00,50.320
1014.00,50.279
1015.00,50.283
1016.00,50.254
1017.00,50.259
1018.00,50.237
1019.00,50.212
1020.00,50.207
1021.00,50.186
1022.00,50.180
1023.00,50.133
1024.00,50.140
1025.00,50.136
1026.00,50.111
1027.00,50.090
1028.00,50.089
1029.00,50.080
1030.00,50.042
1031.00,50.056
1032.00,50.014
1033.00,50.021
1034.00,50.003
1035.00,49.959
1036.00,49.957
1037.00,49.915
1038.00,49.914
1039.00,49.881
1040.00,49.868
1041.00,49.838
1042.00,49.827
1043.00,49.789
1044.00,49.823
1045.00,49.810
1046.00,49.797
1047.00,49.810
1048.00,49.812
1049.00,49.835
1050.00,49.841
1051.00,49.852
1052.00,49.864
1053.00,49.869
1054.00,49.860
1055.00,49.871
1056.00,49.893
1057.00,49.893
1058.00,49.897
1059.00,49.873
1060.00,49.880
1061.00,49.880
1062.00,49.858
1063.00,49.871
1064.00,49.880
1065.00,49.883
1066.00,49.850
1067.00,49.829
1068.00,49.853
1069.00,49.825
1070.00,49.793
1071.00,49.791
1072.00,49.812
1073.00,49.776
1074.00,49.776
1075.00,49.770
1076.00,49.752
1077.00,49.739
1078.00,49.733
1079.00,49.721
1080.00,49.725
1081.00,49.696
1082.00,49.702
1083.00,49.702
1084.00,49.687
1085.00,49.681
1086.00,49.665
1087.00,49.660
1088.00,49.632
1089.00,49.626
1090.00,49.625
1091.00,49.623
1092.00,49.613
1093.00,49.596
1094.00,49.591
1095.00,49.574
1096.00,49.560
1097.00,49.543
1098.00,49.547
1099.00,49.542
1100.00,49.534
1101.00,49.516
1102.00,49.508
1103.00,49.494
1104.00,49.483
1105.00,49.485
1106.00,49.465
1107.00,49.460
1108.00,49.459
1109.00,49.447
1110.00,49.447
1111.00,49.438
1112.00,49.433
1113.00,49.417
1114.00,49.406
1115.00,49.410
1116.00,49.403
1117.00,49.372
1118.00,49.364
1119.00,49.365
1120.00,49.362
1121.00,49.347
1122.00,49.338
1123.00,49.335
1124.00,49.336
1125.00,49.312
1126.00,49.313
1127.00,49.316
1128.00,49.298
1129.00,49.280
1130.00,49.266
1131.00,49.270
1132.00,49.251
1133.00,49.257
1134.00,49.252
1135.00,49.243
1136.00,49.233
1137.00,49.218
1138.00,49.235
1139.00,49.226
1140.00,49.222
1141.00,49.228
1142.00,49.200
1143.00,49.214
1144.00,49.191
1145.00,49.206
1146.00,49.205
1147.00,49.184
1148.00,49.182
1149.00,49.197
1150.00,49.177
1151.00,49.182
1152.00,49.164
1153.00,49.157
1154.00,49.142
1155.00,49.156
1156.00,49.142
1157.00,49.159
1158.00,49.144
1159.00,49.137
1160.00,49.129
1161.00,49.135
1162.00,49.128
1163.00,49.121
1164.00,49.122
1165.00,49.108
1166.00,49.112
1167.00,49.118
1168.00,49.125
1169.00,49.111
1170.00,49.121
1171.00,49.109
1172.00,49.108
1173.00,49.097
1174.00,49.100
1175.00,49.092
1176.00,49.095
1177.00,49.087
1178.00,49.092
1179.00,49.103
1180.00,49.068
1181.00,49.102
1182.00,49.095
1183.00,49.083
1184.00,49.064
1185.00,49.087
1186.00,49.071
1187.00,49.075
1188.00,49.059
1189.00,49.059
1190.00,49.066
1191.00,49.050
1192.00,49.067
1193.00,49.063
1194.00,49.061
1195.00,49.030
1196.00,49.049
1197.00,49.051
1198.00,49.045
1199.00,49.043
1200.00,49.044
1201.00,49.064
1202.00,49.036
1203.00,49.036
1204.00,49.029
1205.00,49.038
1206.00,49.030
1207.00,49.029
1208.00,49.023
1209.00,49.026
1210.00,49.033
1211.00,49.025
1212.00,49.040
1213.00,48.993
1214.00,49.028
1215.00,49.025
1216.00,49.017
1217.00,49.030
1218.00,49.023
1219.00,49.028
1220.00,49.020
1221.00,49.028
1222.00,49.006
1223.00,49.022
1224.00,49.016
1225.00,49.010
1226.00,49.018
1227.00,48.990
1228.00,49.008
1229.00,49.009
1230.00,49.051
1231.00,49.037
1232.00,49.079
1233.00,49.054
1234.00,49.072
1235.00,49.061
1236.00,49.063
1237.00,49.057
1238.00,49.060
1239.00,49.072
1240.00,49.054
1241.00,49.058
1242.00,49.054
1243.00,49.077
1244.00,49.052
1245.00,49.070
1246.00,49.072
1247.00,49.079
1248.00,49.098
1249.00,49.075
1250.00,49.086
1251.00,49.080
1252.00,49.088
1253.00,49.070
1254.00,49.101
1255.00,49.101
1256.00,49.088
1257.00,49.064
1258.00,49.110
1259.00,49.102
1260.00,49.110
1261.00,49.119
1262.00,49.101
1263.00,49.098
1264.00,49.118
1265.00,49.120
1266.00,49.114
1267.00,49.131
1268.00,49.144
1269.00,49.134
1270.00,49.148
1271.00,49.141
1272.00,49.153
1273.00,49.153
1274.00,49.156
1275.00,49.142
1276.00,49.148
1277.00,49.144
1278.00,49.167
1279.00,49.157
1280.00,49.160
1281.00,49.189
1282.00,49.181
1283.00,49.171
1284.00,49.173
1285.00,49.153
1286.00,49.173
1287.00,49.180
1288.00,49.198
1289.00,49.187
1290.00,49.195
1291.00,49.202
1292.00,49.215
1293.00,49.193
1294.00,49.212
1295.00,49.217
1296.00,49.218
1297.00,49.229
1298.00,49.260
1299.00,49.235
1300.00,49.258
1301.00,49.246
1302.00,49.252
1303.00,49.285
1304.00,49.260
1305.00,49.277
1306.00,49.266
1307.00,49.290
1308.00,49.279
1309.00,49.282
1310.00,49.278
1311.00,49.288
1312.00,49.270
1313.00,49.282
1314.00,49.301
1315.00,49.302
1316.00,49.300
1317.00,49.317
1318.00,49.292
1319.00,49.319
1320.00,49.354
1321.00,49.493
1322.00,49.534
1323.00,49.511
1324.00,49.500
1325.00,49.484
1326.00,49.513
1327.00,49.503
1328.00,49.499
1329.00,49.491
1330.00,49.520
1331.00,49.506
1332.00,49.468
1333.00,49.585
1334.00,49.528
1335.00,49.538
1336.00,49.573
1337.00,49.608
1338.00,49.678
1339.00,49.721
1340.00,49.759
1341.00,49.825
1342.00,49.902
1343.00,49.948
1344.00,49.991
1345.00,50.038
1346.00,50.080
1347.00,50.112
1348.00,50.119
1349.00,50.154
1350.00,50.175
1351.00,50.165
1352.00,50.171
1353.00,50.214
1354.00,50.198
1355.00,50.162
1356.00,50.201
1357.00,50.199
1358.00,50.214
1359.00,50.216
1360.00,50.306
1361.00,50.250
1362.00,50.131
1363.00,50.258
1364.00,50.202
1365.00,50.181
1366.00,50.264
1367.00,50.211
1368.00,50.158
1369.00,50.191
1370.00,50.179
1371.00,50.155
1372.00,50.180
1373.00,50.178
1374.00,50.210
1375.00,50.174
1376.00,50.167
1377.00,50.173
1378.00,50.190
1379.00,50.187
1380.00,50.197
1381.00,50.195
1382.00,50.121
1383.00,50.141
1384.00,50.105
1385.00,50.108
1386.00,50.185
1387.00,50.107
1388.00,50.099
1389.00,50.134
1390.00,50.181
1391.00,50.129
1392.00,50.117
1393.00,50.133
1394.00,50.152
1395.00,50.092
1396.00,50.093
1397.00,50.150
1398.00,50.132
1399.00,50.171
1400.00,50.128
1401.00,50.121
1402.00,50.155
1403.00,50.183
1404.00,50.134
1405.00,50.189
1406.00,50.163
1407.00,50.197
1408.00,50.203
1409.00,50.154
1410.00,50.219
1411.00,50.199
1412.00,50.245
1413.00,50.242
1414.00,50.199
1415.00,50.256
1416.00,50.296
1417.00,50.273
1418.00,50.253
1419.00,50.256
1420.00,50.271
1421.00,50.320
1422.00,50.319
1423.00,50.311
1424.00,50.340
1425.00,50.330
1426.00,50.360
1427.00,50.387
1428.00,50.379
1429.00,50.396
1430.00,50.403
1431.00,50.405
1432.00,50.427
1433.00,50.458
1434.00,50.442
1435.00,50.492
1436.00,50.498
1437.00,50.514
1438.00,50.555
1439.00,50.534
1440.00,50.559
1441.00,50.553
1442.00,50.550
1443.00,50.617
1444.00,50.606
1445.00,50.604
1446.00,50.624
1447.00,50.653
1448.00,50.683
1449.00,50.693
1450.00,50.667
1451.00,50.690
1452.00,50.697
1453.00,50.719
1454.00,50.759
1455.00,50.763
1456.00,50.761
1457.00,50.772
1458.00,50.782
1459.00,50.824
1460.00,50.841
1461.00,50.828
1462.00,50.856
1463.00,50.877
1464.00,50.877
1465.00,50.902
1466.00,50.890
1467.00,50.905
1468.00,50.953
1469.00,50.950
1470.00,50.949
1471.00,50.975
1472.00,50.973
1473.00,50.994
1474.00,51.025
1475.00,51.015
1476.00,51.060
1477.00,51.040
1478.00,51.050
1479.00,51.084
1480.00,51.083
1481.00,51.085
1482.00,51.108
1483.00,51.121
1484.00,51.159
1485.00,51.153
1486.00,51.148
1487.00,51.182
1488.00,51.173
1489.00,51.185
1490.00,51.208
1491.00,51.202
1492.00,51.222
1493.00,51.234
1494.00,51.264
1495.00,51.253
1496.00,51.263
1497.00,51.260
1498.00,51.259
1499.00,51.281
1500.00,51.308
1501.00, 
1502.00, 
1503.00, 
1504.00, 
1505.00, 
1506.00, 
1507.00, 
1508.00, 
1509.00, 
1510.00, 
1511.00, 
1512.00, 
1513.00, 
1514.00, 
1515.00, 
1516.00, 
1517.00, 
1518.00, 
1519.00, 
1520.00, 
1521.00, 
1522.00, 
1523.00, 
1524.00, 
1525.00, 
1526.00, 
1527.00, 
1528.00, 
1529.00, 
1530.00, 
1531.00, 
1532.00, 
1533.00, 
1534.00, 
1535.00, 
1536.00, 
1537.00, 
1538.00, 
1539.00, 
1540.00, 
1541.00, 
1542.00, 
1543.00, 
1544.00, 
1545.00, 
1546.00, 
1547.00, 
1548.00, 
1549.00, 
1550.00, 
1551.00, 
1552.00, 
1553.00, 
1554.00, 
1555.00, 
1556.00, 
1557.00, 
1558.00, 
1559.00, 
1560.00, 
1561.00, 
1562.00, 
1563.00, 
1564.00, 
1565.00, 
1566.00, 
1567.00, 
1568.00, 
1569.00, 
1570.00, 
1571.00, 
1572.00, 
1573.00, 
1574.00, 
1575.00, 
1576.00, 
1577.00, 
1578.00, 
1579.00, 
1580.00, 
1581.00, 
1582.00, 
1583.00, 
1584.00, 
1585.00, 
1586.00, 
1587.00, 
1588.00, 
1589.00, 
1590.00, 
1591.00, 
1592.00, 
1593.00, 
1594.00, 
1595.00, 
1596.00, 
1597.00, 
1598.00, 
1599.00, 
1600.00, 
1601.00, 
1602.00, 
1603.00, 
1604.00, 
1605.00, 
1606.00, 
1607.00, 
1608.00, 
1609.00, 
1610.00, 
1611.00, 
1612.00, 
1613.00, 
1614.00, 
1615.00, 
1616.00, 
1617.00, 
1618.00, 
1619.00, 
1620.00, 
1621.00, 
1622.00, 
1623.00, 
1624.00, 
1625.00, 
1626.00, 
1627.00, 
1628.00, 
1629.00, 
1630.00, 
1631.00, 
1632.00, 
1633.00, 
1634.00, 
1635.00, 
1636.00, 
1637.00, 
1638.00, 
1639.00, 
1640.00, 
1641.00, 
1642.00, 
1643.00, 
1644.00, 
1645.00, 
1646.00, 
1647.00, 
1648.00, 
1649.00, 
1650.00, 
1651.00, 
1652.00, 
1653.00, 
1654.00, 
1655.00, 
1656.00, 
1657.00, 
1658.00, 
1659.00, 
1660.00, 
1661.00, 
1662.00, 
1663.00, 
1664.00, 
1665.00, 
1666.00, 
1667.00, 
1668.00, 
1669.00, 
1670.00, 
1671.00, 
1672.00, 
1673.00, 
1674.00, 
1675.00, 
1676.00, 
1677.00, 
1678.00, 
1679.00, 
1680.00, 
1681.00, 
1682.00, 
1683.00, 
1684.00, 
1685.00, 
1686.00, 
1687.00, 
1688.00, 
1689.00, 
1690.00, 
1691.00, 
1692.00, 
1693.00, 
1694.00, 
1695.00, 
1696.00, 
1697.00, 
1698.00, 
1699.00, 
1700.00, 
1701.00, 
1702.00, 
1703.00, 
1704.00, 
1705.00, 
1706.00, 
1707.00, 
1708.00, 
1709.00, 
1710.00, 
1711.00, 
1712.00, 
1713.00, 
1714.00, 
1715.00, 
1716.00, 
1717.00, 
1718.00, 
1719.00, 
1720.00, 
1721.00, 
1722.00, 
1723.00, 
1724.00, 
1725.00, 
1726.00, 
1727.00, 
1728.00, 
1729.00, 
1730.00, 
1731.00, 
1732.00, 
1733.00, 
1734.00, 
1735.00, 
1736.00, 
1737.00, 
1738.00, 
1739.00, 
1740.00, 
1741.00, 
1742.00, 
1743.00, 
1744.00, 
1745.00, 
1746.00, 
1747.00, 
1748.00, 
1749.00, 
1750.00, 
1751.00, 
1752.00, 
1753.00, 
1754.00, 
1755.00, 
1756.00, 
1757.00, 
1758.00, 
1759.00, 
1760.00, 
1761.00, 
1762.00, 
1763.00, 
1764.00, 
1765.00, 
1766.00, 
1767.00, 
1768.00, 
1769.00, 
1770.00, 
1771.00, 
1772.00, 
1773.00, 
1774.00, 
1775.00, 
1776.00, 
1777.00, 
1778.00, 
1779.00, 
1780.00, 
1781.00, 
1782.00, 
1783.00, 
1784.00, 
1785.00, 
1786.00, 
1787.00, 
1788.00, 
1789.00, 
1790.00, 
1791.00, 
1792.00, 
1793.00, 
1794.00, 
1795.00, 
1796.00, 
1797.00, 
1798.00, 
1799.00, 
1800.00, 
1801.00, 
1802.00, 
1803.00, 
1804.00, 
1805.00, 
1806.00, 
1807.00, 
1808.00, 
1809.00, 
1810.00, 
1811.00, 
1812.00, 
1813.00, 
1814.00, 
1815.00, 
1816.00, 
1817.00, 
1818.00, 
1819.00, 
1820.00, 
1821.00, 
1822.00, 
1823.00, 
1824.00, 
1825.00, 
1826.00, 
1827.00, 
1828.00, 
1829.00, 
1830.00, 
1831.00, 
1832.00, 
1833.00, 
1834.00, 
1835.00, 
1836.00, 
1837.00, 
1838.00, 
1839.00, 
1840.00, 
1841.00, 
1842.00, 
1843.00, 
1844.00, 
1845.00, 
1846.00, 
1847.00, 
1848.00, 
1849.00, 
1850.00, 
1851.00, 
1852.00, 
1853.00, 
1854.00, 
1855.00, 
1856.00, 
1857.00, 
1858.00, 
1859.00, 
1860.00, 
1861.00, 
1862.00, 
1863.00, 
1864.00, 
1865.00, 
1866.00, 
1867.00, 
1868.00, 
1869.00, 
1870.00, 
1871.00, 
1872.00, 
1873.00, 
1874.00, 
1875.00, 
1876.00, 
1877.00, 
1878.00, 
1879.00, 
1880.00, 
1881.00, 
1882.00, 
1883.00, 
1884.00, 
1885.00, 
1886.00, 
1887.00, 
1888.00, 
1889.00, 
1890.00, 
1891.00, 
1892.00, 
1893.00, 
1894.00, 
1895.00, 
1896.00, 
1897.00, 
1898.00, 
1899.00, 
1900.00, 
1901.00, 
1902.00, 
1903.00, 
1904.00, 
1905.00, 
1906.00, 
1907.00, 
1908.00, 
1909.00, 
1910.00, 
1911.00, 
1912.00, 
1913.00, 
1914.00, 
1915.00, 
1916.00, 
1917.00, 
1918.00, 
1919.00, 
1920.00, 
1921.00, 
1922.00, 
1923.00, 
1924.00, 
1925.00, 
1926.00, 
1927.00, 
1928.00, 
1929.00, 
1930.00, 
1931.00, 
1932.00, 
1933.00, 
1934.00, 
1935.00, 
1936.00, 
1937.00, 
1938.00, 
1939.00, 
1940.00, 
1941.00, 
1942.00, 
1943.00, 
1944.00, 
1945.00, 
1946.00, 
1947.00, 
1948.00, 
1949.00, 
1950.00, 
1951.00, 
1952.00, 
1953.00, 
1954.00, 
1955.00, 
1956.00, 
1957.00, 
1958.00, 
1959.00, 
1960.00, 
1961.00, 
1962.00, 
1963.00, 
1964.00, 
1965.00, 
1966.00, 
1967.00, 
1968.00, 
1969.00, 
1970.00, 
1971.00, 
1972.00, 
1973.00, 
1974.00, 
1975.00, 
1976.00, 
1977.00, 
1978.00, 
1979.00, 
1980.00, 
1981.00, 
1982.00, 
1983.00, 
1984.00, 
1985.00, 
1986.00, 
1987.00, 
1988.00, 
1989.00, 
1990.00, 
1991.00, 
1992.00, 
1993.00, 
1994.00, 
1995.00, 
1996.00, 
1997.00, 
1998.00, 
1999.00, 
2000.00, 
2001.00, 
2002.00, 
2003.00, 
2004.00, 
2005.00, 
2006.00, 
2007.00, 
2008.00, 
2009.00, 
2010.00, 
2011.00, 
2012.00, 
2013.00, 
2014.00, 
2015.00, 
2016.00, 
2017.00, 
2018.00, 
2019.00, 
2020.00, 
2021.00, 
2022.00, 
2023.00, 
2024.00, 
2025.00, 
2026.00, 
2027.00, 
2028.00, 
2029.00, 
2030.00, 
2031.00, 
2032.00, 
2033.00, 
2034.00, 
2035.00, 
2036.00, 
2037.00, 
2038.00, 
2039.00, 
2040.00, 
2041.00, 
2042.00, 
2043.00, 
2044.00, 
2045.00, 
2046.00, 
2047.00, 
2048.00, 
2049.00, 
2050.00, 
2051.00, 
2052.00, 
2053.00, 
2054.00, 
2055.00, 
2056.00, 
2057.00, 
2058.00, 
2059.00, 
2060.00, 
2061.00, 
2062.00, 
2063.00, 
2064.00, 
2065.00, 
2066.00, 
2067.00, 
2068.00, 
2069.00, 
2070.00, 
2071.00, 
2072.00, 
2073.00, 
2074.00, 
2075.00, 
2076.00, 
2077.00, 
2078.00, 
2079.00, 
2080.00, 
2081.00, 
2082.00, 
2083.00, 
2084.00, 
2085.00, 
2086.00, 
2087.00, 
2088.00, 
2089.00, 
2090.00, 
2091.00, 
2092.00, 
2093.00, 
2094.00, 
2095.00, 
2096.00, 
2097.00, 
2098.00, 
2099.00, 
2100.00, 
2101.00, 
2102.00, 
2103.00, 
2104.00, 
2105.00, 
2106.00, 
2107.00, 
2108.00, 
2109.00, 
2110.00, 
2111.00, 
2112.00, 
2113.00, 
2114.00, 
2115.00, 
2116.00, 
2117.00, 
2118.00, 
2119.00, 
2120.00, 
2121.00, 
2122.00, 
2123.00, 
2124.00, 
2125.00, 
2126.00, 
2127.00, 
2128.00, 
2129.00, 
2130.00, 
2131.00, 
2132.00, 
2133.00, 
2134.00, 
2135.00, 
2136.00, 
2137.00, 
2138.00, 
2139.00, 
2140.00, 
2141.00, 
2142.00, 
2143.00, 
2144.00, 
2145.00, 
2146.00, 
2147.00, 
2148.00, 
2149.00, 
2150.00, 
2151.00, 
2152.00, 
2153.00, 
2154.00, 
2155.00, 
2156.00, 
2157.00, 
2158.00, 
2159.00, 
2160.00, 
2161.00, 
2162.00, 
2163.00, 
2164.00, 
2165.00, 
2166.00, 
2167.00, 
2168.00, 
2169.00, 
2170.00, 
2171.00, 
2172.00, 
2173.00, 
2174.00, 
2175.00, 
2176.00, 
2177.00, 
2178.00, 
2179.00, 
2180.00, 
2181.00, 
2182.00, 
2183.00, 
2184.00, 
2185.00, 
2186.00, 
2187.00, 
2188.00, 
2189.00, 
2190.00, 
2191.00, 
2192.00, 
2193.00, 
2194.00, 
2195.00, 
2196.00, 
2197.00, 
2198.00, 
2199.00, 
2200.00, 
2201.00, 
2202.00, 
2203.00, 
2204.00, 
2205.00, 
2206.00, 
2207.00, 
2208.00, 
2209.00, 
2210.00, 
2211.00, 
2212.00, 
2213.00, 
2214.00, 
2215.00, 
2216.00, 
2217.00, 
2218.00, 
2219.00, 
2220.00, 
2221.00, 
2222.00, 
2223.00, 
2224.00, 
2225.00, 
2226.00, 
2227.00, 
2228.00, 
2229.00, 
2230.00, 
2231.00, 
2232.00, 
2233.00, 
2234.00, 
2235.00, 
2236.00, 
2237.00, 
2238.00, 
2239.00, 
2240.00, 
2241.00, 
2242.00, 
2243.00, 
2244.00, 
2245.00, 
2246.00, 
2247.00, 
2248.00, 
2249.00, 
2250.00, 
2251.00, 
2252.00, 
2253.00, 
2254.00, 
2255.00, 
2256.00, 
2257.00, 
2258.00, 
2259.00, 
2260.00, 
2261.00, 
2262.00, 
2263.00, 
2264.00, 
2265.00, 
2266.00, 
2267.00, 
2268.00, 
2269.00, 
2270.00, 
2271.00, 
2272.00, 
2273.00, 
2274.00, 
2275.00, 
2276.00, 
2277.00, 
2278.00, 
2279.00, 
2280.00, 
2281.00, 
2282.00, 
2283.00, 
2284.00, 
2285.00, 
2286.00, 
2287.00, 
2288.00, 
2289.00, 
2290.00, 
2291.00, 
2292.00, 
2293.00, 
2294.00, 
2295.00, 
2296.00, 
2297.00, 
2298.00, 
2299.00, 
2300.00, 
2301.00, 
2302.00, 
2303.00, 
2304.00, 
2305.00, 
2306.00, 
2307.00, 
2308.00, 
2309.00, 
2310.00, 
2311.00, 
2312.00, 
2313.00, 
2314.00, 
2315.00, 
2316.00, 
2317.00, 
2318.00, 
2319.00, 
2320.00, 
2321.00, 
2322.00, 
2323.00, 
2324.00, 
2325.00, 
2326.00, 
2327.00, 
2328.00, 
2329.00, 
2330.00, 
2331.00, 
2332.00, 
2333.00, 
2334.00, 
2335.00, 
2336.00, 
2337.00, 
2338.00, 
2339.00, 
2340.00, 
2341.00, 
2342.00, 
2343.00, 
2344.00, 
2345.00, 
2346.00, 
2347.00, 
2348.00, 
2349.00, 
2350.00, 
2351.00, 
2352.00, 
2353.00, 
2354.00, 
2355.00, 
2356.00, 
2357.00, 
2358.00, 
2359.00, 
2360.00, 
2361.00, 
2362.00, 
2363.00, 
2364.00, 
2365.00, 
2366.00, 
2367.00, 
2368.00, 
2369.00, 
2370.00, 
2371.00, 
2372.00, 
2373.00, 
2374.00, 
2375.00, 
2376.00, 
2377.00, 
2378.00, 
2379.00, 
2380.00, 
2381.00, 
2382.00, 
2383.00, 
2384.00, 
2385.00, 
2386.00, 
2387.00, 
2388.00, 
2389.00, 
2390.00, 
2391.00, 
2392.00, 
2393.00, 
2394.00, 
2395.00, 
2396.00, 
2397.00, 
2398.00, 
2399.00, 
2400.00, 
2401.00, 
2402.00, 
2403.00, 
2404.00, 
2405.00, 
2406.00, 
2407.00, 
2408.00, 
2409.00, 
2410.00, 
2411.00, 
2412.00, 
2413.00, 
2414.00, 
2415.00, 
2416.00, 
2417.00, 
2418.00, 
2419.00, 
2420.00, 
2421.00, 
2422.00, 
2423.00, 
2424.00, 
2425.00, 
2426.00, 
2427.00, 
2428.00, 
2429.00, 
2430.00, 
2431.00, 
2432.00, 
2433.00, 
2434.00, 
2435.00, 
2436.00, 
2437.00, 
2438.00, 
2439.00, 
2440.00, 
2441.00, 
2442.00, 
2443.00, 
2444.00, 
2445.00, 
2446.00, 
2447.00, 
2448.00, 
2449.00, 
2450.00, 
2451.00, 
2452.00, 
2453.00, 
2454.00, 
2455.00, 
2456.00, 
2457.00, 
2458.00, 
2459.00, 
2460.00, 
2461.00, 
2462.00, 
2463.00, 
2464.00, 
2465.00, 
2466.00, 
2467.00, 
2468.00, 
2469.00, 
2470.00, 
2471.00, 
2472.00, 
2473.00, 
2474.00, 
2475.00, 
2476.00, 
2477.00, 
2478.00, 
2479.00, 
2480.00, 
2481.00, 
2482.00, 
2483.00, 
2484.00, 
2485.00, 
2486.00, 
2487.00, 
2488.00, 
2489.00, 
2490.00, 
2491.00, 
2492.00, 
2493.00, 
2494.00, 
2495.00, 
2496.00, 
2497.00, 
2498.00, 
2499.00, 
2500.00, 
2501.00, 
2502.00, 
2503.00, 
2504.00, 
2505.00, 
2506.00, 
2507.00, 
2508.00, 
2509.00, 
2510.00, 
2511.00, 
2512.00, 
2513.00, 
2514.00, 
2515.00, 
2516.00, 
2517.00, 
2518.00, 
2519.00, 
2520.00, 
2521.00, 
2522.00, 
2523.00, 
2524.00, 
2525.00, 
2526.00, 
2527.00, 
2528.00, 
2529.00, 
2530.00, 
2531.00, 
2532.00, 
2533.00, 
2534.00, 
2535.00, 
2536.00, 
2537.00, 
2538.00, 
2539.00, 
2540.00, 
2541.00, 
2542.00, 
2543.00, 
2544.00, 
2545.00, 
2546.00, 
2547.00, 
2548.00, 
2549.00, 
2550.00, 
2551.00, 
2552.00, 
2553.00, 
2554.00, 
2555.00, 
2556.00, 
2557.00, 
2558.00, 
2559.00, 
2560.00, 
2561.00, 
2562.00, 
2563.00, 
2564.00, 
2565.00, 
2566.00, 
2567.00, 
2568.00, 
2569.00, 
2570.00, 
2571.00, 
2572.00, 
2573.00, 
2574.00, 
2575.00, 
2576.00, 
2577.00, 
2578.00, 
2579.00, 
2580.00, 
2581.00, 
2582.00, 
2583.00, 
2584.00, 
2585.00, 
2586.00, 
2587.00, 
2588.00, 
2589.00, 
2590.00, 
2591.00, 
2592.00, 
2593.00, 
2594.00, 
2595.00, 
2596.00, 
2597.00, 
2598.00, 
2599.00, 
2600.00, 
