"2cP3 - RawData"
"Wavelength nm.","T%"
200.00,0.003
201.00,0.003
202.00,0.002
203.00,-0.004
204.00,0.002
205.00,0.002
206.00,0.001
207.00,-0.001
208.00,0.003
209.00,0.002
210.00,0.003
211.00,0.002
212.00,0.001
213.00,-0.000
214.00,0.000
215.00,-0.000
216.00,0.004
217.00,0.003
218.00,0.005
219.00,0.002
220.00,-0.003
221.00,0.002
222.00,0.001
223.00,-0.001
224.00,0.001
225.00,-0.002
226.00,0.002
227.00,0.002
228.00,0.002
229.00,0.002
230.00,0.001
231.00,0.003
232.00,0.000
233.00,0.000
234.00,-0.002
235.00,0.001
236.00,-0.001
237.00,-0.001
238.00,0.000
239.00,-0.000
240.00,0.001
241.00,0.000
242.00,0.001
243.00,0.000
244.00,-0.001
245.00,-0.000
246.00,-0.001
247.00,-0.000
248.00,0.002
249.00,0.000
250.00,0.001
251.00,0.001
252.00,0.002
253.00,0.001
254.00,0.001
255.00,0.002
256.00,0.001
257.00,0.001
258.00,0.001
259.00,-0.001
260.00,0.000
261.00,0.000
262.00,0.000
263.00,-0.001
264.00,0.000
265.00,-0.001
266.00,0.000
267.00,0.000
268.00,0.001
269.00,0.001
270.00,0.001
271.00,0.001
272.00,-0.000
273.00,0.001
274.00,-0.000
275.00,-0.000
276.00,0.001
277.00,-0.001
278.00,0.001
279.00,0.001
280.00,-0.001
281.00,-0.001
282.00,0.001
283.00,0.003
284.00,-0.001
285.00,0.001
286.00,0.001
287.00,0.000
288.00,0.001
289.00,-0.002
290.00,0.001
291.00,0.001
292.00,-0.000
293.00,-0.000
294.00,-0.000
295.00,-0.000
296.00,0.001
297.00,0.002
298.00,0.002
299.00,0.002
300.00,0.003
301.00,0.002
302.00,0.008
303.00,0.007
304.00,0.011
305.00,0.020
306.00,0.029
307.00,0.042
308.00,0.065
309.00,0.099
310.00,0.140
311.00,0.191
312.00,0.261
313.00,0.355
314.00,0.465
315.00,0.606
316.00,0.774
317.00,0.967
318.00,1.194
319.00,1.471
320.00,1.801
321.00,2.160
322.00,2.569
323.00,3.000
324.00,3.423
325.00,3.961
326.00,4.472
327.00,5.029
328.00,5.643
329.00,6.250
330.00,6.893
331.00,7.543
332.00,8.179
333.00,8.872
334.00,9.499
335.00,10.243
336.00,10.797
337.00,11.594
338.00,12.271
339.00,12.897
340.00,13.504
341.00,14.121
342.00,14.700
343.00,15.289
344.00,15.823
345.00,16.323
346.00,16.802
347.00,17.258
348.00,17.719
349.00,18.128
350.00,18.522
351.00,18.884
352.00,19.192
353.00,19.546
354.00,19.841
355.00,20.147
356.00,20.429
357.00,20.698
358.00,20.912
359.00,21.160
360.00,21.323
361.00,21.453
362.00,21.648
363.00,21.797
364.00,22.021
365.00,22.123
366.00,22.193
367.00,22.281
368.00,22.370
369.00,22.449
370.00,22.478
371.00,22.533
372.00,22.545
373.00,22.571
374.00,22.552
375.00,22.531
376.00,22.532
377.00,22.493
378.00,22.437
379.00,22.405
380.00,22.374
381.00,22.349
382.00,22.350
383.00,22.360
384.00,22.388
385.00,22.475
386.00,22.477
387.00,22.536
388.00,22.542
389.00,22.597
390.00,22.633
391.00,22.660
392.00,22.665
393.00,22.662
394.00,22.719
395.00,22.718
396.00,22.743
397.00,22.761
398.00,22.718
399.00,22.735
400.00,22.650
401.00,22.793
402.00,22.765
403.00,22.751
404.00,22.743
405.00,22.732
406.00,22.705
407.00,22.685
408.00,22.687
409.00,22.630
410.00,22.629
411.00,22.608
412.00,22.592
413.00,22.586
414.00,22.556
415.00,22.577
416.00,22.621
417.00,22.645
418.00,22.650
419.00,22.697
420.00,22.703
421.00,22.771
422.00,22.753
423.00,22.797
424.00,22.848
425.00,22.858
426.00,22.888
427.00,22.950
428.00,22.971
429.00,22.980
430.00,23.060
431.00,23.084
432.00,23.094
433.00,23.150
434.00,23.204
435.00,23.300
436.00,23.350
437.00,23.386
438.00,23.451
439.00,23.518
440.00,23.565
441.00,23.670
442.00,23.740
443.00,23.808
444.00,23.869
445.00,23.952
446.00,24.045
447.00,24.151
448.00,24.241
449.00,24.319
450.00,24.419
451.00,24.499
452.00,24.583
453.00,24.712
454.00,24.841
455.00,24.855
456.00,25.022
457.00,25.134
458.00,25.138
459.00,25.312
460.00,25.446
461.00,25.544
462.00,25.655
463.00,25.783
464.00,25.824
465.00,26.004
466.00,26.102
467.00,26.239
468.00,26.363
469.00,26.481
470.00,26.557
471.00,26.655
472.00,26.777
473.00,26.866
474.00,26.970
475.00,27.082
476.00,27.180
477.00,27.282
478.00,27.404
479.00,27.553
480.00,27.690
481.00,27.802
482.00,27.953
483.00,28.115
484.00,28.218
485.00,28.380
486.00,28.537
487.00,28.690
488.00,28.812
489.00,28.995
490.00,29.096
491.00,29.250
492.00,29.457
493.00,29.547
494.00,29.546
495.00,29.703
496.00,29.822
497.00,29.892
498.00,30.073
499.00,30.200
500.00,30.300
501.00,30.428
502.00,30.559
503.00,30.698
504.00,30.713
505.00,30.836
506.00,31.061
507.00,31.166
508.00,31.290
509.00,31.430
510.00,31.553
511.00,31.621
512.00,31.769
513.00,31.876
514.00,32.036
515.00,32.096
516.00,32.275
517.00,32.345
518.00,32.450
519.00,32.528
520.00,32.593
521.00,32.646
522.00,32.853
523.00,32.894
524.00,32.988
525.00,33.121
526.00,33.247
527.00,33.347
528.00,33.409
529.00,33.561
530.00,33.660
531.00,33.774
532.00,33.817
533.00,33.943
534.00,34.051
535.00,34.136
536.00,34.252
537.00,34.296
538.00,34.399
539.00,34.468
540.00,34.500
541.00,34.622
542.00,34.656
543.00,34.707
544.00,34.872
545.00,34.892
546.00,34.950
547.00,35.058
548.00,35.129
549.00,35.066
550.00,35.380
551.00,35.418
552.00,35.512
553.00,35.656
554.00,35.602
555.00,35.668
556.00,35.677
557.00,35.712
558.00,35.826
559.00,35.954
560.00,36.014
561.00,36.105
562.00,36.159
563.00,36.258
564.00,36.274
565.00,36.342
566.00,36.376
567.00,36.363
568.00,36.401
569.00,36.461
570.00,36.444
571.00,36.561
572.00,36.568
573.00,36.499
574.00,36.723
575.00,36.783
576.00,36.781
577.00,36.893
578.00,36.952
579.00,36.989
580.00,37.089
581.00,37.163
582.00,37.290
583.00,37.352
584.00,37.429
585.00,37.491
586.00,37.543
587.00,37.587
588.00,37.673
589.00,37.677
590.00,37.722
591.00,37.813
592.00,37.797
593.00,37.821
594.00,37.865
595.00,37.911
596.00,38.036
597.00,38.029
598.00,38.190
599.00,38.219
600.00,38.240
601.00,38.269
602.00,38.272
603.00,38.366
604.00,38.513
605.00,38.538
606.00,38.623
607.00,38.582
608.00,38.767
609.00,38.723
610.00,38.632
611.00,38.785
612.00,38.836
613.00,38.853
614.00,38.875
615.00,38.933
616.00,38.983
617.00,39.094
618.00,39.142
619.00,39.195
620.00,39.270
621.00,39.296
622.00,39.342
623.00,39.440
624.00,39.470
625.00,39.545
626.00,39.590
627.00,39.662
628.00,39.713
629.00,39.806
630.00,39.852
631.00,39.894
632.00,39.898
633.00,40.033
634.00,40.082
635.00,40.210
636.00,40.202
637.00,40.399
638.00,40.438
639.00,40.498
640.00,40.517
641.00,40.538
642.00,40.684
643.00,40.612
644.00,40.775
645.00,40.831
646.00,40.959
647.00,41.083
648.00,41.139
649.00,41.217
650.00,41.182
651.00,41.312
652.00,41.472
653.00,41.536
654.00,41.563
655.00,41.633
656.00,41.778
657.00,41.866
658.00,41.908
659.00,41.922
660.00,42.059
661.00,42.121
662.00,42.243
663.00,42.326
664.00,42.468
665.00,42.541
666.00,42.559
667.00,42.712
668.00,42.778
669.00,42.991
670.00,42.964
671.00,42.961
672.00,43.029
673.00,43.184
674.00,43.252
675.00,43.333
676.00,43.443
677.00,43.536
678.00,43.489
679.00,43.666
680.00,43.702
681.00,43.812
682.00,43.851
683.00,43.937
684.00,44.183
685.00,44.209
686.00,44.167
687.00,44.257
688.00,44.320
689.00,44.383
690.00,44.443
691.00,44.687
692.00,44.658
693.00,44.651
694.00,44.796
695.00,44.861
696.00,44.781
697.00,44.921
698.00,45.036
699.00,45.362
700.00,45.221
701.00,45.318
702.00,45.581
703.00,45.541
704.00,45.767
705.00,45.600
706.00,45.628
707.00,45.942
708.00,45.760
709.00,45.767
710.00,46.169
711.00,46.460
712.00,46.147
713.00,46.185
714.00,46.328
715.00,46.347
716.00,46.406
717.00,46.467
718.00,46.532
719.00,46.697
720.00,46.706
721.00,50.874
722.00,50.918
723.00,50.873
724.00,50.863
725.00,50.954
726.00,50.922
727.00,50.898
728.00,51.024
729.00,50.965
730.00,51.044
731.00,51.081
732.00,51.033
733.00,51.104
734.00,51.134
735.00,51.122
736.00,51.174
737.00,51.180
738.00,51.296
739.00,51.262
740.00,51.281
741.00,51.258
742.00,51.362
743.00,51.304
744.00,51.322
745.00,51.365
746.00,51.367
747.00,51.320
748.00,51.323
749.00,51.301
750.00,51.348
751.00,51.317
752.00,51.347
753.00,51.451
754.00,51.402
755.00,51.402
756.00,51.319
757.00,51.418
758.00,51.432
759.00,51.439
760.00,51.467
761.00,51.447
762.00,51.406
763.00,51.487
764.00,51.499
765.00,51.522
766.00,51.487
767.00,51.538
768.00,51.567
769.00,51.522
770.00,51.518
771.00,51.496
772.00,51.562
773.00,51.541
774.00,51.568
775.00,51.584
776.00,51.530
777.00,51.585
778.00,51.560
779.00,51.619
780.00,51.582
781.00,51.596
782.00,51.632
783.00,51.622
784.00,51.538
785.00,51.553
786.00,51.601
787.00,51.540
788.00,51.553
789.00,51.495
790.00,51.550
791.00,51.652
792.00,51.529
793.00,51.399
794.00,51.432
795.00,51.491
796.00,51.504
797.00,51.463
798.00,51.419
799.00,51.395
800.00,51.427
801.00,51.316
802.00,51.448
803.00,51.396
804.00,51.289
805.00,51.311
806.00,51.305
807.00,51.229
808.00,51.270
809.00,51.227
810.00,51.229
811.00,51.261
812.00,51.248
813.00,51.145
814.00,51.260
815.00,51.191
816.00,51.255
817.00,51.160
818.00,51.111
819.00,51.107
820.00,51.104
821.00,51.051
822.00,51.086
823.00,51.039
824.00,51.057
825.00,50.993
826.00,51.109
827.00,51.127
828.00,50.947
829.00,50.943
830.00,50.926
831.00,53.558
832.00,53.515
833.00,53.495
834.00,53.517
835.00,53.488
836.00,53.470
837.00,53.443
838.00,53.407
839.00,53.390
840.00,53.326
841.00,53.370
842.00,53.330
843.00,53.304
844.00,53.380
845.00,53.290
846.00,53.305
847.00,53.305
848.00,53.265
849.00,53.194
850.00,53.171
851.00,53.144
852.00,53.137
853.00,53.038
854.00,53.072
855.00,53.011
856.00,53.014
857.00,52.977
858.00,52.946
859.00,52.925
860.00,52.929
861.00,52.924
862.00,52.869
863.00,52.862
864.00,52.823
865.00,52.821
866.00,52.812
867.00,52.792
868.00,52.836
869.00,52.777
870.00,52.756
871.00,52.857
872.00,52.771
873.00,52.756
874.00,52.737
875.00,52.740
876.00,52.743
877.00,52.706
878.00,52.686
879.00,52.670
880.00,52.661
881.00,52.638
882.00,52.657
883.00,52.626
884.00,52.555
885.00,52.575
886.00,52.579
887.00,52.554
888.00,52.490
889.00,52.491
890.00,52.509
891.00,52.458
892.00,52.441
893.00,52.407
894.00,52.408
895.00,52.390
896.00,52.346
897.00,52.337
898.00,52.301
899.00,52.308
900.00,52.297
901.00,52.275
902.00,52.275
903.00,52.243
904.00,52.236
905.00,52.247
906.00,52.211
907.00,52.211
908.00,52.143
909.00,52.166
910.00,52.118
911.00,52.121
912.00,52.121
913.00,52.040
914.00,52.056
915.00,52.039
916.00,52.009
917.00,52.010
918.00,52.014
919.00,51.980
920.00,51.937
921.00,51.914
922.00,51.929
923.00,51.868
924.00,51.822
925.00,51.849
926.00,51.843
927.00,51.782
928.00,51.779
929.00,51.794
930.00,51.746
931.00,51.754
932.00,51.701
933.00,51.714
934.00,51.728
935.00,51.641
936.00,51.643
937.00,51.630
938.00,51.634
939.00,51.609
940.00,51.537
941.00,51.555
942.00,51.535
943.00,51.509
944.00,51.485
945.00,51.473
946.00,51.475
947.00,51.441
948.00,51.420
949.00,51.391
950.00,51.382
951.00,51.356
952.00,51.317
953.00,51.316
954.00,51.271
955.00,51.225
956.00,51.245
957.00,51.206
958.00,51.216
959.00,51.176
960.00,51.148
961.00,51.120
962.00,51.142
963.00,51.083
964.00,51.093
965.00,51.084
966.00,51.064
967.00,51.067
968.00,51.040
969.00,51.081
970.00,51.034
971.00,51.026
972.00,51.062
973.00,51.051
974.00,51.074
975.00,51.017
976.00,51.053
977.00,51.050
978.00,51.084
979.00,51.031
980.00,51.043
981.00,51.072
982.00,50.986
983.00,51.038
984.00,51.015
985.00,51.023
986.00,50.982
987.00,51.000
988.00,50.988
989.00,50.961
990.00,50.961
991.00,50.958
992.00,50.966
993.00,50.918
994.00,50.899
995.00,50.897
996.00,50.877
997.00,50.881
998.00,50.849
999.00,50.877
1000.00,50.825
1001.00,50.810
1002.00,50.816
1003.00,50.793
1004.00,50.772
1005.00,50.750
1006.00,50.782
1007.00,50.733
1008.00,50.726
1009.00,50.727
1010.00,50.729
1011.00,50.703
1012.00,50.661
1013.00,50.680
1014.00,50.636
1015.00,50.637
1016.00,50.617
1017.00,50.601
1018.00,50.583
1019.00,50.557
1020.00,50.550
1021.00,50.532
1022.00,50.539
1023.00,50.487
1024.00,50.502
1025.00,50.499
1026.00,50.467
1027.00,50.450
1028.00,50.432
1029.00,50.426
1030.00,50.393
1031.00,50.395
1032.00,50.377
1033.00,50.368
1034.00,50.321
1035.00,50.294
1036.00,50.291
1037.00,50.250
1038.00,50.257
1039.00,50.215
1040.00,50.203
1041.00,50.181
1042.00,50.170
1043.00,50.153
1044.00,50.188
1045.00,50.159
1046.00,50.159
1047.00,50.174
1048.00,50.171
1049.00,50.197
1050.00,50.188
1051.00,50.206
1052.00,50.217
1053.00,50.226
1054.00,50.229
1055.00,50.233
1056.00,50.243
1057.00,50.245
1058.00,50.237
1059.00,50.222
1060.00,50.245
1061.00,50.236
1062.00,50.200
1063.00,50.210
1064.00,50.186
1065.00,50.166
1066.00,50.159
1067.00,50.145
1068.00,50.178
1069.00,50.144
1070.00,50.113
1071.00,50.127
1072.00,50.134
1073.00,50.101
1074.00,50.103
1075.00,50.093
1076.00,50.086
1077.00,50.069
1078.00,50.060
1079.00,50.064
1080.00,50.064
1081.00,50.041
1082.00,50.056
1083.00,50.051
1084.00,50.026
1085.00,50.030
1086.00,50.012
1087.00,50.012
1088.00,49.990
1089.00,49.979
1090.00,49.980
1091.00,49.968
1092.00,49.942
1093.00,49.948
1094.00,49.957
1095.00,49.913
1096.00,49.905
1097.00,49.887
1098.00,49.894
1099.00,49.881
1100.00,49.847
1101.00,49.847
1102.00,49.845
1103.00,49.839
1104.00,49.849
1105.00,49.834
1106.00,49.813
1107.00,49.811
1108.00,49.812
1109.00,49.821
1110.00,49.804
1111.00,49.779
1112.00,49.774
1113.00,49.761
1114.00,49.748
1115.00,49.765
1116.00,49.744
1117.00,49.717
1118.00,49.720
1119.00,49.707
1120.00,49.702
1121.00,49.695
1122.00,49.672
1123.00,49.679
1124.00,49.679
1125.00,49.648
1126.00,49.655
1127.00,49.637
1128.00,49.618
1129.00,49.614
1130.00,49.587
1131.00,49.602
1132.00,49.597
1133.00,49.585
1134.00,49.590
1135.00,49.575
1136.00,49.563
1137.00,49.561
1138.00,49.566
1139.00,49.566
1140.00,49.557
1141.00,49.545
1142.00,49.542
1143.00,49.555
1144.00,49.510
1145.00,49.523
1146.00,49.537
1147.00,49.516
1148.00,49.520
1149.00,49.531
1150.00,49.508
1151.00,49.507
1152.00,49.487
1153.00,49.489
1154.00,49.482
1155.00,49.486
1156.00,49.482
1157.00,49.492
1158.00,49.465
1159.00,49.470
1160.00,49.464
1161.00,49.462
1162.00,49.469
1163.00,49.458
1164.00,49.464
1165.00,49.452
1166.00,49.454
1167.00,49.451
1168.00,49.471
1169.00,49.457
1170.00,49.465
1171.00,49.435
1172.00,49.431
1173.00,49.431
1174.00,49.424
1175.00,49.428
1176.00,49.434
1177.00,49.415
1178.00,49.430
1179.00,49.443
1180.00,49.411
1181.00,49.447
1182.00,49.433
1183.00,49.419
1184.00,49.416
1185.00,49.429
1186.00,49.410
1187.00,49.418
1188.00,49.396
1189.00,49.394
1190.00,49.402
1191.00,49.376
1192.00,49.401
1193.00,49.377
1194.00,49.388
1195.00,49.365
1196.00,49.397
1197.00,49.410
1198.00,49.392
1199.00,49.391
1200.00,49.397
1201.00,49.411
1202.00,49.367
1203.00,49.384
1204.00,49.380
1205.00,49.384
1206.00,49.375
1207.00,49.366
1208.00,49.373
1209.00,49.377
1210.00,49.372
1211.00,49.372
1212.00,49.382
1213.00,49.326
1214.00,49.369
1215.00,49.362
1216.00,49.351
1217.00,49.362
1218.00,49.341
1219.00,49.369
1220.00,49.357
1221.00,49.361
1222.00,49.343
1223.00,49.367
1224.00,49.347
1225.00,49.347
1226.00,49.351
1227.00,49.319
1228.00,49.359
1229.00,49.360
1230.00,49.404
1231.00,49.387
1232.00,49.415
1233.00,49.407
1234.00,49.413
1235.00,49.393
1236.00,49.402
1237.00,49.391
1238.00,49.384
1239.00,49.397
1240.00,49.381
1241.00,49.402
1242.00,49.402
1243.00,49.410
1244.00,49.398
1245.00,49.427
1246.00,49.416
1247.00,49.426
1248.00,49.424
1249.00,49.418
1250.00,49.434
1251.00,49.409
1252.00,49.431
1253.00,49.414
1254.00,49.434
1255.00,49.428
1256.00,49.408
1257.00,49.404
1258.00,49.444
1259.00,49.444
1260.00,49.455
1261.00,49.453
1262.00,49.458
1263.00,49.445
1264.00,49.462
1265.00,49.451
1266.00,49.462
1267.00,49.470
1268.00,49.464
1269.00,49.466
1270.00,49.474
1271.00,49.469
1272.00,49.481
1273.00,49.487
1274.00,49.501
1275.00,49.495
1276.00,49.491
1277.00,49.502
1278.00,49.517
1279.00,49.498
1280.00,49.511
1281.00,49.532
1282.00,49.529
1283.00,49.504
1284.00,49.518
1285.00,49.516
1286.00,49.530
1287.00,49.518
1288.00,49.539
1289.00,49.536
1290.00,49.536
1291.00,49.561
1292.00,49.563
1293.00,49.546
1294.00,49.563
1295.00,49.557
1296.00,49.566
1297.00,49.567
1298.00,49.591
1299.00,49.571
1300.00,49.591
1301.00,49.579
1302.00,49.601
1303.00,49.610
1304.00,49.577
1305.00,49.614
1306.00,49.608
1307.00,49.631
1308.00,49.618
1309.00,49.619
1310.00,49.631
1311.00,49.633
1312.00,49.600
1313.00,49.633
1314.00,49.648
1315.00,49.648
1316.00,49.653
1317.00,49.663
1318.00,49.638
1319.00,49.677
1320.00,49.684
1321.00,49.838
1322.00,49.849
1323.00,49.826
1324.00,49.828
1325.00,49.812
1326.00,49.829
1327.00,49.828
1328.00,49.822
1329.00,49.801
1330.00,49.832
1331.00,49.811
1332.00,49.787
1333.00,49.898
1334.00,49.862
1335.00,49.877
1336.00,49.899
1337.00,49.938
1338.00,50.004
1339.00,50.040
1340.00,50.086
1341.00,50.157
1342.00,50.214
1343.00,50.282
1344.00,50.322
1345.00,50.372
1346.00,50.428
1347.00,50.457
1348.00,50.449
1349.00,50.488
1350.00,50.491
1351.00,50.485
1352.00,50.516
1353.00,50.514
1354.00,50.513
1355.00,50.482
1356.00,50.537
1357.00,50.491
1358.00,50.559
1359.00,50.546
1360.00,50.629
1361.00,50.620
1362.00,50.483
1363.00,50.566
1364.00,50.545
1365.00,50.527
1366.00,50.599
1367.00,50.539
1368.00,50.487
1369.00,50.525
1370.00,50.508
1371.00,50.450
1372.00,50.463
1373.00,50.503
1374.00,50.527
1375.00,50.490
1376.00,50.508
1377.00,50.480
1378.00,50.551
1379.00,50.547
1380.00,50.547
1381.00,50.548
1382.00,50.458
1383.00,50.490
1384.00,50.462
1385.00,50.468
1386.00,50.549
1387.00,50.453
1388.00,50.432
1389.00,50.457
1390.00,50.505
1391.00,50.479
1392.00,50.450
1393.00,50.471
1394.00,50.505
1395.00,50.430
1396.00,50.417
1397.00,50.474
1398.00,50.514
1399.00,50.514
1400.00,50.475
1401.00,50.477
1402.00,50.569
1403.00,50.565
1404.00,50.471
1405.00,50.518
1406.00,50.506
1407.00,50.523
1408.00,50.549
1409.00,50.511
1410.00,50.552
1411.00,50.523
1412.00,50.598
1413.00,50.574
1414.00,50.551
1415.00,50.590
1416.00,50.637
1417.00,50.674
1418.00,50.648
1419.00,50.599
1420.00,50.619
1421.00,50.665
1422.00,50.656
1423.00,50.662
1424.00,50.678
1425.00,50.680
1426.00,50.707
1427.00,50.720
1428.00,50.712
1429.00,50.751
1430.00,50.749
1431.00,50.762
1432.00,50.781
1433.00,50.799
1434.00,50.788
1435.00,50.839
1436.00,50.843
1437.00,50.825
1438.00,50.866
1439.00,50.881
1440.00,50.895
1441.00,50.901
1442.00,50.918
1443.00,50.918
1444.00,50.959
1445.00,50.952
1446.00,50.954
1447.00,50.984
1448.00,51.045
1449.00,51.022
1450.00,51.025
1451.00,51.035
1452.00,51.047
1453.00,51.070
1454.00,51.086
1455.00,51.093
1456.00,51.119
1457.00,51.121
1458.00,51.128
1459.00,51.172
1460.00,51.170
1461.00,51.171
1462.00,51.189
1463.00,51.219
1464.00,51.233
1465.00,51.235
1466.00,51.226
1467.00,51.262
1468.00,51.301
1469.00,51.296
1470.00,51.317
1471.00,51.324
1472.00,51.327
1473.00,51.344
1474.00,51.370
1475.00,51.358
1476.00,51.386
1477.00,51.371
1478.00,51.389
1479.00,51.422
1480.00,51.408
1481.00,51.422
1482.00,51.442
1483.00,51.463
1484.00,51.482
1485.00,51.492
1486.00,51.497
1487.00,51.522
1488.00,51.507
1489.00,51.533
1490.00,51.549
1491.00,51.548
1492.00,51.568
1493.00,51.557
1494.00,51.577
1495.00,51.582
1496.00,51.596
1497.00,51.609
1498.00,51.609
1499.00,51.634
1500.00,51.658
1501.00, 
1502.00, 
1503.00, 
1504.00, 
1505.00, 
1506.00, 
1507.00, 
1508.00, 
1509.00, 
1510.00, 
1511.00, 
1512.00, 
1513.00, 
1514.00, 
1515.00, 
1516.00, 
1517.00, 
1518.00, 
1519.00, 
1520.00, 
1521.00, 
1522.00, 
1523.00, 
1524.00, 
1525.00, 
1526.00, 
1527.00, 
1528.00, 
1529.00, 
1530.00, 
1531.00, 
1532.00, 
1533.00, 
1534.00, 
1535.00, 
1536.00, 
1537.00, 
1538.00, 
1539.00, 
1540.00, 
1541.00, 
1542.00, 
1543.00, 
1544.00, 
1545.00, 
1546.00, 
1547.00, 
1548.00, 
1549.00, 
1550.00, 
1551.00, 
1552.00, 
1553.00, 
1554.00, 
1555.00, 
1556.00, 
1557.00, 
1558.00, 
1559.00, 
1560.00, 
1561.00, 
1562.00, 
1563.00, 
1564.00, 
1565.00, 
1566.00, 
1567.00, 
1568.00, 
1569.00, 
1570.00, 
1571.00, 
1572.00, 
1573.00, 
1574.00, 
1575.00, 
1576.00, 
1577.00, 
1578.00, 
1579.00, 
1580.00, 
1581.00, 
1582.00, 
1583.00, 
1584.00, 
1585.00, 
1586.00, 
1587.00, 
1588.00, 
1589.00, 
1590.00, 
1591.00, 
1592.00, 
1593.00, 
1594.00, 
1595.00, 
1596.00, 
1597.00, 
1598.00, 
1599.00, 
1600.00, 
1601.00, 
1602.00, 
1603.00, 
1604.00, 
1605.00, 
1606.00, 
1607.00, 
1608.00, 
1609.00, 
1610.00, 
1611.00, 
1612.00, 
1613.00, 
1614.00, 
1615.00, 
1616.00, 
1617.00, 
1618.00, 
1619.00, 
1620.00, 
1621.00, 
1622.00, 
1623.00, 
1624.00, 
1625.00, 
1626.00, 
1627.00, 
1628.00, 
1629.00, 
1630.00, 
1631.00, 
1632.00, 
1633.00, 
1634.00, 
1635.00, 
1636.00, 
1637.00, 
1638.00, 
1639.00, 
1640.00, 
1641.00, 
1642.00, 
1643.00, 
1644.00, 
1645.00, 
1646.00, 
1647.00, 
1648.00, 
1649.00, 
1650.00, 
1651.00, 
1652.00, 
1653.00, 
1654.00, 
1655.00, 
1656.00, 
1657.00, 
1658.00, 
1659.00, 
1660.00, 
1661.00, 
1662.00, 
1663.00, 
1664.00, 
1665.00, 
1666.00, 
1667.00, 
1668.00, 
1669.00, 
1670.00, 
1671.00, 
1672.00, 
1673.00, 
1674.00, 
1675.00, 
1676.00, 
1677.00, 
1678.00, 
1679.00, 
1680.00, 
1681.00, 
1682.00, 
1683.00, 
1684.00, 
1685.00, 
1686.00, 
1687.00, 
1688.00, 
1689.00, 
1690.00, 
1691.00, 
1692.00, 
1693.00, 
1694.00, 
1695.00, 
1696.00, 
1697.00, 
1698.00, 
1699.00, 
1700.00, 
1701.00, 
1702.00, 
1703.00, 
1704.00, 
1705.00, 
1706.00, 
1707.00, 
1708.00, 
1709.00, 
1710.00, 
1711.00, 
1712.00, 
1713.00, 
1714.00, 
1715.00, 
1716.00, 
1717.00, 
1718.00, 
1719.00, 
1720.00, 
1721.00, 
1722.00, 
1723.00, 
1724.00, 
1725.00, 
1726.00, 
1727.00, 
1728.00, 
1729.00, 
1730.00, 
1731.00, 
1732.00, 
1733.00, 
1734.00, 
1735.00, 
1736.00, 
1737.00, 
1738.00, 
1739.00, 
1740.00, 
1741.00, 
1742.00, 
1743.00, 
1744.00, 
1745.00, 
1746.00, 
1747.00, 
1748.00, 
1749.00, 
1750.00, 
1751.00, 
1752.00, 
1753.00, 
1754.00, 
1755.00, 
1756.00, 
1757.00, 
1758.00, 
1759.00, 
1760.00, 
1761.00, 
1762.00, 
1763.00, 
1764.00, 
1765.00, 
1766.00, 
1767.00, 
1768.00, 
1769.00, 
1770.00, 
1771.00, 
1772.00, 
1773.00, 
1774.00, 
1775.00, 
1776.00, 
1777.00, 
1778.00, 
1779.00, 
1780.00, 
1781.00, 
1782.00, 
1783.00, 
1784.00, 
1785.00, 
1786.00, 
1787.00, 
1788.00, 
1789.00, 
1790.00, 
1791.00, 
1792.00, 
1793.00, 
1794.00, 
1795.00, 
1796.00, 
1797.00, 
1798.00, 
1799.00, 
1800.00, 
1801.00, 
1802.00, 
1803.00, 
1804.00, 
1805.00, 
1806.00, 
1807.00, 
1808.00, 
1809.00, 
1810.00, 
1811.00, 
1812.00, 
1813.00, 
1814.00, 
1815.00, 
1816.00, 
1817.00, 
1818.00, 
1819.00, 
1820.00, 
1821.00, 
1822.00, 
1823.00, 
1824.00, 
1825.00, 
1826.00, 
1827.00, 
1828.00, 
1829.00, 
1830.00, 
1831.00, 
1832.00, 
1833.00, 
1834.00, 
1835.00, 
1836.00, 
1837.00, 
1838.00, 
1839.00, 
1840.00, 
1841.00, 
1842.00, 
1843.00, 
1844.00, 
1845.00, 
1846.00, 
1847.00, 
1848.00, 
1849.00, 
1850.00, 
1851.00, 
1852.00, 
1853.00, 
1854.00, 
1855.00, 
1856.00, 
1857.00, 
1858.00, 
1859.00, 
1860.00, 
1861.00, 
1862.00, 
1863.00, 
1864.00, 
1865.00, 
1866.00, 
1867.00, 
1868.00, 
1869.00, 
1870.00, 
1871.00, 
1872.00, 
1873.00, 
1874.00, 
1875.00, 
1876.00, 
1877.00, 
1878.00, 
1879.00, 
1880.00, 
1881.00, 
1882.00, 
1883.00, 
1884.00, 
1885.00, 
1886.00, 
1887.00, 
1888.00, 
1889.00, 
1890.00, 
1891.00, 
1892.00, 
1893.00, 
1894.00, 
1895.00, 
1896.00, 
1897.00, 
1898.00, 
1899.00, 
1900.00, 
1901.00, 
1902.00, 
1903.00, 
1904.00, 
1905.00, 
1906.00, 
1907.00, 
1908.00, 
1909.00, 
1910.00, 
1911.00, 
1912.00, 
1913.00, 
1914.00, 
1915.00, 
1916.00, 
1917.00, 
1918.00, 
1919.00, 
1920.00, 
1921.00, 
1922.00, 
1923.00, 
1924.00, 
1925.00, 
1926.00, 
1927.00, 
1928.00, 
1929.00, 
1930.00, 
1931.00, 
1932.00, 
1933.00, 
1934.00, 
1935.00, 
1936.00, 
1937.00, 
1938.00, 
1939.00, 
1940.00, 
1941.00, 
1942.00, 
1943.00, 
1944.00, 
1945.00, 
1946.00, 
1947.00, 
1948.00, 
1949.00, 
1950.00, 
1951.00, 
1952.00, 
1953.00, 
1954.00, 
1955.00, 
1956.00, 
1957.00, 
1958.00, 
1959.00, 
1960.00, 
1961.00, 
1962.00, 
1963.00, 
1964.00, 
1965.00, 
1966.00, 
1967.00, 
1968.00, 
1969.00, 
1970.00, 
1971.00, 
1972.00, 
1973.00, 
1974.00, 
1975.00, 
1976.00, 
1977.00, 
1978.00, 
1979.00, 
1980.00, 
1981.00, 
1982.00, 
1983.00, 
1984.00, 
1985.00, 
1986.00, 
1987.00, 
1988.00, 
1989.00, 
1990.00, 
1991.00, 
1992.00, 
1993.00, 
1994.00, 
1995.00, 
1996.00, 
1997.00, 
1998.00, 
1999.00, 
2000.00, 
2001.00, 
2002.00, 
2003.00, 
2004.00, 
2005.00, 
2006.00, 
2007.00, 
2008.00, 
2009.00, 
2010.00, 
2011.00, 
2012.00, 
2013.00, 
2014.00, 
2015.00, 
2016.00, 
2017.00, 
2018.00, 
2019.00, 
2020.00, 
2021.00, 
2022.00, 
2023.00, 
2024.00, 
2025.00, 
2026.00, 
2027.00, 
2028.00, 
2029.00, 
2030.00, 
2031.00, 
2032.00, 
2033.00, 
2034.00, 
2035.00, 
2036.00, 
2037.00, 
2038.00, 
2039.00, 
2040.00, 
2041.00, 
2042.00, 
2043.00, 
2044.00, 
2045.00, 
2046.00, 
2047.00, 
2048.00, 
2049.00, 
2050.00, 
2051.00, 
2052.00, 
2053.00, 
2054.00, 
2055.00, 
2056.00, 
2057.00, 
2058.00, 
2059.00, 
2060.00, 
2061.00, 
2062.00, 
2063.00, 
2064.00, 
2065.00, 
2066.00, 
2067.00, 
2068.00, 
2069.00, 
2070.00, 
2071.00, 
2072.00, 
2073.00, 
2074.00, 
2075.00, 
2076.00, 
2077.00, 
2078.00, 
2079.00, 
2080.00, 
2081.00, 
2082.00, 
2083.00, 
2084.00, 
2085.00, 
2086.00, 
2087.00, 
2088.00, 
2089.00, 
2090.00, 
2091.00, 
2092.00, 
2093.00, 
2094.00, 
2095.00, 
2096.00, 
2097.00, 
2098.00, 
2099.00, 
2100.00, 
2101.00, 
2102.00, 
2103.00, 
2104.00, 
2105.00, 
2106.00, 
2107.00, 
2108.00, 
2109.00, 
2110.00, 
2111.00, 
2112.00, 
2113.00, 
2114.00, 
2115.00, 
2116.00, 
2117.00, 
2118.00, 
2119.00, 
2120.00, 
2121.00, 
2122.00, 
2123.00, 
2124.00, 
2125.00, 
2126.00, 
2127.00, 
2128.00, 
2129.00, 
2130.00, 
2131.00, 
2132.00, 
2133.00, 
2134.00, 
2135.00, 
2136.00, 
2137.00, 
2138.00, 
2139.00, 
2140.00, 
2141.00, 
2142.00, 
2143.00, 
2144.00, 
2145.00, 
2146.00, 
2147.00, 
2148.00, 
2149.00, 
2150.00, 
2151.00, 
2152.00, 
2153.00, 
2154.00, 
2155.00, 
2156.00, 
2157.00, 
2158.00, 
2159.00, 
2160.00, 
2161.00, 
2162.00, 
2163.00, 
2164.00, 
2165.00, 
2166.00, 
2167.00, 
2168.00, 
2169.00, 
2170.00, 
2171.00, 
2172.00, 
2173.00, 
2174.00, 
2175.00, 
2176.00, 
2177.00, 
2178.00, 
2179.00, 
2180.00, 
2181.00, 
2182.00, 
2183.00, 
2184.00, 
2185.00, 
2186.00, 
2187.00, 
2188.00, 
2189.00, 
2190.00, 
2191.00, 
2192.00, 
2193.00, 
2194.00, 
2195.00, 
2196.00, 
2197.00, 
2198.00, 
2199.00, 
2200.00, 
2201.00, 
2202.00, 
2203.00, 
2204.00, 
2205.00, 
2206.00, 
2207.00, 
2208.00, 
2209.00, 
2210.00, 
2211.00, 
2212.00, 
2213.00, 
2214.00, 
2215.00, 
2216.00, 
2217.00, 
2218.00, 
2219.00, 
2220.00, 
2221.00, 
2222.00, 
2223.00, 
2224.00, 
2225.00, 
2226.00, 
2227.00, 
2228.00, 
2229.00, 
2230.00, 
2231.00, 
2232.00, 
2233.00, 
2234.00, 
2235.00, 
2236.00, 
2237.00, 
2238.00, 
2239.00, 
2240.00, 
2241.00, 
2242.00, 
2243.00, 
2244.00, 
2245.00, 
2246.00, 
2247.00, 
2248.00, 
2249.00, 
2250.00, 
2251.00, 
2252.00, 
2253.00, 
2254.00, 
2255.00, 
2256.00, 
2257.00, 
2258.00, 
2259.00, 
2260.00, 
2261.00, 
2262.00, 
2263.00, 
2264.00, 
2265.00, 
2266.00, 
2267.00, 
2268.00, 
2269.00, 
2270.00, 
2271.00, 
2272.00, 
2273.00, 
2274.00, 
2275.00, 
2276.00, 
2277.00, 
2278.00, 
2279.00, 
2280.00, 
2281.00, 
2282.00, 
2283.00, 
2284.00, 
2285.00, 
2286.00, 
2287.00, 
2288.00, 
2289.00, 
2290.00, 
2291.00, 
2292.00, 
2293.00, 
2294.00, 
2295.00, 
2296.00, 
2297.00, 
2298.00, 
2299.00, 
2300.00, 
2301.00, 
2302.00, 
2303.00, 
2304.00, 
2305.00, 
2306.00, 
2307.00, 
2308.00, 
2309.00, 
2310.00, 
2311.00, 
2312.00, 
2313.00, 
2314.00, 
2315.00, 
2316.00, 
2317.00, 
2318.00, 
2319.00, 
2320.00, 
2321.00, 
2322.00, 
2323.00, 
2324.00, 
2325.00, 
2326.00, 
2327.00, 
2328.00, 
2329.00, 
2330.00, 
2331.00, 
2332.00, 
2333.00, 
2334.00, 
2335.00, 
2336.00, 
2337.00, 
2338.00, 
2339.00, 
2340.00, 
2341.00, 
2342.00, 
2343.00, 
2344.00, 
2345.00, 
2346.00, 
2347.00, 
2348.00, 
2349.00, 
2350.00, 
2351.00, 
2352.00, 
2353.00, 
2354.00, 
2355.00, 
2356.00, 
2357.00, 
2358.00, 
2359.00, 
2360.00, 
2361.00, 
2362.00, 
2363.00, 
2364.00, 
2365.00, 
2366.00, 
2367.00, 
2368.00, 
2369.00, 
2370.00, 
2371.00, 
2372.00, 
2373.00, 
2374.00, 
2375.00, 
2376.00, 
2377.00, 
2378.00, 
2379.00, 
2380.00, 
2381.00, 
2382.00, 
2383.00, 
2384.00, 
2385.00, 
2386.00, 
2387.00, 
2388.00, 
2389.00, 
2390.00, 
2391.00, 
2392.00, 
2393.00, 
2394.00, 
2395.00, 
2396.00, 
2397.00, 
2398.00, 
2399.00, 
2400.00, 
2401.00, 
2402.00, 
2403.00, 
2404.00, 
2405.00, 
2406.00, 
2407.00, 
2408.00, 
2409.00, 
2410.00, 
2411.00, 
2412.00, 
2413.00, 
2414.00, 
2415.00, 
2416.00, 
2417.00, 
2418.00, 
2419.00, 
2420.00, 
2421.00, 
2422.00, 
2423.00, 
2424.00, 
2425.00, 
2426.00, 
2427.00, 
2428.00, 
2429.00, 
2430.00, 
2431.00, 
2432.00, 
2433.00, 
2434.00, 
2435.00, 
2436.00, 
2437.00, 
2438.00, 
2439.00, 
2440.00, 
2441.00, 
2442.00, 
2443.00, 
2444.00, 
2445.00, 
2446.00, 
2447.00, 
2448.00, 
2449.00, 
2450.00, 
2451.00, 
2452.00, 
2453.00, 
2454.00, 
2455.00, 
2456.00, 
2457.00, 
2458.00, 
2459.00, 
2460.00, 
2461.00, 
2462.00, 
2463.00, 
2464.00, 
2465.00, 
2466.00, 
2467.00, 
2468.00, 
2469.00, 
2470.00, 
2471.00, 
2472.00, 
2473.00, 
2474.00, 
2475.00, 
2476.00, 
2477.00, 
2478.00, 
2479.00, 
2480.00, 
2481.00, 
2482.00, 
2483.00, 
2484.00, 
2485.00, 
2486.00, 
2487.00, 
2488.00, 
2489.00, 
2490.00, 
2491.00, 
2492.00, 
2493.00, 
2494.00, 
2495.00, 
2496.00, 
2497.00, 
2498.00, 
2499.00, 
2500.00, 
2501.00, 
2502.00, 
2503.00, 
2504.00, 
2505.00, 
2506.00, 
2507.00, 
2508.00, 
2509.00, 
2510.00, 
2511.00, 
2512.00, 
2513.00, 
2514.00, 
2515.00, 
2516.00, 
2517.00, 
2518.00, 
2519.00, 
2520.00, 
2521.00, 
2522.00, 
2523.00, 
2524.00, 
2525.00, 
2526.00, 
2527.00, 
2528.00, 
2529.00, 
2530.00, 
2531.00, 
2532.00, 
2533.00, 
2534.00, 
2535.00, 
2536.00, 
2537.00, 
2538.00, 
2539.00, 
2540.00, 
2541.00, 
2542.00, 
2543.00, 
2544.00, 
2545.00, 
2546.00, 
2547.00, 
2548.00, 
2549.00, 
2550.00, 
2551.00, 
2552.00, 
2553.00, 
2554.00, 
2555.00, 
2556.00, 
2557.00, 
2558.00, 
2559.00, 
2560.00, 
2561.00, 
2562.00, 
2563.00, 
2564.00, 
2565.00, 
2566.00, 
2567.00, 
2568.00, 
2569.00, 
2570.00, 
2571.00, 
2572.00, 
2573.00, 
2574.00, 
2575.00, 
2576.00, 
2577.00, 
2578.00, 
2579.00, 
2580.00, 
2581.00, 
2582.00, 
2583.00, 
2584.00, 
2585.00, 
2586.00, 
2587.00, 
2588.00, 
2589.00, 
2590.00, 
2591.00, 
2592.00, 
2593.00, 
2594.00, 
2595.00, 
2596.00, 
2597.00, 
2598.00, 
2599.00, 
2600.00, 
