"1cP1 - RawData"
"Wavelength nm.","T%"
200.00,0.003
201.00,0.001
202.00,0.004
203.00,0.004
204.00,-0.002
205.00,0.001
206.00,0.003
207.00,0.002
208.00,-0.000
209.00,0.001
210.00,0.002
211.00,-0.000
212.00,0.000
213.00,0.001
214.00,-0.001
215.00,0.001
216.00,0.004
217.00,0.003
218.00,0.000
219.00,0.002
220.00,-0.006
221.00,0.000
222.00,0.002
223.00,0.003
224.00,0.002
225.00,0.001
226.00,0.000
227.00,0.002
228.00,0.000
229.00,0.003
230.00,0.002
231.00,0.002
232.00,0.001
233.00,0.001
234.00,0.001
235.00,0.001
236.00,0.002
237.00,0.001
238.00,-0.000
239.00,0.000
240.00,0.001
241.00,0.003
242.00,0.001
243.00,0.002
244.00,-0.000
245.00,0.000
246.00,0.001
247.00,-0.000
248.00,0.002
249.00,0.003
250.00,0.000
251.00,0.000
252.00,0.001
253.00,0.002
254.00,0.001
255.00,0.001
256.00,0.001
257.00,0.001
258.00,0.001
259.00,0.002
260.00,-0.000
261.00,0.000
262.00,0.002
263.00,-0.000
264.00,-0.000
265.00,0.002
266.00,0.001
267.00,-0.001
268.00,0.001
269.00,0.001
270.00,-0.000
271.00,-0.000
272.00,0.000
273.00,0.000
274.00,0.001
275.00,0.000
276.00,-0.001
277.00,0.002
278.00,0.001
279.00,0.002
280.00,-0.000
281.00,-0.000
282.00,-0.001
283.00,0.002
284.00,0.000
285.00,-0.000
286.00,0.001
287.00,0.001
288.00,0.001
289.00,0.001
290.00,0.000
291.00,0.000
292.00,-0.000
293.00,-0.002
294.00,-0.000
295.00,-0.000
296.00,0.000
297.00,-0.001
298.00,0.001
299.00,0.001
300.00,-0.000
301.00,-0.001
302.00,-0.002
303.00,0.002
304.00,0.001
305.00,0.003
306.00,0.002
307.00,0.004
308.00,0.007
309.00,0.015
310.00,0.023
311.00,0.032
312.00,0.052
313.00,0.082
314.00,0.123
315.00,0.176
316.00,0.249
317.00,0.363
318.00,0.483
319.00,0.656
320.00,0.869
321.00,1.137
322.00,1.449
323.00,1.846
324.00,2.278
325.00,2.761
326.00,3.280
327.00,3.890
328.00,4.594
329.00,5.150
330.00,6.044
331.00,6.814
332.00,7.668
333.00,8.560
334.00,9.470
335.00,10.438
336.00,11.376
337.00,12.397
338.00,13.391
339.00,14.265
340.00,15.226
341.00,16.159
342.00,17.006
343.00,17.913
344.00,18.742
345.00,19.591
346.00,20.409
347.00,21.132
348.00,21.883
349.00,22.531
350.00,23.209
351.00,23.714
352.00,24.318
353.00,24.847
354.00,25.367
355.00,25.932
356.00,26.332
357.00,26.741
358.00,27.093
359.00,27.529
360.00,27.887
361.00,28.191
362.00,28.551
363.00,28.815
364.00,28.981
365.00,29.196
366.00,29.364
367.00,29.521
368.00,29.638
369.00,29.793
370.00,29.952
371.00,29.925
372.00,29.966
373.00,30.073
374.00,30.071
375.00,30.008
376.00,29.959
377.00,29.898
378.00,29.771
379.00,29.755
380.00,29.694
381.00,29.770
382.00,29.820
383.00,29.843
384.00,30.011
385.00,30.064
386.00,30.186
387.00,30.347
388.00,30.502
389.00,30.572
390.00,30.671
391.00,30.827
392.00,30.894
393.00,30.876
394.00,31.027
395.00,31.058
396.00,31.064
397.00,31.121
398.00,31.215
399.00,31.244
400.00,31.273
401.00,31.307
402.00,31.313
403.00,31.313
404.00,31.302
405.00,31.291
406.00,31.295
407.00,31.262
408.00,31.275
409.00,31.206
410.00,31.139
411.00,31.136
412.00,31.129
413.00,31.139
414.00,31.047
415.00,31.122
416.00,31.158
417.00,31.050
418.00,31.104
419.00,31.136
420.00,31.194
421.00,31.307
422.00,31.322
423.00,31.324
424.00,31.400
425.00,31.410
426.00,31.393
427.00,31.472
428.00,31.470
429.00,31.498
430.00,31.565
431.00,31.574
432.00,31.604
433.00,31.609
434.00,31.718
435.00,31.810
436.00,31.816
437.00,31.864
438.00,31.920
439.00,31.935
440.00,32.051
441.00,32.115
442.00,32.198
443.00,32.273
444.00,32.335
445.00,32.439
446.00,32.532
447.00,32.580
448.00,32.684
449.00,32.766
450.00,32.864
451.00,32.945
452.00,33.055
453.00,33.164
454.00,33.240
455.00,33.311
456.00,33.433
457.00,33.515
458.00,33.570
459.00,33.681
460.00,33.865
461.00,33.952
462.00,33.997
463.00,34.189
464.00,34.159
465.00,34.379
466.00,34.500
467.00,34.592
468.00,34.621
469.00,34.741
470.00,34.790
471.00,34.902
472.00,34.965
473.00,34.996
474.00,35.172
475.00,35.252
476.00,35.338
477.00,35.434
478.00,35.510
479.00,35.763
480.00,35.716
481.00,35.884
482.00,36.130
483.00,36.045
484.00,36.270
485.00,36.342
486.00,36.497
487.00,36.635
488.00,36.768
489.00,36.895
490.00,37.059
491.00,37.119
492.00,37.220
493.00,37.373
494.00,37.479
495.00,37.532
496.00,37.698
497.00,37.750
498.00,37.878
499.00,37.955
500.00,38.089
501.00,38.161
502.00,38.272
503.00,38.359
504.00,38.392
505.00,38.529
506.00,38.630
507.00,38.714
508.00,38.817
509.00,39.004
510.00,39.090
511.00,39.086
512.00,39.268
513.00,39.393
514.00,39.385
515.00,39.620
516.00,39.626
517.00,39.643
518.00,39.823
519.00,39.880
520.00,39.820
521.00,39.956
522.00,40.040
523.00,40.100
524.00,40.210
525.00,40.262
526.00,40.324
527.00,40.346
528.00,40.353
529.00,40.538
530.00,40.662
531.00,40.765
532.00,40.817
533.00,40.927
534.00,40.960
535.00,41.092
536.00,41.119
537.00,41.128
538.00,41.178
539.00,41.326
540.00,41.409
541.00,41.484
542.00,41.484
543.00,41.554
544.00,41.629
545.00,41.682
546.00,41.664
547.00,41.770
548.00,41.879
549.00,41.860
550.00,41.971
551.00,42.074
552.00,42.083
553.00,42.042
554.00,42.227
555.00,42.259
556.00,42.285
557.00,42.352
558.00,42.376
559.00,42.431
560.00,42.502
561.00,42.539
562.00,42.646
563.00,42.657
564.00,42.687
565.00,42.655
566.00,42.703
567.00,42.726
568.00,42.751
569.00,42.898
570.00,42.824
571.00,42.855
572.00,42.842
573.00,42.786
574.00,42.788
575.00,42.811
576.00,42.883
577.00,42.912
578.00,42.908
579.00,43.017
580.00,42.986
581.00,43.267
582.00,43.383
583.00,43.242
584.00,43.341
585.00,43.543
586.00,43.538
587.00,43.655
588.00,43.642
589.00,43.507
590.00,43.699
591.00,43.702
592.00,43.551
593.00,43.616
594.00,43.749
595.00,43.799
596.00,43.827
597.00,43.926
598.00,43.878
599.00,43.809
600.00,44.089
601.00,44.134
602.00,44.071
603.00,44.107
604.00,44.108
605.00,44.154
606.00,44.173
607.00,44.125
608.00,44.175
609.00,44.254
610.00,44.419
611.00,44.305
612.00,44.348
613.00,44.383
614.00,44.422
615.00,44.432
616.00,44.578
617.00,44.488
618.00,44.501
619.00,44.546
620.00,44.600
621.00,44.624
622.00,44.664
623.00,44.694
624.00,44.760
625.00,44.775
626.00,44.826
627.00,44.836
628.00,44.863
629.00,44.894
630.00,44.951
631.00,44.908
632.00,45.006
633.00,45.104
634.00,45.150
635.00,45.209
636.00,45.270
637.00,45.279
638.00,45.266
639.00,45.391
640.00,45.395
641.00,45.374
642.00,45.425
643.00,45.485
644.00,45.467
645.00,45.482
646.00,45.604
647.00,45.656
648.00,45.645
649.00,45.596
650.00,45.639
651.00,45.819
652.00,45.848
653.00,45.759
654.00,45.787
655.00,45.992
656.00,46.160
657.00,45.954
658.00,45.887
659.00,46.078
660.00,46.196
661.00,46.155
662.00,46.149
663.00,46.227
664.00,46.501
665.00,46.630
666.00,46.504
667.00,46.527
668.00,46.515
669.00,46.692
670.00,46.907
671.00,46.922
672.00,46.851
673.00,46.827
674.00,46.818
675.00,46.958
676.00,47.131
677.00,47.228
678.00,47.140
679.00,47.243
680.00,47.361
681.00,47.478
682.00,47.328
683.00,47.309
684.00,47.521
685.00,47.541
686.00,47.420
687.00,47.478
688.00,47.413
689.00,47.422
690.00,47.660
691.00,47.802
692.00,47.784
693.00,47.591
694.00,47.743
695.00,47.987
696.00,47.842
697.00,47.643
698.00,48.195
699.00,48.373
700.00,47.747
701.00,48.026
702.00,48.115
703.00,48.297
704.00,48.231
705.00,48.066
706.00,48.179
707.00,48.234
708.00,48.031
709.00,48.369
710.00,48.713
711.00,48.439
712.00,48.402
713.00,48.513
714.00,48.611
715.00,48.617
716.00,48.471
717.00,48.585
718.00,48.757
719.00,48.621
720.00,48.700
721.00,53.271
722.00,53.257
723.00,53.200
724.00,53.082
725.00,53.207
726.00,53.078
727.00,53.132
728.00,53.085
729.00,53.032
730.00,53.140
731.00,52.980
732.00,53.012
733.00,53.120
734.00,53.029
735.00,52.986
736.00,52.993
737.00,53.085
738.00,53.026
739.00,53.031
740.00,52.953
741.00,53.059
742.00,53.049
743.00,52.967
744.00,52.986
745.00,52.894
746.00,52.970
747.00,52.782
748.00,52.741
749.00,52.802
750.00,52.729
751.00,52.745
752.00,52.691
753.00,52.642
754.00,52.629
755.00,52.671
756.00,52.693
757.00,52.567
758.00,52.730
759.00,52.641
760.00,52.532
761.00,52.534
762.00,52.622
763.00,52.607
764.00,52.509
765.00,52.444
766.00,52.567
767.00,52.576
768.00,52.551
769.00,52.491
770.00,52.538
771.00,52.433
772.00,52.512
773.00,52.339
774.00,52.400
775.00,52.402
776.00,52.384
777.00,52.394
778.00,52.404
779.00,52.382
780.00,52.293
781.00,52.336
782.00,52.301
783.00,52.237
784.00,52.282
785.00,52.205
786.00,52.222
787.00,52.141
788.00,52.154
789.00,52.129
790.00,51.981
791.00,52.045
792.00,51.956
793.00,52.010
794.00,51.946
795.00,51.931
796.00,51.935
797.00,51.930
798.00,51.900
799.00,51.791
800.00,51.826
801.00,51.778
802.00,51.804
803.00,51.713
804.00,51.665
805.00,51.724
806.00,51.695
807.00,51.624
808.00,51.610
809.00,51.526
810.00,51.673
811.00,51.563
812.00,51.542
813.00,51.470
814.00,51.513
815.00,51.460
816.00,51.415
817.00,51.462
818.00,51.321
819.00,51.311
820.00,51.282
821.00,51.322
822.00,51.327
823.00,51.173
824.00,51.254
825.00,51.215
826.00,51.123
827.00,51.103
828.00,51.120
829.00,51.103
830.00,51.074
831.00,53.437
832.00,53.435
833.00,53.380
834.00,53.391
835.00,53.319
836.00,53.367
837.00,53.257
838.00,53.315
839.00,53.241
840.00,53.178
841.00,53.195
842.00,53.160
843.00,53.148
844.00,53.094
845.00,53.070
846.00,53.070
847.00,53.002
848.00,53.013
849.00,52.965
850.00,52.913
851.00,52.877
852.00,52.871
853.00,52.802
854.00,52.757
855.00,52.743
856.00,52.710
857.00,52.649
858.00,52.660
859.00,52.623
860.00,52.608
861.00,52.614
862.00,52.549
863.00,52.551
864.00,52.532
865.00,52.566
866.00,52.489
867.00,52.519
868.00,52.474
869.00,52.434
870.00,52.479
871.00,52.428
872.00,52.364
873.00,52.490
874.00,52.387
875.00,52.346
876.00,52.348
877.00,52.310
878.00,52.316
879.00,52.318
880.00,52.282
881.00,52.250
882.00,52.261
883.00,52.213
884.00,52.198
885.00,52.141
886.00,52.146
887.00,52.083
888.00,52.099
889.00,52.069
890.00,52.079
891.00,52.009
892.00,51.999
893.00,51.971
894.00,51.997
895.00,51.951
896.00,51.947
897.00,51.906
898.00,51.864
899.00,51.871
900.00,51.859
901.00,51.826
902.00,51.837
903.00,51.810
904.00,51.771
905.00,51.745
906.00,51.748
907.00,51.726
908.00,51.679
909.00,51.671
910.00,51.654
911.00,51.650
912.00,51.633
913.00,51.632
914.00,51.535
915.00,51.528
916.00,51.490
917.00,51.485
918.00,51.474
919.00,51.417
920.00,51.388
921.00,51.430
922.00,51.437
923.00,51.358
924.00,51.352
925.00,51.369
926.00,51.314
927.00,51.265
928.00,51.343
929.00,51.265
930.00,51.233
931.00,51.245
932.00,51.198
933.00,51.196
934.00,51.173
935.00,51.139
936.00,51.092
937.00,51.109
938.00,51.088
939.00,51.113
940.00,51.061
941.00,51.039
942.00,51.013
943.00,51.014
944.00,50.943
945.00,50.958
946.00,50.931
947.00,50.894
948.00,50.881
949.00,50.865
950.00,50.849
951.00,50.817
952.00,50.790
953.00,50.758
954.00,50.747
955.00,50.694
956.00,50.693
957.00,50.636
958.00,50.663
959.00,50.602
960.00,50.611
961.00,50.588
962.00,50.602
963.00,50.544
964.00,50.542
965.00,50.535
966.00,50.519
967.00,50.516
968.00,50.476
969.00,50.511
970.00,50.462
971.00,50.490
972.00,50.443
973.00,50.496
974.00,50.586
975.00,50.463
976.00,50.506
977.00,50.483
978.00,50.527
979.00,50.457
980.00,50.495
981.00,50.499
982.00,50.458
983.00,50.475
984.00,50.449
985.00,50.462
986.00,50.417
987.00,50.456
988.00,50.415
989.00,50.400
990.00,50.397
991.00,50.378
992.00,50.405
993.00,50.358
994.00,50.341
995.00,50.340
996.00,50.321
997.00,50.323
998.00,50.273
999.00,50.315
1000.00,50.253
1001.00,50.251
1002.00,50.247
1003.00,50.253
1004.00,50.216
1005.00,50.198
1006.00,50.242
1007.00,50.198
1008.00,50.178
1009.00,50.174
1010.00,50.177
1011.00,50.160
1012.00,50.106
1013.00,50.125
1014.00,50.075
1015.00,50.095
1016.00,50.069
1017.00,50.077
1018.00,50.055
1019.00,50.023
1020.00,50.023
1021.00,50.009
1022.00,49.993
1023.00,49.934
1024.00,49.947
1025.00,49.933
1026.00,49.916
1027.00,49.881
1028.00,49.901
1029.00,49.880
1030.00,49.839
1031.00,49.865
1032.00,49.834
1033.00,49.832
1034.00,49.794
1035.00,49.777
1036.00,49.743
1037.00,49.719
1038.00,49.705
1039.00,49.698
1040.00,49.689
1041.00,49.629
1042.00,49.640
1043.00,49.629
1044.00,49.646
1045.00,49.604
1046.00,49.612
1047.00,49.632
1048.00,49.614
1049.00,49.647
1050.00,49.675
1051.00,49.694
1052.00,49.676
1053.00,49.713
1054.00,49.721
1055.00,49.721
1056.00,49.728
1057.00,49.751
1058.00,49.735
1059.00,49.701
1060.00,49.733
1061.00,49.721
1062.00,49.681
1063.00,49.696
1064.00,49.727
1065.00,49.721
1066.00,49.673
1067.00,49.687
1068.00,49.715
1069.00,49.644
1070.00,49.632
1071.00,49.606
1072.00,49.630
1073.00,49.575
1074.00,49.584
1075.00,49.578
1076.00,49.579
1077.00,49.569
1078.00,49.537
1079.00,49.551
1080.00,49.579
1081.00,49.574
1082.00,49.536
1083.00,49.521
1084.00,49.516
1085.00,49.500
1086.00,49.495
1087.00,49.498
1088.00,49.485
1089.00,49.471
1090.00,49.474
1091.00,49.484
1092.00,49.454
1093.00,49.431
1094.00,49.429
1095.00,49.411
1096.00,49.393
1097.00,49.407
1098.00,49.410
1099.00,49.393
1100.00,49.376
1101.00,49.379
1102.00,49.361
1103.00,49.365
1104.00,49.349
1105.00,49.352
1106.00,49.312
1107.00,49.329
1108.00,49.322
1109.00,49.315
1110.00,49.308
1111.00,49.292
1112.00,49.282
1113.00,49.269
1114.00,49.265
1115.00,49.279
1116.00,49.255
1117.00,49.238
1118.00,49.233
1119.00,49.248
1120.00,49.230
1121.00,49.233
1122.00,49.213
1123.00,49.212
1124.00,49.206
1125.00,49.209
1126.00,49.199
1127.00,49.197
1128.00,49.189
1129.00,49.185
1130.00,49.177
1131.00,49.168
1132.00,49.167
1133.00,49.161
1134.00,49.148
1135.00,49.139
1136.00,49.141
1137.00,49.135
1138.00,49.134
1139.00,49.129
1140.00,49.132
1141.00,49.131
1142.00,49.105
1143.00,49.130
1144.00,49.086
1145.00,49.087
1146.00,49.090
1147.00,49.080
1148.00,49.070
1149.00,49.094
1150.00,49.079
1151.00,49.072
1152.00,49.077
1153.00,49.076
1154.00,49.065
1155.00,49.064
1156.00,49.059
1157.00,49.071
1158.00,49.046
1159.00,49.063
1160.00,49.049
1161.00,49.053
1162.00,49.044
1163.00,49.049
1164.00,49.038
1165.00,49.034
1166.00,49.046
1167.00,49.040
1168.00,49.053
1169.00,49.050
1170.00,49.048
1171.00,49.033
1172.00,49.022
1173.00,49.025
1174.00,49.044
1175.00,49.031
1176.00,49.038
1177.00,49.034
1178.00,49.038
1179.00,49.044
1180.00,49.027
1181.00,49.029
1182.00,49.024
1183.00,49.018
1184.00,49.021
1185.00,49.044
1186.00,49.029
1187.00,49.059
1188.00,49.035
1189.00,49.031
1190.00,49.012
1191.00,48.999
1192.00,49.022
1193.00,49.016
1194.00,49.005
1195.00,48.986
1196.00,49.034
1197.00,49.035
1198.00,49.012
1199.00,49.001
1200.00,49.050
1201.00,49.045
1202.00,49.014
1203.00,49.055
1204.00,49.021
1205.00,49.025
1206.00,49.027
1207.00,49.037
1208.00,49.010
1209.00,49.020
1210.00,49.027
1211.00,49.017
1212.00,49.017
1213.00,49.001
1214.00,49.036
1215.00,49.017
1216.00,49.019
1217.00,49.029
1218.00,49.015
1219.00,49.019
1220.00,49.019
1221.00,49.035
1222.00,49.020
1223.00,49.038
1224.00,49.041
1225.00,49.030
1226.00,49.020
1227.00,49.004
1228.00,49.028
1229.00,49.033
1230.00,49.082
1231.00,49.082
1232.00,49.091
1233.00,49.080
1234.00,49.082
1235.00,49.079
1236.00,49.084
1237.00,49.084
1238.00,49.076
1239.00,49.084
1240.00,49.086
1241.00,49.090
1242.00,49.090
1243.00,49.122
1244.00,49.105
1245.00,49.132
1246.00,49.130
1247.00,49.129
1248.00,49.148
1249.00,49.128
1250.00,49.145
1251.00,49.151
1252.00,49.151
1253.00,49.149
1254.00,49.171
1255.00,49.179
1256.00,49.147
1257.00,49.136
1258.00,49.188
1259.00,49.169
1260.00,49.173
1261.00,49.181
1262.00,49.197
1263.00,49.205
1264.00,49.225
1265.00,49.207
1266.00,49.200
1267.00,49.220
1268.00,49.224
1269.00,49.234
1270.00,49.249
1271.00,49.233
1272.00,49.240
1273.00,49.261
1274.00,49.260
1275.00,49.263
1276.00,49.262
1277.00,49.277
1278.00,49.290
1279.00,49.284
1280.00,49.287
1281.00,49.301
1282.00,49.294
1283.00,49.288
1284.00,49.308
1285.00,49.294
1286.00,49.309
1287.00,49.308
1288.00,49.328
1289.00,49.318
1290.00,49.332
1291.00,49.355
1292.00,49.351
1293.00,49.343
1294.00,49.353
1295.00,49.386
1296.00,49.382
1297.00,49.388
1298.00,49.402
1299.00,49.384
1300.00,49.395
1301.00,49.376
1302.00,49.414
1303.00,49.416
1304.00,49.392
1305.00,49.425
1306.00,49.446
1307.00,49.447
1308.00,49.454
1309.00,49.474
1310.00,49.472
1311.00,49.444
1312.00,49.455
1313.00,49.486
1314.00,49.509
1315.00,49.503
1316.00,49.524
1317.00,49.550
1318.00,49.539
1319.00,49.529
1320.00,49.551
1321.00,49.718
1322.00,49.673
1323.00,49.665
1324.00,49.681
1325.00,49.655
1326.00,49.691
1327.00,49.700
1328.00,49.682
1329.00,49.673
1330.00,49.676
1331.00,49.699
1332.00,49.680
1333.00,49.689
1334.00,49.709
1335.00,49.756
1336.00,49.756
1337.00,49.802
1338.00,49.867
1339.00,49.907
1340.00,49.971
1341.00,50.033
1342.00,50.105
1343.00,50.153
1344.00,50.190
1345.00,50.245
1346.00,50.296
1347.00,50.307
1348.00,50.339
1349.00,50.349
1350.00,50.350
1351.00,50.404
1352.00,50.397
1353.00,50.572
1354.00,50.428
1355.00,50.346
1356.00,50.412
1357.00,50.449
1358.00,50.423
1359.00,50.492
1360.00,50.423
1361.00,50.455
1362.00,50.425
1363.00,50.597
1364.00,50.620
1365.00,50.487
1366.00,50.443
1367.00,50.439
1368.00,50.406
1369.00,50.255
1370.00,50.443
1371.00,50.399
1372.00,50.468
1373.00,50.471
1374.00,50.452
1375.00,50.474
1376.00,50.483
1377.00,50.444
1378.00,50.422
1379.00,50.480
1380.00,50.458
1381.00,50.419
1382.00,50.530
1383.00,50.457
1384.00,50.455
1385.00,50.449
1386.00,50.456
1387.00,50.433
1388.00,50.424
1389.00,50.395
1390.00,50.524
1391.00,50.471
1392.00,50.451
1393.00,50.367
1394.00,50.456
1395.00,50.482
1396.00,50.388
1397.00,50.386
1398.00,50.534
1399.00,50.425
1400.00,50.419
1401.00,50.438
1402.00,50.463
1403.00,50.415
1404.00,50.476
1405.00,50.496
1406.00,50.517
1407.00,50.517
1408.00,50.571
1409.00,50.514
1410.00,50.543
1411.00,50.538
1412.00,50.556
1413.00,50.526
1414.00,50.534
1415.00,50.542
1416.00,50.580
1417.00,50.576
1418.00,50.591
1419.00,50.624
1420.00,50.640
1421.00,50.637
1422.00,50.624
1423.00,50.681
1424.00,50.674
1425.00,50.682
1426.00,50.731
1427.00,50.734
1428.00,50.747
1429.00,50.810
1430.00,50.800
1431.00,50.843
1432.00,50.814
1433.00,50.834
1434.00,50.838
1435.00,50.862
1436.00,50.881
1437.00,50.883
1438.00,50.904
1439.00,50.949
1440.00,50.946
1441.00,50.971
1442.00,50.997
1443.00,51.027
1444.00,51.008
1445.00,51.040
1446.00,51.058
1447.00,51.064
1448.00,51.094
1449.00,51.108
1450.00,51.126
1451.00,51.132
1452.00,51.174
1453.00,51.194
1454.00,51.181
1455.00,51.201
1456.00,51.249
1457.00,51.229
1458.00,51.244
1459.00,51.278
1460.00,51.312
1461.00,51.318
1462.00,51.338
1463.00,51.350
1464.00,51.376
1465.00,51.360
1466.00,51.357
1467.00,51.411
1468.00,51.449
1469.00,51.408
1470.00,51.438
1471.00,51.472
1472.00,51.481
1473.00,51.474
1474.00,51.513
1475.00,51.563
1476.00,51.573
1477.00,51.535
1478.00,51.580
1479.00,51.580
1480.00,51.572
1481.00,51.611
1482.00,51.640
1483.00,51.663
1484.00,51.666
1485.00,51.688
1486.00,51.702
1487.00,51.696
1488.00,51.708
1489.00,51.730
1490.00,51.727
1491.00,51.728
1492.00,51.767
1493.00,51.760
1494.00,51.783
1495.00,51.801
1496.00,51.815
1497.00,51.817
1498.00,51.818
1499.00,51.827
1500.00,51.870
1501.00, 
1502.00, 
1503.00, 
1504.00, 
1505.00, 
1506.00, 
1507.00, 
1508.00, 
1509.00, 
1510.00, 
1511.00, 
1512.00, 
1513.00, 
1514.00, 
1515.00, 
1516.00, 
1517.00, 
1518.00, 
1519.00, 
1520.00, 
1521.00, 
1522.00, 
1523.00, 
1524.00, 
1525.00, 
1526.00, 
1527.00, 
1528.00, 
1529.00, 
1530.00, 
1531.00, 
1532.00, 
1533.00, 
1534.00, 
1535.00, 
1536.00, 
1537.00, 
1538.00, 
1539.00, 
1540.00, 
1541.00, 
1542.00, 
1543.00, 
1544.00, 
1545.00, 
1546.00, 
1547.00, 
1548.00, 
1549.00, 
1550.00, 
1551.00, 
1552.00, 
1553.00, 
1554.00, 
1555.00, 
1556.00, 
1557.00, 
1558.00, 
1559.00, 
1560.00, 
1561.00, 
1562.00, 
1563.00, 
1564.00, 
1565.00, 
1566.00, 
1567.00, 
1568.00, 
1569.00, 
1570.00, 
1571.00, 
1572.00, 
1573.00, 
1574.00, 
1575.00, 
1576.00, 
1577.00, 
1578.00, 
1579.00, 
1580.00, 
1581.00, 
1582.00, 
1583.00, 
1584.00, 
1585.00, 
1586.00, 
1587.00, 
1588.00, 
1589.00, 
1590.00, 
1591.00, 
1592.00, 
1593.00, 
1594.00, 
1595.00, 
1596.00, 
1597.00, 
1598.00, 
1599.00, 
1600.00, 
1601.00, 
1602.00, 
1603.00, 
1604.00, 
1605.00, 
1606.00, 
1607.00, 
1608.00, 
1609.00, 
1610.00, 
1611.00, 
1612.00, 
1613.00, 
1614.00, 
1615.00, 
1616.00, 
1617.00, 
1618.00, 
1619.00, 
1620.00, 
1621.00, 
1622.00, 
1623.00, 
1624.00, 
1625.00, 
1626.00, 
1627.00, 
1628.00, 
1629.00, 
1630.00, 
1631.00, 
1632.00, 
1633.00, 
1634.00, 
1635.00, 
1636.00, 
1637.00, 
1638.00, 
1639.00, 
1640.00, 
1641.00, 
1642.00, 
1643.00, 
1644.00, 
1645.00, 
1646.00, 
1647.00, 
1648.00, 
1649.00, 
1650.00, 
1651.00, 
1652.00, 
1653.00, 
1654.00, 
1655.00, 
1656.00, 
1657.00, 
1658.00, 
1659.00, 
1660.00, 
1661.00, 
1662.00, 
1663.00, 
1664.00, 
1665.00, 
1666.00, 
1667.00, 
1668.00, 
1669.00, 
1670.00, 
1671.00, 
1672.00, 
1673.00, 
1674.00, 
1675.00, 
1676.00, 
1677.00, 
1678.00, 
1679.00, 
1680.00, 
1681.00, 
1682.00, 
1683.00, 
1684.00, 
1685.00, 
1686.00, 
1687.00, 
1688.00, 
1689.00, 
1690.00, 
1691.00, 
1692.00, 
1693.00, 
1694.00, 
1695.00, 
1696.00, 
1697.00, 
1698.00, 
1699.00, 
1700.00, 
1701.00, 
1702.00, 
1703.00, 
1704.00, 
1705.00, 
1706.00, 
1707.00, 
1708.00, 
1709.00, 
1710.00, 
1711.00, 
1712.00, 
1713.00, 
1714.00, 
1715.00, 
1716.00, 
1717.00, 
1718.00, 
1719.00, 
1720.00, 
1721.00, 
1722.00, 
1723.00, 
1724.00, 
1725.00, 
1726.00, 
1727.00, 
1728.00, 
1729.00, 
1730.00, 
1731.00, 
1732.00, 
1733.00, 
1734.00, 
1735.00, 
1736.00, 
1737.00, 
1738.00, 
1739.00, 
1740.00, 
1741.00, 
1742.00, 
1743.00, 
1744.00, 
1745.00, 
1746.00, 
1747.00, 
1748.00, 
1749.00, 
1750.00, 
1751.00, 
1752.00, 
1753.00, 
1754.00, 
1755.00, 
1756.00, 
1757.00, 
1758.00, 
1759.00, 
1760.00, 
1761.00, 
1762.00, 
1763.00, 
1764.00, 
1765.00, 
1766.00, 
1767.00, 
1768.00, 
1769.00, 
1770.00, 
1771.00, 
1772.00, 
1773.00, 
1774.00, 
1775.00, 
1776.00, 
1777.00, 
1778.00, 
1779.00, 
1780.00, 
1781.00, 
1782.00, 
1783.00, 
1784.00, 
1785.00, 
1786.00, 
1787.00, 
1788.00, 
1789.00, 
1790.00, 
1791.00, 
1792.00, 
1793.00, 
1794.00, 
1795.00, 
1796.00, 
1797.00, 
1798.00, 
1799.00, 
1800.00, 
1801.00, 
1802.00, 
1803.00, 
1804.00, 
1805.00, 
1806.00, 
1807.00, 
1808.00, 
1809.00, 
1810.00, 
1811.00, 
1812.00, 
1813.00, 
1814.00, 
1815.00, 
1816.00, 
1817.00, 
1818.00, 
1819.00, 
1820.00, 
1821.00, 
1822.00, 
1823.00, 
1824.00, 
1825.00, 
1826.00, 
1827.00, 
1828.00, 
1829.00, 
1830.00, 
1831.00, 
1832.00, 
1833.00, 
1834.00, 
1835.00, 
1836.00, 
1837.00, 
1838.00, 
1839.00, 
1840.00, 
1841.00, 
1842.00, 
1843.00, 
1844.00, 
1845.00, 
1846.00, 
1847.00, 
1848.00, 
1849.00, 
1850.00, 
1851.00, 
1852.00, 
1853.00, 
1854.00, 
1855.00, 
1856.00, 
1857.00, 
1858.00, 
1859.00, 
1860.00, 
1861.00, 
1862.00, 
1863.00, 
1864.00, 
1865.00, 
1866.00, 
1867.00, 
1868.00, 
1869.00, 
1870.00, 
1871.00, 
1872.00, 
1873.00, 
1874.00, 
1875.00, 
1876.00, 
1877.00, 
1878.00, 
1879.00, 
1880.00, 
1881.00, 
1882.00, 
1883.00, 
1884.00, 
1885.00, 
1886.00, 
1887.00, 
1888.00, 
1889.00, 
1890.00, 
1891.00, 
1892.00, 
1893.00, 
1894.00, 
1895.00, 
1896.00, 
1897.00, 
1898.00, 
1899.00, 
1900.00, 
1901.00, 
1902.00, 
1903.00, 
1904.00, 
1905.00, 
1906.00, 
1907.00, 
1908.00, 
1909.00, 
1910.00, 
1911.00, 
1912.00, 
1913.00, 
1914.00, 
1915.00, 
1916.00, 
1917.00, 
1918.00, 
1919.00, 
1920.00, 
1921.00, 
1922.00, 
1923.00, 
1924.00, 
1925.00, 
1926.00, 
1927.00, 
1928.00, 
1929.00, 
1930.00, 
1931.00, 
1932.00, 
1933.00, 
1934.00, 
1935.00, 
1936.00, 
1937.00, 
1938.00, 
1939.00, 
1940.00, 
1941.00, 
1942.00, 
1943.00, 
1944.00, 
1945.00, 
1946.00, 
1947.00, 
1948.00, 
1949.00, 
1950.00, 
1951.00, 
1952.00, 
1953.00, 
1954.00, 
1955.00, 
1956.00, 
1957.00, 
1958.00, 
1959.00, 
1960.00, 
1961.00, 
1962.00, 
1963.00, 
1964.00, 
1965.00, 
1966.00, 
1967.00, 
1968.00, 
1969.00, 
1970.00, 
1971.00, 
1972.00, 
1973.00, 
1974.00, 
1975.00, 
1976.00, 
1977.00, 
1978.00, 
1979.00, 
1980.00, 
1981.00, 
1982.00, 
1983.00, 
1984.00, 
1985.00, 
1986.00, 
1987.00, 
1988.00, 
1989.00, 
1990.00, 
1991.00, 
1992.00, 
1993.00, 
1994.00, 
1995.00, 
1996.00, 
1997.00, 
1998.00, 
1999.00, 
2000.00, 
2001.00, 
2002.00, 
2003.00, 
2004.00, 
2005.00, 
2006.00, 
2007.00, 
2008.00, 
2009.00, 
2010.00, 
2011.00, 
2012.00, 
2013.00, 
2014.00, 
2015.00, 
2016.00, 
2017.00, 
2018.00, 
2019.00, 
2020.00, 
2021.00, 
2022.00, 
2023.00, 
2024.00, 
2025.00, 
2026.00, 
2027.00, 
2028.00, 
2029.00, 
2030.00, 
2031.00, 
2032.00, 
2033.00, 
2034.00, 
2035.00, 
2036.00, 
2037.00, 
2038.00, 
2039.00, 
2040.00, 
2041.00, 
2042.00, 
2043.00, 
2044.00, 
2045.00, 
2046.00, 
2047.00, 
2048.00, 
2049.00, 
2050.00, 
2051.00, 
2052.00, 
2053.00, 
2054.00, 
2055.00, 
2056.00, 
2057.00, 
2058.00, 
2059.00, 
2060.00, 
2061.00, 
2062.00, 
2063.00, 
2064.00, 
2065.00, 
2066.00, 
2067.00, 
2068.00, 
2069.00, 
2070.00, 
2071.00, 
2072.00, 
2073.00, 
2074.00, 
2075.00, 
2076.00, 
2077.00, 
2078.00, 
2079.00, 
2080.00, 
2081.00, 
2082.00, 
2083.00, 
2084.00, 
2085.00, 
2086.00, 
2087.00, 
2088.00, 
2089.00, 
2090.00, 
2091.00, 
2092.00, 
2093.00, 
2094.00, 
2095.00, 
2096.00, 
2097.00, 
2098.00, 
2099.00, 
2100.00, 
2101.00, 
2102.00, 
2103.00, 
2104.00, 
2105.00, 
2106.00, 
2107.00, 
2108.00, 
2109.00, 
2110.00, 
2111.00, 
2112.00, 
2113.00, 
2114.00, 
2115.00, 
2116.00, 
2117.00, 
2118.00, 
2119.00, 
2120.00, 
2121.00, 
2122.00, 
2123.00, 
2124.00, 
2125.00, 
2126.00, 
2127.00, 
2128.00, 
2129.00, 
2130.00, 
2131.00, 
2132.00, 
2133.00, 
2134.00, 
2135.00, 
2136.00, 
2137.00, 
2138.00, 
2139.00, 
2140.00, 
2141.00, 
2142.00, 
2143.00, 
2144.00, 
2145.00, 
2146.00, 
2147.00, 
2148.00, 
2149.00, 
2150.00, 
2151.00, 
2152.00, 
2153.00, 
2154.00, 
2155.00, 
2156.00, 
2157.00, 
2158.00, 
2159.00, 
2160.00, 
2161.00, 
2162.00, 
2163.00, 
2164.00, 
2165.00, 
2166.00, 
2167.00, 
2168.00, 
2169.00, 
2170.00, 
2171.00, 
2172.00, 
2173.00, 
2174.00, 
2175.00, 
2176.00, 
2177.00, 
2178.00, 
2179.00, 
2180.00, 
2181.00, 
2182.00, 
2183.00, 
2184.00, 
2185.00, 
2186.00, 
2187.00, 
2188.00, 
2189.00, 
2190.00, 
2191.00, 
2192.00, 
2193.00, 
2194.00, 
2195.00, 
2196.00, 
2197.00, 
2198.00, 
2199.00, 
2200.00, 
2201.00, 
2202.00, 
2203.00, 
2204.00, 
2205.00, 
2206.00, 
2207.00, 
2208.00, 
2209.00, 
2210.00, 
2211.00, 
2212.00, 
2213.00, 
2214.00, 
2215.00, 
2216.00, 
2217.00, 
2218.00, 
2219.00, 
2220.00, 
2221.00, 
2222.00, 
2223.00, 
2224.00, 
2225.00, 
2226.00, 
2227.00, 
2228.00, 
2229.00, 
2230.00, 
2231.00, 
2232.00, 
2233.00, 
2234.00, 
2235.00, 
2236.00, 
2237.00, 
2238.00, 
2239.00, 
2240.00, 
2241.00, 
2242.00, 
2243.00, 
2244.00, 
2245.00, 
2246.00, 
2247.00, 
2248.00, 
2249.00, 
2250.00, 
2251.00, 
2252.00, 
2253.00, 
2254.00, 
2255.00, 
2256.00, 
2257.00, 
2258.00, 
2259.00, 
2260.00, 
2261.00, 
2262.00, 
2263.00, 
2264.00, 
2265.00, 
2266.00, 
2267.00, 
2268.00, 
2269.00, 
2270.00, 
2271.00, 
2272.00, 
2273.00, 
2274.00, 
2275.00, 
2276.00, 
2277.00, 
2278.00, 
2279.00, 
2280.00, 
2281.00, 
2282.00, 
2283.00, 
2284.00, 
2285.00, 
2286.00, 
2287.00, 
2288.00, 
2289.00, 
2290.00, 
2291.00, 
2292.00, 
2293.00, 
2294.00, 
2295.00, 
2296.00, 
2297.00, 
2298.00, 
2299.00, 
2300.00, 
2301.00, 
2302.00, 
2303.00, 
2304.00, 
2305.00, 
2306.00, 
2307.00, 
2308.00, 
2309.00, 
2310.00, 
2311.00, 
2312.00, 
2313.00, 
2314.00, 
2315.00, 
2316.00, 
2317.00, 
2318.00, 
2319.00, 
2320.00, 
2321.00, 
2322.00, 
2323.00, 
2324.00, 
2325.00, 
2326.00, 
2327.00, 
2328.00, 
2329.00, 
2330.00, 
2331.00, 
2332.00, 
2333.00, 
2334.00, 
2335.00, 
2336.00, 
2337.00, 
2338.00, 
2339.00, 
2340.00, 
2341.00, 
2342.00, 
2343.00, 
2344.00, 
2345.00, 
2346.00, 
2347.00, 
2348.00, 
2349.00, 
2350.00, 
2351.00, 
2352.00, 
2353.00, 
2354.00, 
2355.00, 
2356.00, 
2357.00, 
2358.00, 
2359.00, 
2360.00, 
2361.00, 
2362.00, 
2363.00, 
2364.00, 
2365.00, 
2366.00, 
2367.00, 
2368.00, 
2369.00, 
2370.00, 
2371.00, 
2372.00, 
2373.00, 
2374.00, 
2375.00, 
2376.00, 
2377.00, 
2378.00, 
2379.00, 
2380.00, 
2381.00, 
2382.00, 
2383.00, 
2384.00, 
2385.00, 
2386.00, 
2387.00, 
2388.00, 
2389.00, 
2390.00, 
2391.00, 
2392.00, 
2393.00, 
2394.00, 
2395.00, 
2396.00, 
2397.00, 
2398.00, 
2399.00, 
2400.00, 
2401.00, 
2402.00, 
2403.00, 
2404.00, 
2405.00, 
2406.00, 
2407.00, 
2408.00, 
2409.00, 
2410.00, 
2411.00, 
2412.00, 
2413.00, 
2414.00, 
2415.00, 
2416.00, 
2417.00, 
2418.00, 
2419.00, 
2420.00, 
2421.00, 
2422.00, 
2423.00, 
2424.00, 
2425.00, 
2426.00, 
2427.00, 
2428.00, 
2429.00, 
2430.00, 
2431.00, 
2432.00, 
2433.00, 
2434.00, 
2435.00, 
2436.00, 
2437.00, 
2438.00, 
2439.00, 
2440.00, 
2441.00, 
2442.00, 
2443.00, 
2444.00, 
2445.00, 
2446.00, 
2447.00, 
2448.00, 
2449.00, 
2450.00, 
2451.00, 
2452.00, 
2453.00, 
2454.00, 
2455.00, 
2456.00, 
2457.00, 
2458.00, 
2459.00, 
2460.00, 
2461.00, 
2462.00, 
2463.00, 
2464.00, 
2465.00, 
2466.00, 
2467.00, 
2468.00, 
2469.00, 
2470.00, 
2471.00, 
2472.00, 
2473.00, 
2474.00, 
2475.00, 
2476.00, 
2477.00, 
2478.00, 
2479.00, 
2480.00, 
2481.00, 
2482.00, 
2483.00, 
2484.00, 
2485.00, 
2486.00, 
2487.00, 
2488.00, 
2489.00, 
2490.00, 
2491.00, 
2492.00, 
2493.00, 
2494.00, 
2495.00, 
2496.00, 
2497.00, 
2498.00, 
2499.00, 
2500.00, 
2501.00, 
2502.00, 
2503.00, 
2504.00, 
2505.00, 
2506.00, 
2507.00, 
2508.00, 
2509.00, 
2510.00, 
2511.00, 
2512.00, 
2513.00, 
2514.00, 
2515.00, 
2516.00, 
2517.00, 
2518.00, 
2519.00, 
2520.00, 
2521.00, 
2522.00, 
2523.00, 
2524.00, 
2525.00, 
2526.00, 
2527.00, 
2528.00, 
2529.00, 
2530.00, 
2531.00, 
2532.00, 
2533.00, 
2534.00, 
2535.00, 
2536.00, 
2537.00, 
2538.00, 
2539.00, 
2540.00, 
2541.00, 
2542.00, 
2543.00, 
2544.00, 
2545.00, 
2546.00, 
2547.00, 
2548.00, 
2549.00, 
2550.00, 
2551.00, 
2552.00, 
2553.00, 
2554.00, 
2555.00, 
2556.00, 
2557.00, 
2558.00, 
2559.00, 
2560.00, 
2561.00, 
2562.00, 
2563.00, 
2564.00, 
2565.00, 
2566.00, 
2567.00, 
2568.00, 
2569.00, 
2570.00, 
2571.00, 
2572.00, 
2573.00, 
2574.00, 
2575.00, 
2576.00, 
2577.00, 
2578.00, 
2579.00, 
2580.00, 
2581.00, 
2582.00, 
2583.00, 
2584.00, 
2585.00, 
2586.00, 
2587.00, 
2588.00, 
2589.00, 
2590.00, 
2591.00, 
2592.00, 
2593.00, 
2594.00, 
2595.00, 
2596.00, 
2597.00, 
2598.00, 
2599.00, 
2600.00, 
