"1cP5 - RawData"
"Wavelength nm.","T%"
200.00,0.002
201.00,0.002
202.00,0.002
203.00,0.000
204.00,0.003
205.00,0.001
206.00,0.003
207.00,0.003
208.00,0.002
209.00,0.001
210.00,0.000
211.00,0.000
212.00,0.003
213.00,0.000
214.00,0.000
215.00,-0.001
216.00,0.002
217.00,-0.000
218.00,0.002
219.00,0.001
220.00,0.003
221.00,0.001
222.00,0.001
223.00,-0.001
224.00,-0.001
225.00,0.001
226.00,0.001
227.00,-0.001
228.00,0.001
229.00,0.004
230.00,0.002
231.00,-0.002
232.00,0.001
233.00,-0.001
234.00,-0.000
235.00,0.001
236.00,-0.000
237.00,-0.000
238.00,0.001
239.00,0.001
240.00,0.003
241.00,-0.000
242.00,0.001
243.00,0.001
244.00,-0.001
245.00,0.002
246.00,0.001
247.00,0.000
248.00,0.001
249.00,0.000
250.00,-0.000
251.00,0.001
252.00,0.001
253.00,-0.000
254.00,0.000
255.00,-0.001
256.00,0.001
257.00,0.002
258.00,0.000
259.00,0.001
260.00,-0.000
261.00,0.002
262.00,-0.001
263.00,0.001
264.00,0.002
265.00,0.001
266.00,-0.003
267.00,-0.001
268.00,-0.000
269.00,0.001
270.00,0.002
271.00,0.001
272.00,-0.000
273.00,-0.000
274.00,0.001
275.00,0.002
276.00,0.001
277.00,-0.001
278.00,0.001
279.00,0.000
280.00,0.000
281.00,0.002
282.00,-0.001
283.00,0.002
284.00,0.002
285.00,-0.001
286.00,0.001
287.00,0.001
288.00,0.001
289.00,0.001
290.00,-0.001
291.00,-0.000
292.00,0.000
293.00,0.000
294.00,0.002
295.00,0.001
296.00,-0.000
297.00,-0.000
298.00,-0.000
299.00,0.000
300.00,0.001
301.00,0.001
302.00,0.001
303.00,-0.001
304.00,-0.000
305.00,-0.000
306.00,0.002
307.00,0.004
308.00,0.005
309.00,0.014
310.00,0.021
311.00,0.030
312.00,0.050
313.00,0.075
314.00,0.106
315.00,0.155
316.00,0.228
317.00,0.328
318.00,0.445
319.00,0.597
320.00,0.787
321.00,1.024
322.00,1.307
323.00,1.653
324.00,2.026
325.00,2.463
326.00,2.912
327.00,3.465
328.00,4.042
329.00,4.666
330.00,5.350
331.00,6.034
332.00,6.786
333.00,7.576
334.00,8.334
335.00,9.186
336.00,9.995
337.00,10.881
338.00,11.729
339.00,12.509
340.00,13.342
341.00,14.122
342.00,14.862
343.00,15.604
344.00,16.395
345.00,17.101
346.00,17.731
347.00,18.382
348.00,19.008
349.00,19.582
350.00,20.145
351.00,20.593
352.00,21.099
353.00,21.514
354.00,21.945
355.00,22.352
356.00,22.694
357.00,23.049
358.00,23.383
359.00,23.684
360.00,23.975
361.00,24.228
362.00,24.477
363.00,24.726
364.00,24.867
365.00,25.026
366.00,25.166
367.00,25.300
368.00,25.363
369.00,25.424
370.00,25.541
371.00,25.539
372.00,25.508
373.00,25.591
374.00,25.520
375.00,25.496
376.00,25.428
377.00,25.341
378.00,25.239
379.00,25.128
380.00,25.172
381.00,25.177
382.00,25.187
383.00,25.216
384.00,25.315
385.00,25.405
386.00,25.487
387.00,25.569
388.00,25.702
389.00,25.751
390.00,25.800
391.00,25.883
392.00,25.932
393.00,25.947
394.00,26.045
395.00,26.041
396.00,26.007
397.00,26.071
398.00,26.091
399.00,26.127
400.00,26.125
401.00,26.178
402.00,26.174
403.00,26.149
404.00,26.163
405.00,26.125
406.00,26.139
407.00,26.099
408.00,26.150
409.00,26.046
410.00,25.975
411.00,25.993
412.00,25.946
413.00,26.039
414.00,25.957
415.00,25.978
416.00,26.018
417.00,25.955
418.00,26.001
419.00,26.058
420.00,26.086
421.00,26.161
422.00,26.151
423.00,26.194
424.00,26.243
425.00,26.259
426.00,26.269
427.00,26.377
428.00,26.355
429.00,26.432
430.00,26.484
431.00,26.526
432.00,26.568
433.00,26.613
434.00,26.665
435.00,26.740
436.00,26.816
437.00,26.920
438.00,26.972
439.00,26.987
440.00,27.087
441.00,27.125
442.00,27.265
443.00,27.317
444.00,27.415
445.00,27.498
446.00,27.612
447.00,27.661
448.00,27.769
449.00,27.898
450.00,28.000
451.00,28.077
452.00,28.260
453.00,28.360
454.00,28.421
455.00,28.538
456.00,28.692
457.00,28.776
458.00,28.874
459.00,28.980
460.00,29.169
461.00,29.274
462.00,29.377
463.00,29.533
464.00,29.655
465.00,29.795
466.00,29.912
467.00,30.023
468.00,30.100
469.00,30.187
470.00,30.316
471.00,30.417
472.00,30.512
473.00,30.609
474.00,30.762
475.00,30.866
476.00,30.975
477.00,31.095
478.00,31.215
479.00,31.411
480.00,31.515
481.00,31.695
482.00,31.786
483.00,31.960
484.00,32.136
485.00,32.168
486.00,32.375
487.00,32.526
488.00,32.684
489.00,32.821
490.00,32.990
491.00,33.073
492.00,33.200
493.00,33.347
494.00,33.518
495.00,33.561
496.00,33.638
497.00,33.784
498.00,33.899
499.00,33.973
500.00,34.171
501.00,34.269
502.00,34.353
503.00,34.486
504.00,34.619
505.00,34.695
506.00,34.732
507.00,34.920
508.00,35.074
509.00,35.228
510.00,35.399
511.00,35.412
512.00,35.581
513.00,35.719
514.00,35.798
515.00,36.007
516.00,36.044
517.00,36.050
518.00,36.246
519.00,36.302
520.00,36.285
521.00,36.430
522.00,36.546
523.00,36.610
524.00,36.702
525.00,36.797
526.00,36.883
527.00,36.960
528.00,37.004
529.00,37.120
530.00,37.230
531.00,37.355
532.00,37.421
533.00,37.535
534.00,37.577
535.00,37.696
536.00,37.746
537.00,37.854
538.00,37.895
539.00,37.970
540.00,38.030
541.00,38.085
542.00,38.133
543.00,38.167
544.00,38.274
545.00,38.307
546.00,38.301
547.00,38.466
548.00,38.525
549.00,38.574
550.00,38.666
551.00,38.757
552.00,38.801
553.00,38.818
554.00,38.896
555.00,38.913
556.00,38.989
557.00,39.019
558.00,39.052
559.00,39.139
560.00,39.198
561.00,39.244
562.00,39.305
563.00,39.382
564.00,39.379
565.00,39.383
566.00,39.424
567.00,39.458
568.00,39.517
569.00,39.563
570.00,39.526
571.00,39.564
572.00,39.573
573.00,39.594
574.00,39.659
575.00,39.642
576.00,39.662
577.00,39.704
578.00,39.803
579.00,39.865
580.00,39.872
581.00,40.010
582.00,40.080
583.00,40.076
584.00,40.158
585.00,40.213
586.00,40.250
587.00,40.323
588.00,40.322
589.00,40.296
590.00,40.428
591.00,40.394
592.00,40.363
593.00,40.436
594.00,40.552
595.00,40.654
596.00,40.642
597.00,40.718
598.00,40.730
599.00,40.664
600.00,40.741
601.00,40.806
602.00,40.809
603.00,40.880
604.00,40.869
605.00,40.936
606.00,40.948
607.00,40.972
608.00,40.999
609.00,41.077
610.00,41.195
611.00,41.060
612.00,41.131
613.00,41.229
614.00,41.227
615.00,41.236
616.00,41.376
617.00,41.351
618.00,41.296
619.00,41.335
620.00,41.429
621.00,41.455
622.00,41.499
623.00,41.558
624.00,41.611
625.00,41.639
626.00,41.701
627.00,41.763
628.00,41.637
629.00,41.818
630.00,41.967
631.00,41.920
632.00,41.984
633.00,42.036
634.00,42.170
635.00,42.242
636.00,42.254
637.00,42.288
638.00,42.363
639.00,42.431
640.00,42.435
641.00,42.502
642.00,42.512
643.00,42.486
644.00,42.732
645.00,42.724
646.00,42.854
647.00,42.910
648.00,42.928
649.00,42.935
650.00,42.955
651.00,43.087
652.00,43.182
653.00,43.152
654.00,43.185
655.00,43.385
656.00,43.589
657.00,43.437
658.00,43.557
659.00,43.696
660.00,43.771
661.00,43.756
662.00,43.742
663.00,43.909
664.00,44.098
665.00,44.212
666.00,44.136
667.00,44.240
668.00,44.216
669.00,44.428
670.00,44.630
671.00,44.557
672.00,44.619
673.00,44.726
674.00,44.733
675.00,44.742
676.00,44.969
677.00,45.093
678.00,45.010
679.00,45.062
680.00,45.209
681.00,45.485
682.00,45.365
683.00,45.288
684.00,45.684
685.00,45.702
686.00,45.400
687.00,45.507
688.00,45.643
689.00,45.728
690.00,45.885
691.00,46.141
692.00,45.980
693.00,45.933
694.00,46.009
695.00,46.238
696.00,46.144
697.00,46.198
698.00,46.155
699.00,46.588
700.00,46.877
701.00,46.606
702.00,46.680
703.00,46.876
704.00,46.882
705.00,46.703
706.00,46.888
707.00,46.954
708.00,46.804
709.00,47.105
710.00,47.364
711.00,47.165
712.00,47.152
713.00,47.145
714.00,47.235
715.00,47.454
716.00,47.181
717.00,47.413
718.00,47.574
719.00,47.441
720.00,47.370
721.00,52.110
722.00,52.084
723.00,52.120
724.00,52.039
725.00,52.140
726.00,52.075
727.00,52.160
728.00,52.237
729.00,52.098
730.00,52.252
731.00,52.157
732.00,52.135
733.00,52.273
734.00,52.131
735.00,52.199
736.00,52.229
737.00,52.286
738.00,52.267
739.00,52.271
740.00,52.305
741.00,52.393
742.00,52.477
743.00,52.427
744.00,52.341
745.00,52.385
746.00,52.358
747.00,52.305
748.00,52.285
749.00,52.290
750.00,52.318
751.00,52.293
752.00,52.289
753.00,52.205
754.00,52.243
755.00,52.272
756.00,52.294
757.00,52.245
758.00,52.295
759.00,52.251
760.00,52.276
761.00,52.337
762.00,52.268
763.00,52.410
764.00,52.264
765.00,52.242
766.00,52.256
767.00,52.251
768.00,52.259
769.00,52.325
770.00,52.315
771.00,52.175
772.00,52.389
773.00,52.219
774.00,52.312
775.00,52.361
776.00,52.312
777.00,52.328
778.00,52.186
779.00,52.328
780.00,52.176
781.00,52.249
782.00,52.256
783.00,52.179
784.00,52.143
785.00,52.204
786.00,52.190
787.00,52.159
788.00,52.082
789.00,52.181
790.00,52.031
791.00,52.087
792.00,52.078
793.00,52.080
794.00,52.007
795.00,52.039
796.00,51.985
797.00,51.902
798.00,51.951
799.00,51.853
800.00,51.888
801.00,51.865
802.00,51.892
803.00,51.842
804.00,51.797
805.00,51.918
806.00,51.800
807.00,51.763
808.00,51.802
809.00,51.783
810.00,51.804
811.00,51.671
812.00,51.704
813.00,51.601
814.00,51.719
815.00,51.606
816.00,51.762
817.00,51.646
818.00,51.540
819.00,51.544
820.00,51.477
821.00,51.488
822.00,51.489
823.00,51.410
824.00,51.418
825.00,51.435
826.00,51.373
827.00,51.469
828.00,51.417
829.00,51.449
830.00,51.334
831.00,53.663
832.00,53.672
833.00,53.655
834.00,53.635
835.00,53.623
836.00,53.612
837.00,53.537
838.00,53.559
839.00,53.539
840.00,53.473
841.00,53.522
842.00,53.448
843.00,53.459
844.00,53.431
845.00,53.393
846.00,53.390
847.00,53.317
848.00,53.343
849.00,53.287
850.00,53.287
851.00,53.205
852.00,53.217
853.00,53.171
854.00,53.124
855.00,53.078
856.00,53.078
857.00,53.048
858.00,52.970
859.00,52.998
860.00,52.978
861.00,52.997
862.00,52.941
863.00,52.915
864.00,52.895
865.00,52.913
866.00,52.909
867.00,52.897
868.00,52.872
869.00,52.843
870.00,52.866
871.00,52.831
872.00,52.829
873.00,52.821
874.00,52.810
875.00,52.771
876.00,52.759
877.00,52.736
878.00,52.740
879.00,52.722
880.00,52.693
881.00,52.678
882.00,52.717
883.00,52.674
884.00,52.633
885.00,52.583
886.00,52.616
887.00,52.556
888.00,52.529
889.00,52.485
890.00,52.581
891.00,52.459
892.00,52.481
893.00,52.445
894.00,52.441
895.00,52.419
896.00,52.397
897.00,52.368
898.00,52.311
899.00,52.332
900.00,52.303
901.00,52.293
902.00,52.322
903.00,52.290
904.00,52.250
905.00,52.228
906.00,52.244
907.00,52.212
908.00,52.143
909.00,52.151
910.00,52.123
911.00,52.137
912.00,52.085
913.00,52.029
914.00,51.986
915.00,52.096
916.00,52.018
917.00,51.996
918.00,51.987
919.00,51.951
920.00,51.904
921.00,51.930
922.00,51.914
923.00,51.882
924.00,51.859
925.00,51.852
926.00,51.855
927.00,51.846
928.00,51.780
929.00,51.757
930.00,51.856
931.00,51.724
932.00,51.674
933.00,51.693
934.00,51.681
935.00,51.653
936.00,51.628
937.00,51.607
938.00,51.611
939.00,51.599
940.00,51.563
941.00,51.543
942.00,51.514
943.00,51.522
944.00,51.481
945.00,51.489
946.00,51.477
947.00,51.437
948.00,51.398
949.00,51.409
950.00,51.368
951.00,51.354
952.00,51.291
953.00,51.276
954.00,51.270
955.00,51.226
956.00,51.217
957.00,51.193
958.00,51.213
959.00,51.137
960.00,51.139
961.00,51.129
962.00,51.128
963.00,51.073
964.00,51.091
965.00,51.085
966.00,51.059
967.00,51.049
968.00,51.027
969.00,51.059
970.00,51.019
971.00,51.068
972.00,50.997
973.00,51.066
974.00,51.048
975.00,51.001
976.00,51.056
977.00,51.022
978.00,51.083
979.00,51.025
980.00,51.047
981.00,51.047
982.00,51.026
983.00,51.026
984.00,51.002
985.00,51.010
986.00,50.985
987.00,51.021
988.00,51.020
989.00,50.951
990.00,50.953
991.00,50.965
992.00,50.956
993.00,50.922
994.00,50.905
995.00,50.890
996.00,50.874
997.00,50.886
998.00,50.848
999.00,50.871
1000.00,50.823
1001.00,50.821
1002.00,50.807
1003.00,50.797
1004.00,50.771
1005.00,50.737
1006.00,50.776
1007.00,50.715
1008.00,50.725
1009.00,50.707
1010.00,50.708
1011.00,50.699
1012.00,50.668
1013.00,50.683
1014.00,50.629
1015.00,50.660
1016.00,50.617
1017.00,50.610
1018.00,50.581
1019.00,50.569
1020.00,50.562
1021.00,50.564
1022.00,50.545
1023.00,50.480
1024.00,50.493
1025.00,50.478
1026.00,50.480
1027.00,50.450
1028.00,50.446
1029.00,50.418
1030.00,50.394
1031.00,50.409
1032.00,50.361
1033.00,50.368
1034.00,50.357
1035.00,50.322
1036.00,50.280
1037.00,50.287
1038.00,50.248
1039.00,50.211
1040.00,50.204
1041.00,50.181
1042.00,50.190
1043.00,50.150
1044.00,50.194
1045.00,50.177
1046.00,50.176
1047.00,50.187
1048.00,50.196
1049.00,50.216
1050.00,50.222
1051.00,50.255
1052.00,50.269
1053.00,50.276
1054.00,50.264
1055.00,50.278
1056.00,50.276
1057.00,50.288
1058.00,50.265
1059.00,50.251
1060.00,50.273
1061.00,50.248
1062.00,50.224
1063.00,50.246
1064.00,50.238
1065.00,50.229
1066.00,50.209
1067.00,50.219
1068.00,50.247
1069.00,50.203
1070.00,50.200
1071.00,50.181
1072.00,50.212
1073.00,50.177
1074.00,50.181
1075.00,50.143
1076.00,50.149
1077.00,50.129
1078.00,50.101
1079.00,50.109
1080.00,50.118
1081.00,50.108
1082.00,50.135
1083.00,50.149
1084.00,50.075
1085.00,50.089
1086.00,50.077
1087.00,50.068
1088.00,50.055
1089.00,50.033
1090.00,50.035
1091.00,50.031
1092.00,50.031
1093.00,50.017
1094.00,49.987
1095.00,49.963
1096.00,49.972
1097.00,49.978
1098.00,49.986
1099.00,49.958
1100.00,49.953
1101.00,49.949
1102.00,49.928
1103.00,49.936
1104.00,49.917
1105.00,49.900
1106.00,49.871
1107.00,49.907
1108.00,49.885
1109.00,49.876
1110.00,49.872
1111.00,49.858
1112.00,49.853
1113.00,49.842
1114.00,49.842
1115.00,49.848
1116.00,49.833
1117.00,49.798
1118.00,49.812
1119.00,49.806
1120.00,49.789
1121.00,49.813
1122.00,49.794
1123.00,49.786
1124.00,49.790
1125.00,49.787
1126.00,49.776
1127.00,49.776
1128.00,49.763
1129.00,49.752
1130.00,49.742
1131.00,49.727
1132.00,49.714
1133.00,49.716
1134.00,49.729
1135.00,49.701
1136.00,49.690
1137.00,49.715
1138.00,49.721
1139.00,49.692
1140.00,49.722
1141.00,49.707
1142.00,49.685
1143.00,49.721
1144.00,49.699
1145.00,49.677
1146.00,49.659
1147.00,49.661
1148.00,49.645
1149.00,49.677
1150.00,49.672
1151.00,49.683
1152.00,49.667
1153.00,49.657
1154.00,49.663
1155.00,49.669
1156.00,49.683
1157.00,49.685
1158.00,49.647
1159.00,49.654
1160.00,49.640
1161.00,49.637
1162.00,49.648
1163.00,49.634
1164.00,49.632
1165.00,49.624
1166.00,49.622
1167.00,49.622
1168.00,49.645
1169.00,49.640
1170.00,49.632
1171.00,49.610
1172.00,49.608
1173.00,49.617
1174.00,49.617
1175.00,49.615
1176.00,49.619
1177.00,49.611
1178.00,49.615
1179.00,49.619
1180.00,49.610
1181.00,49.616
1182.00,49.617
1183.00,49.614
1184.00,49.604
1185.00,49.620
1186.00,49.613
1187.00,49.616
1188.00,49.615
1189.00,49.638
1190.00,49.607
1191.00,49.603
1192.00,49.633
1193.00,49.608
1194.00,49.604
1195.00,49.593
1196.00,49.630
1197.00,49.633
1198.00,49.616
1199.00,49.606
1200.00,49.621
1201.00,49.617
1202.00,49.605
1203.00,49.620
1204.00,49.604
1205.00,49.612
1206.00,49.617
1207.00,49.617
1208.00,49.590
1209.00,49.608
1210.00,49.609
1211.00,49.623
1212.00,49.633
1213.00,49.595
1214.00,49.633
1215.00,49.611
1216.00,49.608
1217.00,49.637
1218.00,49.605
1219.00,49.623
1220.00,49.602
1221.00,49.625
1222.00,49.611
1223.00,49.632
1224.00,49.637
1225.00,49.630
1226.00,49.631
1227.00,49.612
1228.00,49.644
1229.00,49.649
1230.00,49.687
1231.00,49.663
1232.00,49.692
1233.00,49.694
1234.00,49.696
1235.00,49.708
1236.00,49.694
1237.00,49.690
1238.00,49.670
1239.00,49.693
1240.00,49.684
1241.00,49.685
1242.00,49.677
1243.00,49.717
1244.00,49.698
1245.00,49.713
1246.00,49.723
1247.00,49.729
1248.00,49.731
1249.00,49.718
1250.00,49.744
1251.00,49.731
1252.00,49.733
1253.00,49.725
1254.00,49.768
1255.00,49.778
1256.00,49.729
1257.00,49.729
1258.00,49.785
1259.00,49.762
1260.00,49.769
1261.00,49.792
1262.00,49.793
1263.00,49.780
1264.00,49.804
1265.00,49.814
1266.00,49.796
1267.00,49.807
1268.00,49.821
1269.00,49.826
1270.00,49.835
1271.00,49.814
1272.00,49.843
1273.00,49.860
1274.00,49.848
1275.00,49.859
1276.00,49.867
1277.00,49.867
1278.00,49.893
1279.00,49.874
1280.00,49.896
1281.00,49.917
1282.00,49.890
1283.00,49.904
1284.00,49.904
1285.00,49.888
1286.00,49.906
1287.00,49.915
1288.00,49.935
1289.00,49.906
1290.00,49.938
1291.00,49.954
1292.00,49.962
1293.00,49.949
1294.00,49.976
1295.00,49.998
1296.00,49.986
1297.00,49.992
1298.00,50.014
1299.00,50.000
1300.00,50.007
1301.00,49.994
1302.00,50.043
1303.00,50.039
1304.00,50.005
1305.00,50.048
1306.00,50.045
1307.00,50.052
1308.00,50.046
1309.00,50.055
1310.00,50.074
1311.00,50.069
1312.00,50.076
1313.00,50.085
1314.00,50.097
1315.00,50.103
1316.00,50.134
1317.00,50.146
1318.00,50.155
1319.00,50.148
1320.00,50.155
1321.00,50.325
1322.00,50.310
1323.00,50.293
1324.00,50.309
1325.00,50.271
1326.00,50.298
1327.00,50.312
1328.00,50.305
1329.00,50.291
1330.00,50.319
1331.00,50.311
1332.00,50.321
1333.00,50.343
1334.00,50.340
1335.00,50.397
1336.00,50.392
1337.00,50.415
1338.00,50.503
1339.00,50.533
1340.00,50.580
1341.00,50.654
1342.00,50.716
1343.00,50.750
1344.00,50.808
1345.00,50.859
1346.00,50.893
1347.00,50.917
1348.00,50.952
1349.00,50.958
1350.00,50.958
1351.00,50.970
1352.00,50.963
1353.00,51.006
1354.00,51.005
1355.00,51.094
1356.00,51.049
1357.00,51.041
1358.00,51.052
1359.00,51.088
1360.00,51.108
1361.00,51.168
1362.00,51.056
1363.00,51.136
1364.00,51.249
1365.00,51.073
1366.00,50.975
1367.00,51.072
1368.00,51.048
1369.00,50.953
1370.00,51.048
1371.00,51.016
1372.00,51.092
1373.00,51.094
1374.00,51.094
1375.00,51.078
1376.00,51.066
1377.00,51.046
1378.00,51.042
1379.00,51.099
1380.00,51.086
1381.00,51.119
1382.00,51.114
1383.00,51.124
1384.00,51.057
1385.00,51.034
1386.00,51.086
1387.00,51.095
1388.00,51.051
1389.00,51.021
1390.00,51.147
1391.00,51.083
1392.00,51.082
1393.00,51.083
1394.00,51.100
1395.00,51.112
1396.00,51.057
1397.00,50.993
1398.00,51.078
1399.00,51.075
1400.00,51.133
1401.00,51.090
1402.00,51.057
1403.00,51.075
1404.00,51.132
1405.00,51.125
1406.00,51.147
1407.00,51.148
1408.00,51.177
1409.00,51.132
1410.00,51.174
1411.00,51.162
1412.00,51.236
1413.00,51.171
1414.00,51.175
1415.00,51.230
1416.00,51.204
1417.00,51.227
1418.00,51.227
1419.00,51.249
1420.00,51.261
1421.00,51.288
1422.00,51.300
1423.00,51.334
1424.00,51.324
1425.00,51.351
1426.00,51.367
1427.00,51.385
1428.00,51.357
1429.00,51.404
1430.00,51.394
1431.00,51.434
1432.00,51.449
1433.00,51.458
1434.00,51.468
1435.00,51.480
1436.00,51.504
1437.00,51.502
1438.00,51.522
1439.00,51.554
1440.00,51.563
1441.00,51.572
1442.00,51.599
1443.00,51.649
1444.00,51.656
1445.00,51.657
1446.00,51.683
1447.00,51.696
1448.00,51.738
1449.00,51.734
1450.00,51.736
1451.00,51.760
1452.00,51.790
1453.00,51.791
1454.00,51.811
1455.00,51.842
1456.00,51.882
1457.00,51.867
1458.00,51.887
1459.00,51.927
1460.00,51.933
1461.00,51.921
1462.00,51.974
1463.00,51.962
1464.00,51.972
1465.00,52.001
1466.00,52.008
1467.00,52.055
1468.00,52.080
1469.00,52.059
1470.00,52.107
1471.00,52.108
1472.00,52.103
1473.00,52.148
1474.00,52.143
1475.00,52.189
1476.00,52.234
1477.00,52.198
1478.00,52.244
1479.00,52.229
1480.00,52.234
1481.00,52.276
1482.00,52.287
1483.00,52.286
1484.00,52.317
1485.00,52.329
1486.00,52.327
1487.00,52.342
1488.00,52.367
1489.00,52.380
1490.00,52.380
1491.00,52.394
1492.00,52.445
1493.00,52.409
1494.00,52.434
1495.00,52.455
1496.00,52.463
1497.00,52.444
1498.00,52.468
1499.00,52.483
1500.00,52.523
1501.00, 
1502.00, 
1503.00, 
1504.00, 
1505.00, 
1506.00, 
1507.00, 
1508.00, 
1509.00, 
1510.00, 
1511.00, 
1512.00, 
1513.00, 
1514.00, 
1515.00, 
1516.00, 
1517.00, 
1518.00, 
1519.00, 
1520.00, 
1521.00, 
1522.00, 
1523.00, 
1524.00, 
1525.00, 
1526.00, 
1527.00, 
1528.00, 
1529.00, 
1530.00, 
1531.00, 
1532.00, 
1533.00, 
1534.00, 
1535.00, 
1536.00, 
1537.00, 
1538.00, 
1539.00, 
1540.00, 
1541.00, 
1542.00, 
1543.00, 
1544.00, 
1545.00, 
1546.00, 
1547.00, 
1548.00, 
1549.00, 
1550.00, 
1551.00, 
1552.00, 
1553.00, 
1554.00, 
1555.00, 
1556.00, 
1557.00, 
1558.00, 
1559.00, 
1560.00, 
1561.00, 
1562.00, 
1563.00, 
1564.00, 
1565.00, 
1566.00, 
1567.00, 
1568.00, 
1569.00, 
1570.00, 
1571.00, 
1572.00, 
1573.00, 
1574.00, 
1575.00, 
1576.00, 
1577.00, 
1578.00, 
1579.00, 
1580.00, 
1581.00, 
1582.00, 
1583.00, 
1584.00, 
1585.00, 
1586.00, 
1587.00, 
1588.00, 
1589.00, 
1590.00, 
1591.00, 
1592.00, 
1593.00, 
1594.00, 
1595.00, 
1596.00, 
1597.00, 
1598.00, 
1599.00, 
1600.00, 
1601.00, 
1602.00, 
1603.00, 
1604.00, 
1605.00, 
1606.00, 
1607.00, 
1608.00, 
1609.00, 
1610.00, 
1611.00, 
1612.00, 
1613.00, 
1614.00, 
1615.00, 
1616.00, 
1617.00, 
1618.00, 
1619.00, 
1620.00, 
1621.00, 
1622.00, 
1623.00, 
1624.00, 
1625.00, 
1626.00, 
1627.00, 
1628.00, 
1629.00, 
1630.00, 
1631.00, 
1632.00, 
1633.00, 
1634.00, 
1635.00, 
1636.00, 
1637.00, 
1638.00, 
1639.00, 
1640.00, 
1641.00, 
1642.00, 
1643.00, 
1644.00, 
1645.00, 
1646.00, 
1647.00, 
1648.00, 
1649.00, 
1650.00, 
1651.00, 
1652.00, 
1653.00, 
1654.00, 
1655.00, 
1656.00, 
1657.00, 
1658.00, 
1659.00, 
1660.00, 
1661.00, 
1662.00, 
1663.00, 
1664.00, 
1665.00, 
1666.00, 
1667.00, 
1668.00, 
1669.00, 
1670.00, 
1671.00, 
1672.00, 
1673.00, 
1674.00, 
1675.00, 
1676.00, 
1677.00, 
1678.00, 
1679.00, 
1680.00, 
1681.00, 
1682.00, 
1683.00, 
1684.00, 
1685.00, 
1686.00, 
1687.00, 
1688.00, 
1689.00, 
1690.00, 
1691.00, 
1692.00, 
1693.00, 
1694.00, 
1695.00, 
1696.00, 
1697.00, 
1698.00, 
1699.00, 
1700.00, 
1701.00, 
1702.00, 
1703.00, 
1704.00, 
1705.00, 
1706.00, 
1707.00, 
1708.00, 
1709.00, 
1710.00, 
1711.00, 
1712.00, 
1713.00, 
1714.00, 
1715.00, 
1716.00, 
1717.00, 
1718.00, 
1719.00, 
1720.00, 
1721.00, 
1722.00, 
1723.00, 
1724.00, 
1725.00, 
1726.00, 
1727.00, 
1728.00, 
1729.00, 
1730.00, 
1731.00, 
1732.00, 
1733.00, 
1734.00, 
1735.00, 
1736.00, 
1737.00, 
1738.00, 
1739.00, 
1740.00, 
1741.00, 
1742.00, 
1743.00, 
1744.00, 
1745.00, 
1746.00, 
1747.00, 
1748.00, 
1749.00, 
1750.00, 
1751.00, 
1752.00, 
1753.00, 
1754.00, 
1755.00, 
1756.00, 
1757.00, 
1758.00, 
1759.00, 
1760.00, 
1761.00, 
1762.00, 
1763.00, 
1764.00, 
1765.00, 
1766.00, 
1767.00, 
1768.00, 
1769.00, 
1770.00, 
1771.00, 
1772.00, 
1773.00, 
1774.00, 
1775.00, 
1776.00, 
1777.00, 
1778.00, 
1779.00, 
1780.00, 
1781.00, 
1782.00, 
1783.00, 
1784.00, 
1785.00, 
1786.00, 
1787.00, 
1788.00, 
1789.00, 
1790.00, 
1791.00, 
1792.00, 
1793.00, 
1794.00, 
1795.00, 
1796.00, 
1797.00, 
1798.00, 
1799.00, 
1800.00, 
1801.00, 
1802.00, 
1803.00, 
1804.00, 
1805.00, 
1806.00, 
1807.00, 
1808.00, 
1809.00, 
1810.00, 
1811.00, 
1812.00, 
1813.00, 
1814.00, 
1815.00, 
1816.00, 
1817.00, 
1818.00, 
1819.00, 
1820.00, 
1821.00, 
1822.00, 
1823.00, 
1824.00, 
1825.00, 
1826.00, 
1827.00, 
1828.00, 
1829.00, 
1830.00, 
1831.00, 
1832.00, 
1833.00, 
1834.00, 
1835.00, 
1836.00, 
1837.00, 
1838.00, 
1839.00, 
1840.00, 
1841.00, 
1842.00, 
1843.00, 
1844.00, 
1845.00, 
1846.00, 
1847.00, 
1848.00, 
1849.00, 
1850.00, 
1851.00, 
1852.00, 
1853.00, 
1854.00, 
1855.00, 
1856.00, 
1857.00, 
1858.00, 
1859.00, 
1860.00, 
1861.00, 
1862.00, 
1863.00, 
1864.00, 
1865.00, 
1866.00, 
1867.00, 
1868.00, 
1869.00, 
1870.00, 
1871.00, 
1872.00, 
1873.00, 
1874.00, 
1875.00, 
1876.00, 
1877.00, 
1878.00, 
1879.00, 
1880.00, 
1881.00, 
1882.00, 
1883.00, 
1884.00, 
1885.00, 
1886.00, 
1887.00, 
1888.00, 
1889.00, 
1890.00, 
1891.00, 
1892.00, 
1893.00, 
1894.00, 
1895.00, 
1896.00, 
1897.00, 
1898.00, 
1899.00, 
1900.00, 
1901.00, 
1902.00, 
1903.00, 
1904.00, 
1905.00, 
1906.00, 
1907.00, 
1908.00, 
1909.00, 
1910.00, 
1911.00, 
1912.00, 
1913.00, 
1914.00, 
1915.00, 
1916.00, 
1917.00, 
1918.00, 
1919.00, 
1920.00, 
1921.00, 
1922.00, 
1923.00, 
1924.00, 
1925.00, 
1926.00, 
1927.00, 
1928.00, 
1929.00, 
1930.00, 
1931.00, 
1932.00, 
1933.00, 
1934.00, 
1935.00, 
1936.00, 
1937.00, 
1938.00, 
1939.00, 
1940.00, 
1941.00, 
1942.00, 
1943.00, 
1944.00, 
1945.00, 
1946.00, 
1947.00, 
1948.00, 
1949.00, 
1950.00, 
1951.00, 
1952.00, 
1953.00, 
1954.00, 
1955.00, 
1956.00, 
1957.00, 
1958.00, 
1959.00, 
1960.00, 
1961.00, 
1962.00, 
1963.00, 
1964.00, 
1965.00, 
1966.00, 
1967.00, 
1968.00, 
1969.00, 
1970.00, 
1971.00, 
1972.00, 
1973.00, 
1974.00, 
1975.00, 
1976.00, 
1977.00, 
1978.00, 
1979.00, 
1980.00, 
1981.00, 
1982.00, 
1983.00, 
1984.00, 
1985.00, 
1986.00, 
1987.00, 
1988.00, 
1989.00, 
1990.00, 
1991.00, 
1992.00, 
1993.00, 
1994.00, 
1995.00, 
1996.00, 
1997.00, 
1998.00, 
1999.00, 
2000.00, 
2001.00, 
2002.00, 
2003.00, 
2004.00, 
2005.00, 
2006.00, 
2007.00, 
2008.00, 
2009.00, 
2010.00, 
2011.00, 
2012.00, 
2013.00, 
2014.00, 
2015.00, 
2016.00, 
2017.00, 
2018.00, 
2019.00, 
2020.00, 
2021.00, 
2022.00, 
2023.00, 
2024.00, 
2025.00, 
2026.00, 
2027.00, 
2028.00, 
2029.00, 
2030.00, 
2031.00, 
2032.00, 
2033.00, 
2034.00, 
2035.00, 
2036.00, 
2037.00, 
2038.00, 
2039.00, 
2040.00, 
2041.00, 
2042.00, 
2043.00, 
2044.00, 
2045.00, 
2046.00, 
2047.00, 
2048.00, 
2049.00, 
2050.00, 
2051.00, 
2052.00, 
2053.00, 
2054.00, 
2055.00, 
2056.00, 
2057.00, 
2058.00, 
2059.00, 
2060.00, 
2061.00, 
2062.00, 
2063.00, 
2064.00, 
2065.00, 
2066.00, 
2067.00, 
2068.00, 
2069.00, 
2070.00, 
2071.00, 
2072.00, 
2073.00, 
2074.00, 
2075.00, 
2076.00, 
2077.00, 
2078.00, 
2079.00, 
2080.00, 
2081.00, 
2082.00, 
2083.00, 
2084.00, 
2085.00, 
2086.00, 
2087.00, 
2088.00, 
2089.00, 
2090.00, 
2091.00, 
2092.00, 
2093.00, 
2094.00, 
2095.00, 
2096.00, 
2097.00, 
2098.00, 
2099.00, 
2100.00, 
2101.00, 
2102.00, 
2103.00, 
2104.00, 
2105.00, 
2106.00, 
2107.00, 
2108.00, 
2109.00, 
2110.00, 
2111.00, 
2112.00, 
2113.00, 
2114.00, 
2115.00, 
2116.00, 
2117.00, 
2118.00, 
2119.00, 
2120.00, 
2121.00, 
2122.00, 
2123.00, 
2124.00, 
2125.00, 
2126.00, 
2127.00, 
2128.00, 
2129.00, 
2130.00, 
2131.00, 
2132.00, 
2133.00, 
2134.00, 
2135.00, 
2136.00, 
2137.00, 
2138.00, 
2139.00, 
2140.00, 
2141.00, 
2142.00, 
2143.00, 
2144.00, 
2145.00, 
2146.00, 
2147.00, 
2148.00, 
2149.00, 
2150.00, 
2151.00, 
2152.00, 
2153.00, 
2154.00, 
2155.00, 
2156.00, 
2157.00, 
2158.00, 
2159.00, 
2160.00, 
2161.00, 
2162.00, 
2163.00, 
2164.00, 
2165.00, 
2166.00, 
2167.00, 
2168.00, 
2169.00, 
2170.00, 
2171.00, 
2172.00, 
2173.00, 
2174.00, 
2175.00, 
2176.00, 
2177.00, 
2178.00, 
2179.00, 
2180.00, 
2181.00, 
2182.00, 
2183.00, 
2184.00, 
2185.00, 
2186.00, 
2187.00, 
2188.00, 
2189.00, 
2190.00, 
2191.00, 
2192.00, 
2193.00, 
2194.00, 
2195.00, 
2196.00, 
2197.00, 
2198.00, 
2199.00, 
2200.00, 
2201.00, 
2202.00, 
2203.00, 
2204.00, 
2205.00, 
2206.00, 
2207.00, 
2208.00, 
2209.00, 
2210.00, 
2211.00, 
2212.00, 
2213.00, 
2214.00, 
2215.00, 
2216.00, 
2217.00, 
2218.00, 
2219.00, 
2220.00, 
2221.00, 
2222.00, 
2223.00, 
2224.00, 
2225.00, 
2226.00, 
2227.00, 
2228.00, 
2229.00, 
2230.00, 
2231.00, 
2232.00, 
2233.00, 
2234.00, 
2235.00, 
2236.00, 
2237.00, 
2238.00, 
2239.00, 
2240.00, 
2241.00, 
2242.00, 
2243.00, 
2244.00, 
2245.00, 
2246.00, 
2247.00, 
2248.00, 
2249.00, 
2250.00, 
2251.00, 
2252.00, 
2253.00, 
2254.00, 
2255.00, 
2256.00, 
2257.00, 
2258.00, 
2259.00, 
2260.00, 
2261.00, 
2262.00, 
2263.00, 
2264.00, 
2265.00, 
2266.00, 
2267.00, 
2268.00, 
2269.00, 
2270.00, 
2271.00, 
2272.00, 
2273.00, 
2274.00, 
2275.00, 
2276.00, 
2277.00, 
2278.00, 
2279.00, 
2280.00, 
2281.00, 
2282.00, 
2283.00, 
2284.00, 
2285.00, 
2286.00, 
2287.00, 
2288.00, 
2289.00, 
2290.00, 
2291.00, 
2292.00, 
2293.00, 
2294.00, 
2295.00, 
2296.00, 
2297.00, 
2298.00, 
2299.00, 
2300.00, 
2301.00, 
2302.00, 
2303.00, 
2304.00, 
2305.00, 
2306.00, 
2307.00, 
2308.00, 
2309.00, 
2310.00, 
2311.00, 
2312.00, 
2313.00, 
2314.00, 
2315.00, 
2316.00, 
2317.00, 
2318.00, 
2319.00, 
2320.00, 
2321.00, 
2322.00, 
2323.00, 
2324.00, 
2325.00, 
2326.00, 
2327.00, 
2328.00, 
2329.00, 
2330.00, 
2331.00, 
2332.00, 
2333.00, 
2334.00, 
2335.00, 
2336.00, 
2337.00, 
2338.00, 
2339.00, 
2340.00, 
2341.00, 
2342.00, 
2343.00, 
2344.00, 
2345.00, 
2346.00, 
2347.00, 
2348.00, 
2349.00, 
2350.00, 
2351.00, 
2352.00, 
2353.00, 
2354.00, 
2355.00, 
2356.00, 
2357.00, 
2358.00, 
2359.00, 
2360.00, 
2361.00, 
2362.00, 
2363.00, 
2364.00, 
2365.00, 
2366.00, 
2367.00, 
2368.00, 
2369.00, 
2370.00, 
2371.00, 
2372.00, 
2373.00, 
2374.00, 
2375.00, 
2376.00, 
2377.00, 
2378.00, 
2379.00, 
2380.00, 
2381.00, 
2382.00, 
2383.00, 
2384.00, 
2385.00, 
2386.00, 
2387.00, 
2388.00, 
2389.00, 
2390.00, 
2391.00, 
2392.00, 
2393.00, 
2394.00, 
2395.00, 
2396.00, 
2397.00, 
2398.00, 
2399.00, 
2400.00, 
2401.00, 
2402.00, 
2403.00, 
2404.00, 
2405.00, 
2406.00, 
2407.00, 
2408.00, 
2409.00, 
2410.00, 
2411.00, 
2412.00, 
2413.00, 
2414.00, 
2415.00, 
2416.00, 
2417.00, 
2418.00, 
2419.00, 
2420.00, 
2421.00, 
2422.00, 
2423.00, 
2424.00, 
2425.00, 
2426.00, 
2427.00, 
2428.00, 
2429.00, 
2430.00, 
2431.00, 
2432.00, 
2433.00, 
2434.00, 
2435.00, 
2436.00, 
2437.00, 
2438.00, 
2439.00, 
2440.00, 
2441.00, 
2442.00, 
2443.00, 
2444.00, 
2445.00, 
2446.00, 
2447.00, 
2448.00, 
2449.00, 
2450.00, 
2451.00, 
2452.00, 
2453.00, 
2454.00, 
2455.00, 
2456.00, 
2457.00, 
2458.00, 
2459.00, 
2460.00, 
2461.00, 
2462.00, 
2463.00, 
2464.00, 
2465.00, 
2466.00, 
2467.00, 
2468.00, 
2469.00, 
2470.00, 
2471.00, 
2472.00, 
2473.00, 
2474.00, 
2475.00, 
2476.00, 
2477.00, 
2478.00, 
2479.00, 
2480.00, 
2481.00, 
2482.00, 
2483.00, 
2484.00, 
2485.00, 
2486.00, 
2487.00, 
2488.00, 
2489.00, 
2490.00, 
2491.00, 
2492.00, 
2493.00, 
2494.00, 
2495.00, 
2496.00, 
2497.00, 
2498.00, 
2499.00, 
2500.00, 
2501.00, 
2502.00, 
2503.00, 
2504.00, 
2505.00, 
2506.00, 
2507.00, 
2508.00, 
2509.00, 
2510.00, 
2511.00, 
2512.00, 
2513.00, 
2514.00, 
2515.00, 
2516.00, 
2517.00, 
2518.00, 
2519.00, 
2520.00, 
2521.00, 
2522.00, 
2523.00, 
2524.00, 
2525.00, 
2526.00, 
2527.00, 
2528.00, 
2529.00, 
2530.00, 
2531.00, 
2532.00, 
2533.00, 
2534.00, 
2535.00, 
2536.00, 
2537.00, 
2538.00, 
2539.00, 
2540.00, 
2541.00, 
2542.00, 
2543.00, 
2544.00, 
2545.00, 
2546.00, 
2547.00, 
2548.00, 
2549.00, 
2550.00, 
2551.00, 
2552.00, 
2553.00, 
2554.00, 
2555.00, 
2556.00, 
2557.00, 
2558.00, 
2559.00, 
2560.00, 
2561.00, 
2562.00, 
2563.00, 
2564.00, 
2565.00, 
2566.00, 
2567.00, 
2568.00, 
2569.00, 
2570.00, 
2571.00, 
2572.00, 
2573.00, 
2574.00, 
2575.00, 
2576.00, 
2577.00, 
2578.00, 
2579.00, 
2580.00, 
2581.00, 
2582.00, 
2583.00, 
2584.00, 
2585.00, 
2586.00, 
2587.00, 
2588.00, 
2589.00, 
2590.00, 
2591.00, 
2592.00, 
2593.00, 
2594.00, 
2595.00, 
2596.00, 
2597.00, 
2598.00, 
2599.00, 
2600.00, 
