"2cP2 - RawData"
"Wavelength nm.","T%"
200.00,0.002
201.00,0.002
202.00,0.002
203.00,0.004
204.00,0.001
205.00,0.001
206.00,0.002
207.00,0.002
208.00,-0.001
209.00,-0.001
210.00,0.000
211.00,0.002
212.00,0.003
213.00,-0.000
214.00,0.001
215.00,0.001
216.00,-0.001
217.00,0.001
218.00,0.003
219.00,0.002
220.00,0.005
221.00,-0.000
222.00,-0.000
223.00,0.000
224.00,0.000
225.00,0.000
226.00,0.001
227.00,-0.000
228.00,0.002
229.00,0.001
230.00,0.002
231.00,0.001
232.00,-0.000
233.00,0.003
234.00,0.002
235.00,0.000
236.00,-0.000
237.00,0.001
238.00,0.001
239.00,0.001
240.00,0.001
241.00,0.002
242.00,0.000
243.00,0.002
244.00,0.000
245.00,0.002
246.00,0.002
247.00,-0.002
248.00,-0.001
249.00,0.000
250.00,0.001
251.00,0.001
252.00,-0.002
253.00,0.001
254.00,0.000
255.00,-0.000
256.00,0.000
257.00,-0.000
258.00,-0.001
259.00,-0.000
260.00,-0.000
261.00,0.001
262.00,0.000
263.00,0.002
264.00,0.001
265.00,0.001
266.00,0.001
267.00,0.002
268.00,0.001
269.00,-0.000
270.00,-0.000
271.00,0.000
272.00,-0.000
273.00,0.001
274.00,0.002
275.00,0.001
276.00,0.001
277.00,-0.000
278.00,0.002
279.00,0.000
280.00,0.001
281.00,0.000
282.00,-0.001
283.00,0.002
284.00,0.001
285.00,0.001
286.00,-0.001
287.00,0.000
288.00,0.001
289.00,0.002
290.00,-0.000
291.00,0.000
292.00,0.002
293.00,0.001
294.00,-0.001
295.00,0.001
296.00,-0.000
297.00,0.000
298.00,0.002
299.00,0.004
300.00,0.004
301.00,0.007
302.00,0.012
303.00,0.016
304.00,0.024
305.00,0.040
306.00,0.061
307.00,0.092
308.00,0.144
309.00,0.222
310.00,0.309
311.00,0.417
312.00,0.563
313.00,0.766
314.00,0.999
315.00,1.316
316.00,1.667
317.00,2.116
318.00,2.600
319.00,3.178
320.00,3.865
321.00,4.634
322.00,5.477
323.00,6.451
324.00,7.465
325.00,8.488
326.00,9.544
327.00,10.756
328.00,12.056
329.00,13.326
330.00,14.655
331.00,15.961
332.00,17.307
333.00,18.799
334.00,20.172
335.00,21.552
336.00,22.958
337.00,24.325
338.00,25.701
339.00,26.993
340.00,28.281
341.00,29.521
342.00,30.639
343.00,31.866
344.00,32.950
345.00,34.013
346.00,35.023
347.00,36.030
348.00,36.939
349.00,37.871
350.00,38.662
351.00,39.284
352.00,40.050
353.00,40.745
354.00,41.420
355.00,42.081
356.00,42.598
357.00,43.161
358.00,43.617
359.00,44.200
360.00,44.654
361.00,45.075
362.00,45.583
363.00,46.019
364.00,46.253
365.00,46.555
366.00,46.790
367.00,47.043
368.00,47.238
369.00,47.521
370.00,47.742
371.00,47.766
372.00,47.933
373.00,48.037
374.00,48.123
375.00,48.050
376.00,48.131
377.00,48.123
378.00,48.201
379.00,48.133
380.00,48.274
381.00,48.335
382.00,48.417
383.00,48.532
384.00,48.743
385.00,48.867
386.00,49.131
387.00,49.153
388.00,49.459
389.00,49.522
390.00,49.718
391.00,49.990
392.00,50.036
393.00,50.077
394.00,50.261
395.00,50.304
396.00,50.401
397.00,50.535
398.00,50.679
399.00,50.698
400.00,50.661
401.00,50.830
402.00,50.814
403.00,50.868
404.00,50.976
405.00,50.949
406.00,50.988
407.00,50.976
408.00,51.038
409.00,50.957
410.00,50.875
411.00,50.913
412.00,50.838
413.00,50.863
414.00,50.754
415.00,50.865
416.00,50.896
417.00,50.732
418.00,50.830
419.00,50.893
420.00,50.959
421.00,51.049
422.00,51.050
423.00,51.048
424.00,51.106
425.00,51.116
426.00,51.065
427.00,51.196
428.00,51.152
429.00,51.151
430.00,51.198
431.00,51.297
432.00,51.322
433.00,51.200
434.00,51.185
435.00,51.239
436.00,51.228
437.00,51.303
438.00,51.329
439.00,51.340
440.00,51.363
441.00,51.443
442.00,51.453
443.00,51.460
444.00,51.519
445.00,51.533
446.00,51.667
447.00,51.645
448.00,51.614
449.00,51.620
450.00,51.733
451.00,51.671
452.00,51.798
453.00,51.847
454.00,51.836
455.00,51.855
456.00,51.917
457.00,51.975
458.00,51.954
459.00,51.974
460.00,52.100
461.00,52.092
462.00,52.078
463.00,52.153
464.00,52.153
465.00,52.226
466.00,52.256
467.00,52.318
468.00,52.278
469.00,52.223
470.00,52.185
471.00,52.227
472.00,52.239
473.00,52.180
474.00,52.250
475.00,52.245
476.00,52.244
477.00,52.292
478.00,52.333
479.00,52.455
480.00,52.295
481.00,52.432
482.00,52.405
483.00,52.544
484.00,52.586
485.00,52.680
486.00,52.817
487.00,52.804
488.00,52.775
489.00,52.881
490.00,52.922
491.00,52.905
492.00,52.882
493.00,52.936
494.00,53.033
495.00,53.008
496.00,53.022
497.00,53.010
498.00,53.053
499.00,53.071
500.00,53.109
501.00,53.123
502.00,53.160
503.00,53.175
504.00,53.094
505.00,53.259
506.00,53.202
507.00,53.198
508.00,53.252
509.00,53.385
510.00,53.459
511.00,53.297
512.00,53.456
513.00,53.463
514.00,53.461
515.00,53.617
516.00,53.529
517.00,53.418
518.00,53.607
519.00,53.520
520.00,53.370
521.00,53.521
522.00,53.515
523.00,53.448
524.00,53.537
525.00,53.576
526.00,53.517
527.00,53.513
528.00,53.422
529.00,53.583
530.00,53.690
531.00,53.696
532.00,53.622
533.00,53.693
534.00,53.843
535.00,53.788
536.00,53.784
537.00,53.841
538.00,53.881
539.00,53.769
540.00,53.879
541.00,53.906
542.00,53.810
543.00,53.852
544.00,53.866
545.00,53.907
546.00,53.834
547.00,53.942
548.00,54.012
549.00,53.938
550.00,53.957
551.00,54.066
552.00,54.084
553.00,54.003
554.00,54.018
555.00,54.031
556.00,54.050
557.00,53.995
558.00,53.968
559.00,54.056
560.00,54.015
561.00,54.097
562.00,54.180
563.00,54.069
564.00,53.979
565.00,54.115
566.00,53.995
567.00,54.083
568.00,54.081
569.00,54.088
570.00,54.071
571.00,54.070
572.00,54.022
573.00,53.942
574.00,53.983
575.00,53.926
576.00,53.931
577.00,54.014
578.00,54.142
579.00,54.040
580.00,54.068
581.00,54.224
582.00,54.319
583.00,54.141
584.00,54.285
585.00,54.400
586.00,54.399
587.00,54.451
588.00,54.405
589.00,54.309
590.00,54.469
591.00,54.331
592.00,54.273
593.00,54.321
594.00,54.370
595.00,54.532
596.00,54.489
597.00,54.463
598.00,54.437
599.00,54.431
600.00,54.437
601.00,54.421
602.00,54.392
603.00,54.420
604.00,54.421
605.00,54.399
606.00,54.395
607.00,54.339
608.00,54.261
609.00,54.385
610.00,54.523
611.00,54.276
612.00,54.267
613.00,54.437
614.00,54.320
615.00,54.277
616.00,54.442
617.00,54.282
618.00,54.184
619.00,54.244
620.00,54.248
621.00,54.190
622.00,54.208
623.00,54.310
624.00,54.346
625.00,54.274
626.00,54.243
627.00,54.262
628.00,54.229
629.00,54.219
630.00,54.181
631.00,54.153
632.00,54.157
633.00,54.304
634.00,54.320
635.00,54.168
636.00,54.137
637.00,54.300
638.00,54.190
639.00,54.247
640.00,54.130
641.00,54.155
642.00,54.173
643.00,54.179
644.00,54.126
645.00,53.992
646.00,54.189
647.00,54.198
648.00,54.165
649.00,53.970
650.00,53.989
651.00,54.091
652.00,54.118
653.00,53.843
654.00,53.815
655.00,54.088
656.00,54.195
657.00,53.948
658.00,53.996
659.00,54.084
660.00,54.009
661.00,53.962
662.00,53.801
663.00,53.798
664.00,54.022
665.00,54.065
666.00,53.867
667.00,53.741
668.00,53.670
669.00,53.879
670.00,53.976
671.00,54.015
672.00,54.313
673.00,53.856
674.00,53.716
675.00,53.708
676.00,53.803
677.00,53.840
678.00,53.697
679.00,53.638
680.00,53.776
681.00,53.901
682.00,53.660
683.00,53.493
684.00,53.678
685.00,53.651
686.00,53.236
687.00,53.236
688.00,53.315
689.00,53.454
690.00,53.452
691.00,53.595
692.00,53.261
693.00,52.821
694.00,53.554
695.00,53.955
696.00,53.439
697.00,53.134
698.00,53.334
699.00,53.284
700.00,52.993
701.00,53.089
702.00,53.018
703.00,53.198
704.00,53.121
705.00,52.957
706.00,53.072
707.00,52.911
708.00,52.800
709.00,53.035
710.00,53.357
711.00,52.840
712.00,52.764
713.00,52.828
714.00,52.919
715.00,52.821
716.00,52.665
717.00,52.824
718.00,52.869
719.00,52.686
720.00,52.605
721.00,57.301
722.00,57.160
723.00,57.045
724.00,56.956
725.00,57.036
726.00,56.831
727.00,56.808
728.00,56.788
729.00,56.650
730.00,56.622
731.00,56.557
732.00,56.418
733.00,56.516
734.00,56.429
735.00,56.304
736.00,56.300
737.00,56.235
738.00,56.236
739.00,56.177
740.00,56.114
741.00,56.173
742.00,56.170
743.00,55.960
744.00,55.904
745.00,55.784
746.00,55.781
747.00,55.616
748.00,55.534
749.00,55.529
750.00,55.438
751.00,55.390
752.00,55.312
753.00,55.221
754.00,55.332
755.00,55.233
756.00,55.135
757.00,55.076
758.00,55.020
759.00,54.933
760.00,54.972
761.00,54.862
762.00,54.866
763.00,54.871
764.00,54.757
765.00,54.717
766.00,54.719
767.00,54.664
768.00,54.648
769.00,54.557
770.00,54.624
771.00,54.428
772.00,54.552
773.00,54.459
774.00,54.423
775.00,54.386
776.00,54.311
777.00,54.270
778.00,54.198
779.00,54.322
780.00,54.110
781.00,54.146
782.00,54.083
783.00,54.030
784.00,53.995
785.00,53.918
786.00,53.936
787.00,53.920
788.00,53.863
789.00,53.794
790.00,53.676
791.00,53.715
792.00,53.695
793.00,53.594
794.00,53.586
795.00,53.500
796.00,53.530
797.00,53.427
798.00,53.405
799.00,53.356
800.00,53.302
801.00,53.303
802.00,53.275
803.00,53.134
804.00,53.146
805.00,53.150
806.00,53.071
807.00,53.071
808.00,53.042
809.00,52.944
810.00,53.004
811.00,52.938
812.00,52.920
813.00,52.813
814.00,52.828
815.00,52.712
816.00,52.753
817.00,52.722
818.00,52.613
819.00,52.585
820.00,52.534
821.00,52.611
822.00,52.570
823.00,52.362
824.00,52.450
825.00,52.409
826.00,52.317
827.00,52.370
828.00,52.359
829.00,52.380
830.00,52.240
831.00,54.844
832.00,54.847
833.00,54.795
834.00,54.764
835.00,54.712
836.00,54.709
837.00,54.652
838.00,54.631
839.00,54.570
840.00,54.495
841.00,54.566
842.00,54.451
843.00,54.482
844.00,54.441
845.00,54.371
846.00,54.362
847.00,54.355
848.00,54.289
849.00,54.220
850.00,54.184
851.00,54.110
852.00,54.110
853.00,54.039
854.00,54.037
855.00,53.973
856.00,53.989
857.00,53.916
858.00,53.879
859.00,53.851
860.00,53.865
861.00,53.842
862.00,53.741
863.00,53.736
864.00,53.680
865.00,53.727
866.00,53.631
867.00,53.686
868.00,53.637
869.00,53.610
870.00,53.607
871.00,53.587
872.00,53.579
873.00,53.528
874.00,53.499
875.00,53.489
876.00,53.487
877.00,53.439
878.00,53.417
879.00,53.428
880.00,53.395
881.00,53.377
882.00,53.340
883.00,53.482
884.00,53.304
885.00,53.239
886.00,53.252
887.00,53.215
888.00,53.210
889.00,53.182
890.00,53.194
891.00,53.116
892.00,53.072
893.00,53.218
894.00,53.084
895.00,53.014
896.00,53.000
897.00,52.980
898.00,52.935
899.00,52.941
900.00,52.942
901.00,52.903
902.00,52.904
903.00,52.869
904.00,52.841
905.00,52.825
906.00,52.814
907.00,52.784
908.00,52.752
909.00,52.743
910.00,52.710
911.00,52.679
912.00,52.682
913.00,52.608
914.00,52.597
915.00,52.603
916.00,52.577
917.00,52.537
918.00,52.523
919.00,52.477
920.00,52.474
921.00,52.452
922.00,52.444
923.00,52.416
924.00,52.366
925.00,52.382
926.00,52.363
927.00,52.339
928.00,52.293
929.00,52.295
930.00,52.245
931.00,52.252
932.00,52.208
933.00,52.200
934.00,52.182
935.00,52.158
936.00,52.128
937.00,52.102
938.00,52.202
939.00,52.101
940.00,52.049
941.00,52.048
942.00,51.989
943.00,52.013
944.00,51.948
945.00,51.973
946.00,51.955
947.00,51.912
948.00,51.884
949.00,51.851
950.00,51.846
951.00,51.820
952.00,51.780
953.00,51.759
954.00,51.743
955.00,51.691
956.00,51.697
957.00,51.645
958.00,51.653
959.00,51.602
960.00,51.602
961.00,51.572
962.00,51.576
963.00,51.516
964.00,51.528
965.00,51.508
966.00,51.495
967.00,51.517
968.00,51.464
969.00,51.486
970.00,51.462
971.00,51.475
972.00,51.442
973.00,51.485
974.00,51.492
975.00,51.455
976.00,51.483
977.00,51.452
978.00,51.508
979.00,51.433
980.00,51.460
981.00,51.473
982.00,51.432
983.00,51.439
984.00,51.475
985.00,51.428
986.00,51.394
987.00,51.419
988.00,51.383
989.00,51.381
990.00,51.368
991.00,51.342
992.00,51.372
993.00,51.348
994.00,51.309
995.00,51.309
996.00,51.291
997.00,51.286
998.00,51.227
999.00,51.285
1000.00,51.226
1001.00,51.223
1002.00,51.210
1003.00,51.205
1004.00,51.183
1005.00,51.164
1006.00,51.201
1007.00,51.155
1008.00,51.150
1009.00,51.127
1010.00,51.117
1011.00,51.130
1012.00,51.073
1013.00,51.077
1014.00,51.020
1015.00,51.044
1016.00,51.005
1017.00,51.010
1018.00,50.990
1019.00,50.977
1020.00,50.968
1021.00,50.937
1022.00,50.944
1023.00,50.893
1024.00,50.908
1025.00,50.895
1026.00,50.872
1027.00,50.831
1028.00,50.835
1029.00,50.816
1030.00,50.800
1031.00,50.799
1032.00,50.747
1033.00,50.765
1034.00,50.746
1035.00,50.710
1036.00,50.678
1037.00,50.653
1038.00,50.642
1039.00,50.623
1040.00,50.607
1041.00,50.577
1042.00,50.576
1043.00,50.545
1044.00,50.609
1045.00,50.576
1046.00,50.548
1047.00,50.583
1048.00,50.567
1049.00,50.583
1050.00,50.591
1051.00,50.625
1052.00,50.638
1053.00,50.626
1054.00,50.621
1055.00,50.660
1056.00,50.659
1057.00,50.665
1058.00,50.662
1059.00,50.643
1060.00,50.674
1061.00,50.630
1062.00,50.604
1063.00,50.629
1064.00,50.613
1065.00,50.617
1066.00,50.613
1067.00,50.591
1068.00,50.609
1069.00,50.585
1070.00,50.553
1071.00,50.556
1072.00,50.586
1073.00,50.567
1074.00,50.556
1075.00,50.524
1076.00,50.512
1077.00,50.513
1078.00,50.479
1079.00,50.477
1080.00,50.485
1081.00,50.458
1082.00,50.452
1083.00,50.443
1084.00,50.431
1085.00,50.441
1086.00,50.423
1087.00,50.405
1088.00,50.401
1089.00,50.388
1090.00,50.380
1091.00,50.375
1092.00,50.369
1093.00,50.350
1094.00,50.335
1095.00,50.314
1096.00,50.324
1097.00,50.310
1098.00,50.294
1099.00,50.300
1100.00,50.283
1101.00,50.269
1102.00,50.268
1103.00,50.265
1104.00,50.251
1105.00,50.263
1106.00,50.257
1107.00,50.243
1108.00,50.224
1109.00,50.204
1110.00,50.221
1111.00,50.194
1112.00,50.181
1113.00,50.189
1114.00,50.184
1115.00,50.175
1116.00,50.175
1117.00,50.157
1118.00,50.172
1119.00,50.157
1120.00,50.145
1121.00,50.166
1122.00,50.120
1123.00,50.119
1124.00,50.122
1125.00,50.103
1126.00,50.108
1127.00,50.105
1128.00,50.083
1129.00,50.087
1130.00,50.075
1131.00,50.057
1132.00,50.063
1133.00,50.051
1134.00,50.055
1135.00,50.035
1136.00,50.033
1137.00,50.028
1138.00,50.029
1139.00,50.018
1140.00,50.033
1141.00,50.008
1142.00,49.995
1143.00,50.019
1144.00,49.980
1145.00,49.985
1146.00,50.007
1147.00,49.974
1148.00,49.971
1149.00,49.989
1150.00,49.992
1151.00,49.988
1152.00,49.967
1153.00,49.948
1154.00,49.960
1155.00,49.954
1156.00,49.947
1157.00,49.962
1158.00,49.944
1159.00,49.947
1160.00,49.946
1161.00,49.948
1162.00,49.937
1163.00,49.926
1164.00,49.925
1165.00,49.927
1166.00,49.934
1167.00,49.937
1168.00,49.934
1169.00,49.926
1170.00,49.922
1171.00,49.903
1172.00,49.903
1173.00,49.913
1174.00,49.921
1175.00,49.920
1176.00,49.935
1177.00,49.901
1178.00,49.902
1179.00,49.934
1180.00,49.927
1181.00,49.933
1182.00,49.931
1183.00,49.907
1184.00,49.912
1185.00,49.928
1186.00,49.892
1187.00,49.917
1188.00,49.899
1189.00,49.890
1190.00,49.888
1191.00,49.881
1192.00,49.898
1193.00,49.885
1194.00,49.890
1195.00,49.872
1196.00,49.889
1197.00,49.887
1198.00,49.889
1199.00,49.878
1200.00,49.880
1201.00,49.913
1202.00,49.887
1203.00,49.881
1204.00,49.871
1205.00,49.880
1206.00,49.897
1207.00,49.888
1208.00,49.858
1209.00,49.887
1210.00,49.883
1211.00,49.877
1212.00,49.902
1213.00,49.871
1214.00,49.892
1215.00,49.871
1216.00,49.872
1217.00,49.891
1218.00,49.871
1219.00,49.883
1220.00,49.884
1221.00,49.887
1222.00,49.869
1223.00,49.895
1224.00,49.895
1225.00,49.886
1226.00,49.881
1227.00,49.862
1228.00,49.911
1229.00,49.915
1230.00,49.932
1231.00,49.948
1232.00,49.942
1233.00,49.935
1234.00,49.945
1235.00,49.933
1236.00,49.933
1237.00,49.938
1238.00,49.937
1239.00,49.956
1240.00,49.940
1241.00,49.930
1242.00,49.953
1243.00,49.973
1244.00,49.931
1245.00,49.966
1246.00,49.976
1247.00,49.961
1248.00,49.965
1249.00,49.963
1250.00,49.993
1251.00,49.986
1252.00,49.975
1253.00,49.984
1254.00,50.001
1255.00,50.007
1256.00,49.971
1257.00,49.955
1258.00,50.013
1259.00,50.000
1260.00,50.013
1261.00,50.025
1262.00,50.012
1263.00,49.999
1264.00,50.024
1265.00,50.012
1266.00,50.009
1267.00,50.031
1268.00,50.024
1269.00,50.017
1270.00,50.044
1271.00,50.039
1272.00,50.053
1273.00,50.060
1274.00,50.060
1275.00,50.077
1276.00,50.073
1277.00,50.059
1278.00,50.084
1279.00,50.072
1280.00,50.068
1281.00,50.092
1282.00,50.099
1283.00,50.121
1284.00,50.113
1285.00,50.083
1286.00,50.114
1287.00,50.099
1288.00,50.093
1289.00,50.111
1290.00,50.117
1291.00,50.150
1292.00,50.156
1293.00,50.130
1294.00,50.158
1295.00,50.162
1296.00,50.154
1297.00,50.193
1298.00,50.191
1299.00,50.171
1300.00,50.190
1301.00,50.181
1302.00,50.202
1303.00,50.210
1304.00,50.189
1305.00,50.228
1306.00,50.244
1307.00,50.232
1308.00,50.247
1309.00,50.242
1310.00,50.237
1311.00,50.222
1312.00,50.228
1313.00,50.241
1314.00,50.266
1315.00,50.261
1316.00,50.281
1317.00,50.290
1318.00,50.278
1319.00,50.279
1320.00,50.297
1321.00,50.443
1322.00,50.468
1323.00,50.432
1324.00,50.435
1325.00,50.422
1326.00,50.453
1327.00,50.452
1328.00,50.443
1329.00,50.437
1330.00,50.452
1331.00,50.458
1332.00,50.436
1333.00,50.477
1334.00,50.467
1335.00,50.513
1336.00,50.520
1337.00,50.540
1338.00,50.609
1339.00,50.656
1340.00,50.713
1341.00,50.794
1342.00,50.861
1343.00,50.901
1344.00,50.960
1345.00,51.010
1346.00,51.042
1347.00,51.079
1348.00,51.117
1349.00,51.126
1350.00,51.121
1351.00,51.133
1352.00,51.138
1353.00,51.189
1354.00,51.147
1355.00,51.105
1356.00,51.207
1357.00,51.185
1358.00,51.186
1359.00,51.247
1360.00,51.170
1361.00,51.201
1362.00,51.171
1363.00,51.266
1364.00,51.341
1365.00,51.234
1366.00,51.395
1367.00,51.174
1368.00,51.173
1369.00,51.205
1370.00,51.183
1371.00,51.165
1372.00,51.192
1373.00,51.178
1374.00,51.184
1375.00,51.172
1376.00,51.144
1377.00,51.193
1378.00,51.118
1379.00,51.170
1380.00,51.178
1381.00,51.093
1382.00,51.062
1383.00,51.160
1384.00,51.161
1385.00,51.083
1386.00,51.156
1387.00,51.127
1388.00,51.110
1389.00,51.054
1390.00,51.229
1391.00,51.127
1392.00,51.156
1393.00,51.098
1394.00,51.160
1395.00,50.966
1396.00,51.230
1397.00,51.016
1398.00,51.164
1399.00,51.160
1400.00,51.115
1401.00,51.117
1402.00,51.162
1403.00,51.127
1404.00,51.167
1405.00,51.180
1406.00,51.188
1407.00,51.241
1408.00,51.231
1409.00,51.166
1410.00,51.225
1411.00,51.281
1412.00,51.285
1413.00,51.192
1414.00,51.242
1415.00,51.276
1416.00,51.264
1417.00,51.272
1418.00,51.285
1419.00,51.271
1420.00,51.298
1421.00,51.341
1422.00,51.330
1423.00,51.342
1424.00,51.363
1425.00,51.356
1426.00,51.391
1427.00,51.436
1428.00,51.424
1429.00,51.413
1430.00,51.422
1431.00,51.441
1432.00,51.476
1433.00,51.468
1434.00,51.468
1435.00,51.508
1436.00,51.528
1437.00,51.511
1438.00,51.530
1439.00,51.565
1440.00,51.575
1441.00,51.577
1442.00,51.571
1443.00,51.634
1444.00,51.652
1445.00,51.633
1446.00,51.655
1447.00,51.669
1448.00,51.705
1449.00,51.704
1450.00,51.711
1451.00,51.735
1452.00,51.744
1453.00,51.753
1454.00,51.762
1455.00,51.777
1456.00,51.801
1457.00,51.810
1458.00,51.821
1459.00,51.851
1460.00,51.867
1461.00,51.868
1462.00,51.898
1463.00,51.898
1464.00,51.904
1465.00,51.922
1466.00,51.910
1467.00,51.954
1468.00,51.985
1469.00,51.967
1470.00,51.976
1471.00,52.021
1472.00,52.013
1473.00,52.050
1474.00,52.054
1475.00,52.043
1476.00,52.073
1477.00,52.052
1478.00,52.076
1479.00,52.096
1480.00,52.083
1481.00,52.113
1482.00,52.132
1483.00,52.140
1484.00,52.168
1485.00,52.174
1486.00,52.162
1487.00,52.197
1488.00,52.209
1489.00,52.219
1490.00,52.231
1491.00,52.237
1492.00,52.257
1493.00,52.246
1494.00,52.245
1495.00,52.279
1496.00,52.258
1497.00,52.254
1498.00,52.281
1499.00,52.282
1500.00,52.329
1501.00, 
1502.00, 
1503.00, 
1504.00, 
1505.00, 
1506.00, 
1507.00, 
1508.00, 
1509.00, 
1510.00, 
1511.00, 
1512.00, 
1513.00, 
1514.00, 
1515.00, 
1516.00, 
1517.00, 
1518.00, 
1519.00, 
1520.00, 
1521.00, 
1522.00, 
1523.00, 
1524.00, 
1525.00, 
1526.00, 
1527.00, 
1528.00, 
1529.00, 
1530.00, 
1531.00, 
1532.00, 
1533.00, 
1534.00, 
1535.00, 
1536.00, 
1537.00, 
1538.00, 
1539.00, 
1540.00, 
1541.00, 
1542.00, 
1543.00, 
1544.00, 
1545.00, 
1546.00, 
1547.00, 
1548.00, 
1549.00, 
1550.00, 
1551.00, 
1552.00, 
1553.00, 
1554.00, 
1555.00, 
1556.00, 
1557.00, 
1558.00, 
1559.00, 
1560.00, 
1561.00, 
1562.00, 
1563.00, 
1564.00, 
1565.00, 
1566.00, 
1567.00, 
1568.00, 
1569.00, 
1570.00, 
1571.00, 
1572.00, 
1573.00, 
1574.00, 
1575.00, 
1576.00, 
1577.00, 
1578.00, 
1579.00, 
1580.00, 
1581.00, 
1582.00, 
1583.00, 
1584.00, 
1585.00, 
1586.00, 
1587.00, 
1588.00, 
1589.00, 
1590.00, 
1591.00, 
1592.00, 
1593.00, 
1594.00, 
1595.00, 
1596.00, 
1597.00, 
1598.00, 
1599.00, 
1600.00, 
1601.00, 
1602.00, 
1603.00, 
1604.00, 
1605.00, 
1606.00, 
1607.00, 
1608.00, 
1609.00, 
1610.00, 
1611.00, 
1612.00, 
1613.00, 
1614.00, 
1615.00, 
1616.00, 
1617.00, 
1618.00, 
1619.00, 
1620.00, 
1621.00, 
1622.00, 
1623.00, 
1624.00, 
1625.00, 
1626.00, 
1627.00, 
1628.00, 
1629.00, 
1630.00, 
1631.00, 
1632.00, 
1633.00, 
1634.00, 
1635.00, 
1636.00, 
1637.00, 
1638.00, 
1639.00, 
1640.00, 
1641.00, 
1642.00, 
1643.00, 
1644.00, 
1645.00, 
1646.00, 
1647.00, 
1648.00, 
1649.00, 
1650.00, 
1651.00, 
1652.00, 
1653.00, 
1654.00, 
1655.00, 
1656.00, 
1657.00, 
1658.00, 
1659.00, 
1660.00, 
1661.00, 
1662.00, 
1663.00, 
1664.00, 
1665.00, 
1666.00, 
1667.00, 
1668.00, 
1669.00, 
1670.00, 
1671.00, 
1672.00, 
1673.00, 
1674.00, 
1675.00, 
1676.00, 
1677.00, 
1678.00, 
1679.00, 
1680.00, 
1681.00, 
1682.00, 
1683.00, 
1684.00, 
1685.00, 
1686.00, 
1687.00, 
1688.00, 
1689.00, 
1690.00, 
1691.00, 
1692.00, 
1693.00, 
1694.00, 
1695.00, 
1696.00, 
1697.00, 
1698.00, 
1699.00, 
1700.00, 
1701.00, 
1702.00, 
1703.00, 
1704.00, 
1705.00, 
1706.00, 
1707.00, 
1708.00, 
1709.00, 
1710.00, 
1711.00, 
1712.00, 
1713.00, 
1714.00, 
1715.00, 
1716.00, 
1717.00, 
1718.00, 
1719.00, 
1720.00, 
1721.00, 
1722.00, 
1723.00, 
1724.00, 
1725.00, 
1726.00, 
1727.00, 
1728.00, 
1729.00, 
1730.00, 
1731.00, 
1732.00, 
1733.00, 
1734.00, 
1735.00, 
1736.00, 
1737.00, 
1738.00, 
1739.00, 
1740.00, 
1741.00, 
1742.00, 
1743.00, 
1744.00, 
1745.00, 
1746.00, 
1747.00, 
1748.00, 
1749.00, 
1750.00, 
1751.00, 
1752.00, 
1753.00, 
1754.00, 
1755.00, 
1756.00, 
1757.00, 
1758.00, 
1759.00, 
1760.00, 
1761.00, 
1762.00, 
1763.00, 
1764.00, 
1765.00, 
1766.00, 
1767.00, 
1768.00, 
1769.00, 
1770.00, 
1771.00, 
1772.00, 
1773.00, 
1774.00, 
1775.00, 
1776.00, 
1777.00, 
1778.00, 
1779.00, 
1780.00, 
1781.00, 
1782.00, 
1783.00, 
1784.00, 
1785.00, 
1786.00, 
1787.00, 
1788.00, 
1789.00, 
1790.00, 
1791.00, 
1792.00, 
1793.00, 
1794.00, 
1795.00, 
1796.00, 
1797.00, 
1798.00, 
1799.00, 
1800.00, 
1801.00, 
1802.00, 
1803.00, 
1804.00, 
1805.00, 
1806.00, 
1807.00, 
1808.00, 
1809.00, 
1810.00, 
1811.00, 
1812.00, 
1813.00, 
1814.00, 
1815.00, 
1816.00, 
1817.00, 
1818.00, 
1819.00, 
1820.00, 
1821.00, 
1822.00, 
1823.00, 
1824.00, 
1825.00, 
1826.00, 
1827.00, 
1828.00, 
1829.00, 
1830.00, 
1831.00, 
1832.00, 
1833.00, 
1834.00, 
1835.00, 
1836.00, 
1837.00, 
1838.00, 
1839.00, 
1840.00, 
1841.00, 
1842.00, 
1843.00, 
1844.00, 
1845.00, 
1846.00, 
1847.00, 
1848.00, 
1849.00, 
1850.00, 
1851.00, 
1852.00, 
1853.00, 
1854.00, 
1855.00, 
1856.00, 
1857.00, 
1858.00, 
1859.00, 
1860.00, 
1861.00, 
1862.00, 
1863.00, 
1864.00, 
1865.00, 
1866.00, 
1867.00, 
1868.00, 
1869.00, 
1870.00, 
1871.00, 
1872.00, 
1873.00, 
1874.00, 
1875.00, 
1876.00, 
1877.00, 
1878.00, 
1879.00, 
1880.00, 
1881.00, 
1882.00, 
1883.00, 
1884.00, 
1885.00, 
1886.00, 
1887.00, 
1888.00, 
1889.00, 
1890.00, 
1891.00, 
1892.00, 
1893.00, 
1894.00, 
1895.00, 
1896.00, 
1897.00, 
1898.00, 
1899.00, 
1900.00, 
1901.00, 
1902.00, 
1903.00, 
1904.00, 
1905.00, 
1906.00, 
1907.00, 
1908.00, 
1909.00, 
1910.00, 
1911.00, 
1912.00, 
1913.00, 
1914.00, 
1915.00, 
1916.00, 
1917.00, 
1918.00, 
1919.00, 
1920.00, 
1921.00, 
1922.00, 
1923.00, 
1924.00, 
1925.00, 
1926.00, 
1927.00, 
1928.00, 
1929.00, 
1930.00, 
1931.00, 
1932.00, 
1933.00, 
1934.00, 
1935.00, 
1936.00, 
1937.00, 
1938.00, 
1939.00, 
1940.00, 
1941.00, 
1942.00, 
1943.00, 
1944.00, 
1945.00, 
1946.00, 
1947.00, 
1948.00, 
1949.00, 
1950.00, 
1951.00, 
1952.00, 
1953.00, 
1954.00, 
1955.00, 
1956.00, 
1957.00, 
1958.00, 
1959.00, 
1960.00, 
1961.00, 
1962.00, 
1963.00, 
1964.00, 
1965.00, 
1966.00, 
1967.00, 
1968.00, 
1969.00, 
1970.00, 
1971.00, 
1972.00, 
1973.00, 
1974.00, 
1975.00, 
1976.00, 
1977.00, 
1978.00, 
1979.00, 
1980.00, 
1981.00, 
1982.00, 
1983.00, 
1984.00, 
1985.00, 
1986.00, 
1987.00, 
1988.00, 
1989.00, 
1990.00, 
1991.00, 
1992.00, 
1993.00, 
1994.00, 
1995.00, 
1996.00, 
1997.00, 
1998.00, 
1999.00, 
2000.00, 
2001.00, 
2002.00, 
2003.00, 
2004.00, 
2005.00, 
2006.00, 
2007.00, 
2008.00, 
2009.00, 
2010.00, 
2011.00, 
2012.00, 
2013.00, 
2014.00, 
2015.00, 
2016.00, 
2017.00, 
2018.00, 
2019.00, 
2020.00, 
2021.00, 
2022.00, 
2023.00, 
2024.00, 
2025.00, 
2026.00, 
2027.00, 
2028.00, 
2029.00, 
2030.00, 
2031.00, 
2032.00, 
2033.00, 
2034.00, 
2035.00, 
2036.00, 
2037.00, 
2038.00, 
2039.00, 
2040.00, 
2041.00, 
2042.00, 
2043.00, 
2044.00, 
2045.00, 
2046.00, 
2047.00, 
2048.00, 
2049.00, 
2050.00, 
2051.00, 
2052.00, 
2053.00, 
2054.00, 
2055.00, 
2056.00, 
2057.00, 
2058.00, 
2059.00, 
2060.00, 
2061.00, 
2062.00, 
2063.00, 
2064.00, 
2065.00, 
2066.00, 
2067.00, 
2068.00, 
2069.00, 
2070.00, 
2071.00, 
2072.00, 
2073.00, 
2074.00, 
2075.00, 
2076.00, 
2077.00, 
2078.00, 
2079.00, 
2080.00, 
2081.00, 
2082.00, 
2083.00, 
2084.00, 
2085.00, 
2086.00, 
2087.00, 
2088.00, 
2089.00, 
2090.00, 
2091.00, 
2092.00, 
2093.00, 
2094.00, 
2095.00, 
2096.00, 
2097.00, 
2098.00, 
2099.00, 
2100.00, 
2101.00, 
2102.00, 
2103.00, 
2104.00, 
2105.00, 
2106.00, 
2107.00, 
2108.00, 
2109.00, 
2110.00, 
2111.00, 
2112.00, 
2113.00, 
2114.00, 
2115.00, 
2116.00, 
2117.00, 
2118.00, 
2119.00, 
2120.00, 
2121.00, 
2122.00, 
2123.00, 
2124.00, 
2125.00, 
2126.00, 
2127.00, 
2128.00, 
2129.00, 
2130.00, 
2131.00, 
2132.00, 
2133.00, 
2134.00, 
2135.00, 
2136.00, 
2137.00, 
2138.00, 
2139.00, 
2140.00, 
2141.00, 
2142.00, 
2143.00, 
2144.00, 
2145.00, 
2146.00, 
2147.00, 
2148.00, 
2149.00, 
2150.00, 
2151.00, 
2152.00, 
2153.00, 
2154.00, 
2155.00, 
2156.00, 
2157.00, 
2158.00, 
2159.00, 
2160.00, 
2161.00, 
2162.00, 
2163.00, 
2164.00, 
2165.00, 
2166.00, 
2167.00, 
2168.00, 
2169.00, 
2170.00, 
2171.00, 
2172.00, 
2173.00, 
2174.00, 
2175.00, 
2176.00, 
2177.00, 
2178.00, 
2179.00, 
2180.00, 
2181.00, 
2182.00, 
2183.00, 
2184.00, 
2185.00, 
2186.00, 
2187.00, 
2188.00, 
2189.00, 
2190.00, 
2191.00, 
2192.00, 
2193.00, 
2194.00, 
2195.00, 
2196.00, 
2197.00, 
2198.00, 
2199.00, 
2200.00, 
2201.00, 
2202.00, 
2203.00, 
2204.00, 
2205.00, 
2206.00, 
2207.00, 
2208.00, 
2209.00, 
2210.00, 
2211.00, 
2212.00, 
2213.00, 
2214.00, 
2215.00, 
2216.00, 
2217.00, 
2218.00, 
2219.00, 
2220.00, 
2221.00, 
2222.00, 
2223.00, 
2224.00, 
2225.00, 
2226.00, 
2227.00, 
2228.00, 
2229.00, 
2230.00, 
2231.00, 
2232.00, 
2233.00, 
2234.00, 
2235.00, 
2236.00, 
2237.00, 
2238.00, 
2239.00, 
2240.00, 
2241.00, 
2242.00, 
2243.00, 
2244.00, 
2245.00, 
2246.00, 
2247.00, 
2248.00, 
2249.00, 
2250.00, 
2251.00, 
2252.00, 
2253.00, 
2254.00, 
2255.00, 
2256.00, 
2257.00, 
2258.00, 
2259.00, 
2260.00, 
2261.00, 
2262.00, 
2263.00, 
2264.00, 
2265.00, 
2266.00, 
2267.00, 
2268.00, 
2269.00, 
2270.00, 
2271.00, 
2272.00, 
2273.00, 
2274.00, 
2275.00, 
2276.00, 
2277.00, 
2278.00, 
2279.00, 
2280.00, 
2281.00, 
2282.00, 
2283.00, 
2284.00, 
2285.00, 
2286.00, 
2287.00, 
2288.00, 
2289.00, 
2290.00, 
2291.00, 
2292.00, 
2293.00, 
2294.00, 
2295.00, 
2296.00, 
2297.00, 
2298.00, 
2299.00, 
2300.00, 
2301.00, 
2302.00, 
2303.00, 
2304.00, 
2305.00, 
2306.00, 
2307.00, 
2308.00, 
2309.00, 
2310.00, 
2311.00, 
2312.00, 
2313.00, 
2314.00, 
2315.00, 
2316.00, 
2317.00, 
2318.00, 
2319.00, 
2320.00, 
2321.00, 
2322.00, 
2323.00, 
2324.00, 
2325.00, 
2326.00, 
2327.00, 
2328.00, 
2329.00, 
2330.00, 
2331.00, 
2332.00, 
2333.00, 
2334.00, 
2335.00, 
2336.00, 
2337.00, 
2338.00, 
2339.00, 
2340.00, 
2341.00, 
2342.00, 
2343.00, 
2344.00, 
2345.00, 
2346.00, 
2347.00, 
2348.00, 
2349.00, 
2350.00, 
2351.00, 
2352.00, 
2353.00, 
2354.00, 
2355.00, 
2356.00, 
2357.00, 
2358.00, 
2359.00, 
2360.00, 
2361.00, 
2362.00, 
2363.00, 
2364.00, 
2365.00, 
2366.00, 
2367.00, 
2368.00, 
2369.00, 
2370.00, 
2371.00, 
2372.00, 
2373.00, 
2374.00, 
2375.00, 
2376.00, 
2377.00, 
2378.00, 
2379.00, 
2380.00, 
2381.00, 
2382.00, 
2383.00, 
2384.00, 
2385.00, 
2386.00, 
2387.00, 
2388.00, 
2389.00, 
2390.00, 
2391.00, 
2392.00, 
2393.00, 
2394.00, 
2395.00, 
2396.00, 
2397.00, 
2398.00, 
2399.00, 
2400.00, 
2401.00, 
2402.00, 
2403.00, 
2404.00, 
2405.00, 
2406.00, 
2407.00, 
2408.00, 
2409.00, 
2410.00, 
2411.00, 
2412.00, 
2413.00, 
2414.00, 
2415.00, 
2416.00, 
2417.00, 
2418.00, 
2419.00, 
2420.00, 
2421.00, 
2422.00, 
2423.00, 
2424.00, 
2425.00, 
2426.00, 
2427.00, 
2428.00, 
2429.00, 
2430.00, 
2431.00, 
2432.00, 
2433.00, 
2434.00, 
2435.00, 
2436.00, 
2437.00, 
2438.00, 
2439.00, 
2440.00, 
2441.00, 
2442.00, 
2443.00, 
2444.00, 
2445.00, 
2446.00, 
2447.00, 
2448.00, 
2449.00, 
2450.00, 
2451.00, 
2452.00, 
2453.00, 
2454.00, 
2455.00, 
2456.00, 
2457.00, 
2458.00, 
2459.00, 
2460.00, 
2461.00, 
2462.00, 
2463.00, 
2464.00, 
2465.00, 
2466.00, 
2467.00, 
2468.00, 
2469.00, 
2470.00, 
2471.00, 
2472.00, 
2473.00, 
2474.00, 
2475.00, 
2476.00, 
2477.00, 
2478.00, 
2479.00, 
2480.00, 
2481.00, 
2482.00, 
2483.00, 
2484.00, 
2485.00, 
2486.00, 
2487.00, 
2488.00, 
2489.00, 
2490.00, 
2491.00, 
2492.00, 
2493.00, 
2494.00, 
2495.00, 
2496.00, 
2497.00, 
2498.00, 
2499.00, 
2500.00, 
2501.00, 
2502.00, 
2503.00, 
2504.00, 
2505.00, 
2506.00, 
2507.00, 
2508.00, 
2509.00, 
2510.00, 
2511.00, 
2512.00, 
2513.00, 
2514.00, 
2515.00, 
2516.00, 
2517.00, 
2518.00, 
2519.00, 
2520.00, 
2521.00, 
2522.00, 
2523.00, 
2524.00, 
2525.00, 
2526.00, 
2527.00, 
2528.00, 
2529.00, 
2530.00, 
2531.00, 
2532.00, 
2533.00, 
2534.00, 
2535.00, 
2536.00, 
2537.00, 
2538.00, 
2539.00, 
2540.00, 
2541.00, 
2542.00, 
2543.00, 
2544.00, 
2545.00, 
2546.00, 
2547.00, 
2548.00, 
2549.00, 
2550.00, 
2551.00, 
2552.00, 
2553.00, 
2554.00, 
2555.00, 
2556.00, 
2557.00, 
2558.00, 
2559.00, 
2560.00, 
2561.00, 
2562.00, 
2563.00, 
2564.00, 
2565.00, 
2566.00, 
2567.00, 
2568.00, 
2569.00, 
2570.00, 
2571.00, 
2572.00, 
2573.00, 
2574.00, 
2575.00, 
2576.00, 
2577.00, 
2578.00, 
2579.00, 
2580.00, 
2581.00, 
2582.00, 
2583.00, 
2584.00, 
2585.00, 
2586.00, 
2587.00, 
2588.00, 
2589.00, 
2590.00, 
2591.00, 
2592.00, 
2593.00, 
2594.00, 
2595.00, 
2596.00, 
2597.00, 
2598.00, 
2599.00, 
2600.00, 
