"2cP5 - RawData"
"Wavelength nm.","T%"
200.00,-0.000
201.00, 
202.00,0.003
203.00, 
204.00,0.001
205.00, 
206.00,-0.001
207.00, 
208.00,0.003
209.00, 
210.00,-0.001
211.00, 
212.00,0.002
213.00, 
214.00,-0.001
215.00, 
216.00,-0.004
217.00, 
218.00,-0.004
219.00, 
220.00,0.004
221.00, 
222.00,0.001
223.00, 
224.00,0.000
225.00, 
226.00,0.002
227.00, 
228.00,-0.002
229.00, 
230.00,0.001
231.00, 
232.00,-0.000
233.00, 
234.00,0.001
235.00, 
236.00,0.001
237.00, 
238.00,0.000
239.00, 
240.00,-0.002
241.00, 
242.00,0.001
243.00, 
244.00,0.000
245.00, 
246.00,-0.001
247.00, 
248.00,0.002
249.00, 
250.00,-0.001
251.00, 
252.00,-0.001
253.00, 
254.00,-0.000
255.00, 
256.00,-0.001
257.00, 
258.00,0.002
259.00, 
260.00,0.001
261.00, 
262.00,-0.001
263.00, 
264.00,-0.001
265.00, 
266.00,-0.001
267.00, 
268.00,0.001
269.00, 
270.00,-0.001
271.00, 
272.00,-0.000
273.00, 
274.00,-0.000
275.00, 
276.00,-0.001
277.00, 
278.00,-0.000
279.00, 
280.00,-0.001
281.00, 
282.00,-0.001
283.00, 
284.00,0.001
285.00, 
286.00,0.003
287.00, 
288.00,-0.001
289.00, 
290.00,0.001
291.00, 
292.00,0.000
293.00, 
294.00,0.000
295.00, 
296.00,-0.000
297.00, 
298.00,0.002
299.00, 
300.00,0.000
301.00, 
302.00,0.002
303.00, 
304.00,0.004
305.00, 
306.00,0.008
307.00, 
308.00,0.016
309.00, 
310.00,0.034
311.00, 
312.00,0.062
313.00, 
314.00,0.107
315.00, 
316.00,0.165
317.00, 
318.00,0.257
319.00, 
320.00,0.379
321.00, 
322.00,0.529
323.00, 
324.00,0.715
325.00, 
326.00,0.907
327.00, 
328.00,1.121
329.00, 
330.00,1.313
331.00, 
332.00,1.573
333.00, 
334.00,1.822
335.00, 
336.00,2.052
337.00, 
338.00,2.266
339.00, 
340.00,2.489
341.00, 
342.00,2.675
343.00, 
344.00,2.827
345.00, 
346.00,3.002
347.00, 
348.00,3.140
349.00, 
350.00,3.236
351.00, 
352.00,3.307
353.00, 
354.00,3.389
355.00, 
356.00,3.423
357.00, 
358.00,3.450
359.00, 
360.00,3.476
361.00, 
362.00,3.492
363.00, 
364.00,3.502
365.00, 
366.00,3.487
367.00, 
368.00,3.459
369.00, 
370.00,3.411
371.00, 
372.00,3.366
373.00, 
374.00,3.340
375.00, 
376.00,3.284
377.00, 
378.00,3.227
379.00, 
380.00,3.172
381.00, 
382.00,3.121
383.00, 
384.00,3.087
385.00, 
386.00,3.049
387.00, 
388.00,3.025
389.00, 
390.00,2.993
391.00, 
392.00,2.961
393.00, 
394.00,2.933
395.00, 
396.00,2.917
397.00, 
398.00,2.877
399.00, 
400.00,2.851
401.00, 
402.00,2.815
403.00, 
404.00,2.824
405.00, 
406.00,2.797
407.00, 
408.00,2.779
409.00, 
410.00,2.751
411.00, 
412.00,2.751
413.00, 
414.00,2.740
415.00, 
416.00,2.730
417.00, 
418.00,2.736
419.00, 
420.00,2.726
421.00, 
422.00,2.746
423.00, 
424.00,2.763
425.00, 
426.00,2.785
427.00, 
428.00,2.808
429.00, 
430.00,2.836
431.00, 
432.00,2.858
433.00, 
434.00,2.904
435.00, 
436.00,2.940
437.00, 
438.00,2.985
439.00, 
440.00,3.031
441.00, 
442.00,3.097
443.00, 
444.00,3.157
445.00, 
446.00,3.221
447.00, 
448.00,3.306
449.00, 
450.00,3.374
451.00, 
452.00,3.442
453.00, 
454.00,3.552
455.00, 
456.00,3.646
457.00, 
458.00,3.748
459.00, 
460.00,3.858
461.00, 
462.00,3.989
463.00, 
464.00,4.086
465.00, 
466.00,4.211
467.00, 
468.00,4.325
469.00, 
470.00,4.474
471.00, 
472.00,4.608
473.00, 
474.00,4.746
475.00, 
476.00,4.885
477.00, 
478.00,5.045
479.00, 
480.00,5.212
481.00, 
482.00,5.364
483.00, 
484.00,5.543
485.00, 
486.00,5.721
487.00, 
488.00,5.927
489.00, 
490.00,6.136
491.00, 
492.00,6.294
493.00, 
494.00,6.484
495.00, 
496.00,6.646
497.00, 
498.00,6.873
499.00, 
500.00,7.054
501.00, 
502.00,7.252
503.00, 
504.00,7.450
505.00, 
506.00,7.615
507.00, 
508.00,7.855
509.00, 
510.00,8.070
511.00, 
512.00,8.225
513.00, 
514.00,8.399
515.00, 
516.00,8.623
517.00, 
518.00,8.833
519.00, 
520.00,9.014
521.00, 
522.00,9.188
523.00, 
524.00,9.403
525.00, 
526.00,9.637
527.00, 
528.00,9.793
529.00, 
530.00,9.931
531.00, 
532.00,10.237
533.00, 
534.00,10.361
535.00, 
536.00,10.539
537.00, 
538.00,10.726
539.00, 
540.00,10.849
541.00, 
542.00,11.023
543.00, 
544.00,11.148
545.00, 
546.00,11.309
547.00, 
548.00,11.429
549.00, 
550.00,11.512
551.00, 
552.00,11.635
553.00, 
554.00,11.787
555.00, 
556.00,11.972
557.00, 
558.00,12.126
559.00, 
560.00,12.247
561.00, 
562.00,12.373
563.00, 
564.00,12.499
565.00, 
566.00,12.656
567.00, 
568.00,12.733
569.00, 
570.00,12.818
571.00, 
572.00,12.901
573.00, 
574.00,13.142
575.00, 
576.00,13.211
577.00, 
578.00,13.328
579.00, 
580.00,13.510
581.00, 
582.00,13.626
583.00, 
584.00,13.753
585.00, 
586.00,13.878
587.00, 
588.00,13.969
589.00, 
590.00,14.066
591.00, 
592.00,14.182
593.00, 
594.00,14.230
595.00, 
596.00,14.294
597.00, 
598.00,14.462
599.00, 
600.00,14.543
601.00, 
602.00,14.663
603.00, 
604.00,14.859
605.00, 
606.00,15.172
607.00, 
608.00,15.166
609.00, 
610.00,15.236
611.00, 
612.00,15.388
613.00, 
614.00,15.522
615.00, 
616.00,15.613
617.00, 
618.00,15.778
619.00, 
620.00,15.995
621.00, 
622.00,16.237
623.00, 
624.00,16.341
625.00, 
626.00,16.530
627.00, 
628.00,16.727
629.00, 
630.00,16.923
631.00, 
632.00,17.106
633.00, 
634.00,17.285
635.00, 
636.00,17.452
637.00, 
638.00,17.761
639.00, 
640.00,18.008
641.00, 
642.00,18.199
643.00, 
644.00,18.430
645.00, 
646.00,18.755
647.00, 
648.00,19.029
649.00, 
650.00,19.430
651.00, 
652.00,19.619
653.00, 
654.00,19.856
655.00, 
656.00,20.079
657.00, 
658.00,20.467
659.00, 
660.00,20.743
661.00, 
662.00,21.211
663.00, 
664.00,21.433
665.00, 
666.00,21.949
667.00, 
668.00,21.974
669.00, 
670.00,22.609
671.00, 
672.00,23.105
673.00, 
674.00,23.199
675.00, 
676.00,23.642
677.00, 
678.00,24.148
679.00, 
680.00,24.515
681.00, 
682.00,24.756
683.00, 
684.00,25.148
685.00, 
686.00,25.699
687.00, 
688.00,26.149
689.00, 
690.00,26.481
691.00, 
692.00,26.946
693.00, 
694.00,27.531
695.00, 
696.00,28.114
697.00, 
698.00,28.028
699.00, 
700.00,29.126
701.00, 
702.00,28.697
703.00, 
704.00,29.328
705.00, 
706.00,29.838
707.00, 
708.00,30.404
709.00, 
710.00,30.924
711.00, 
712.00,31.209
713.00, 
714.00,31.916
715.00, 
716.00,32.018
717.00, 
718.00,32.887
719.00, 
720.00,32.621
721.00, 
722.00,36.566
723.00, 
724.00,37.008
725.00, 
726.00,37.264
727.00, 
728.00,37.587
729.00, 
730.00,37.772
731.00, 
732.00,38.223
733.00, 
734.00,38.635
735.00, 
736.00,39.032
737.00, 
738.00,39.315
739.00, 
740.00,39.694
741.00, 
742.00,39.927
743.00, 
744.00,40.308
745.00, 
746.00,40.570
747.00, 
748.00,41.016
749.00, 
750.00,41.291
751.00, 
752.00,41.633
753.00, 
754.00,41.935
755.00, 
756.00,42.321
757.00, 
758.00,42.583
759.00, 
760.00,42.953
761.00, 
762.00,43.270
763.00, 
764.00,43.481
765.00, 
766.00,43.837
767.00, 
768.00,44.075
769.00, 
770.00,44.235
771.00, 
772.00,44.444
773.00, 
774.00,44.692
775.00, 
776.00,44.954
777.00, 
778.00,45.072
779.00, 
780.00,45.288
781.00, 
782.00,45.411
783.00, 
784.00,45.777
785.00, 
786.00,45.893
787.00, 
788.00,46.065
789.00, 
790.00,46.069
791.00, 
792.00,46.295
793.00, 
794.00,46.612
795.00, 
796.00,46.790
797.00, 
798.00,46.944
799.00, 
800.00,46.901
801.00, 
802.00,47.053
803.00, 
804.00,47.095
805.00, 
806.00,47.213
807.00, 
808.00,47.277
809.00, 
810.00,47.370
811.00, 
812.00,47.494
813.00, 
814.00,47.591
815.00, 
816.00,47.708
817.00, 
818.00,47.681
819.00, 
820.00,47.800
821.00, 
822.00,47.964
823.00, 
824.00,47.899
825.00, 
826.00,48.121
827.00, 
828.00,48.172
829.00, 
830.00,48.244
831.00, 
832.00,50.477
833.00, 
834.00,50.568
835.00, 
836.00,50.598
837.00, 
838.00,50.614
839.00, 
840.00,50.683
841.00, 
842.00,50.758
843.00, 
844.00,50.811
845.00, 
846.00,50.763
847.00, 
848.00,50.876
849.00, 
850.00,50.835
851.00, 
852.00,50.851
853.00, 
854.00,50.866
855.00, 
856.00,50.891
857.00, 
858.00,50.878
859.00, 
860.00,50.922
861.00, 
862.00,50.934
863.00, 
864.00,50.975
865.00, 
866.00,50.993
867.00, 
868.00,51.035
869.00, 
870.00,51.105
871.00, 
872.00,51.127
873.00, 
874.00,51.139
875.00, 
876.00,51.209
877.00, 
878.00,51.172
879.00, 
880.00,51.230
881.00, 
882.00,51.209
883.00, 
884.00,51.249
885.00, 
886.00,51.190
887.00, 
888.00,51.236
889.00, 
890.00,51.190
891.00, 
892.00,51.197
893.00, 
894.00,51.154
895.00, 
896.00,51.193
897.00, 
898.00,51.167
899.00, 
900.00,51.167
901.00, 
902.00,51.159
903.00, 
904.00,51.277
905.00, 
906.00,51.139
907.00, 
908.00,51.159
909.00, 
910.00,51.152
911.00, 
912.00,51.098
913.00, 
914.00,51.061
915.00, 
916.00,51.203
917.00, 
918.00,51.063
919.00, 
920.00,51.039
921.00, 
922.00,51.089
923.00, 
924.00,51.333
925.00, 
926.00,51.081
927.00, 
928.00,51.051
929.00, 
930.00,50.969
931.00, 
932.00,50.964
933.00, 
934.00,50.939
935.00, 
936.00,50.918
937.00, 
938.00,50.902
939.00, 
940.00,50.910
941.00, 
942.00,50.842
943.00, 
944.00,50.867
945.00, 
946.00,50.817
947.00, 
948.00,50.801
949.00, 
950.00,50.778
951.00, 
952.00,50.709
953.00, 
954.00,50.709
955.00, 
956.00,50.671
957.00, 
958.00,50.588
959.00, 
960.00,50.593
961.00, 
962.00,50.565
963.00, 
964.00,50.552
965.00, 
966.00,50.531
967.00, 
968.00,50.526
969.00, 
970.00,50.492
971.00, 
972.00,50.542
973.00, 
974.00,50.525
975.00, 
976.00,50.495
977.00, 
978.00,50.541
979.00, 
980.00,50.537
981.00, 
982.00,50.512
983.00, 
984.00,50.531
985.00, 
986.00,50.508
987.00, 
988.00,50.514
989.00, 
990.00,50.486
991.00, 
992.00,50.472
993.00, 
994.00,50.489
995.00, 
996.00,50.444
997.00, 
998.00,50.426
999.00, 
1000.00,50.423
1001.00, 
1002.00,50.405
1003.00, 
1004.00,50.371
1005.00, 
1006.00,50.358
1007.00, 
1008.00,50.375
1009.00, 
1010.00,50.301
1011.00, 
1012.00,50.295
1013.00, 
1014.00,50.293
1015.00, 
1016.00,50.267
1017.00, 
1018.00,50.204
1019.00, 
1020.00,50.191
1021.00, 
1022.00,50.145
1023.00, 
1024.00,50.125
1025.00, 
1026.00,50.112
1027.00, 
1028.00,50.056
1029.00, 
1030.00,50.040
1031.00, 
1032.00,50.025
1033.00, 
1034.00,49.982
1035.00, 
1036.00,49.938
1037.00, 
1038.00,49.932
1039.00, 
1040.00,49.836
1041.00, 
1042.00,49.828
1043.00, 
1044.00,49.837
1045.00, 
1046.00,49.790
1047.00, 
1048.00,49.843
1049.00, 
1050.00,49.897
1051.00, 
1052.00,49.888
1053.00, 
1054.00,49.900
1055.00, 
1056.00,49.901
1057.00, 
1058.00,49.909
1059.00, 
1060.00,49.919
1061.00, 
1062.00,49.887
1063.00, 
1064.00,49.889
1065.00, 
1066.00,49.889
1067.00, 
1068.00,49.837
1069.00, 
1070.00,49.854
1071.00, 
1072.00,49.822
1073.00, 
1074.00,49.813
1075.00, 
1076.00,49.807
1077.00, 
1078.00,49.802
1079.00, 
1080.00,49.771
1081.00, 
1082.00,49.783
1083.00, 
1084.00,49.755
1085.00, 
1086.00,49.746
1087.00, 
1088.00,49.730
1089.00, 
1090.00,49.703
1091.00, 
1092.00,49.695
1093.00, 
1094.00,49.660
1095.00, 
1096.00,49.633
1097.00, 
1098.00,49.624
1099.00, 
1100.00,49.605
1101.00, 
1102.00,49.599
1103.00, 
1104.00,49.568
1105.00, 
1106.00,49.557
1107.00, 
1108.00,49.552
1109.00, 
1110.00,49.531
1111.00, 
1112.00,49.495
1113.00, 
1114.00,49.528
1115.00, 
1116.00,49.465
1117.00, 
1118.00,49.466
1119.00, 
1120.00,49.462
1121.00, 
1122.00,49.421
1123.00, 
1124.00,49.417
1125.00, 
1126.00,49.422
1127.00, 
1128.00,49.374
1129.00, 
1130.00,49.366
1131.00, 
1132.00,49.363
1133.00, 
1134.00,49.353
1135.00, 
1136.00,49.332
1137.00, 
1138.00,49.349
1139.00, 
1140.00,49.324
1141.00, 
1142.00,49.319
1143.00, 
1144.00,49.318
1145.00, 
1146.00,49.306
1147.00, 
1148.00,49.283
1149.00, 
1150.00,49.303
1151.00, 
1152.00,49.276
1153.00, 
1154.00,49.292
1155.00, 
1156.00,49.261
1157.00, 
1158.00,49.276
1159.00, 
1160.00,49.266
1161.00, 
1162.00,49.295
1163.00, 
1164.00,49.273
1165.00, 
1166.00,49.277
1167.00, 
1168.00,49.254
1169.00, 
1170.00,49.240
1171.00, 
1172.00,49.229
1173.00, 
1174.00,49.240
1175.00, 
1176.00,49.231
1177.00, 
1178.00,49.210
1179.00, 
1180.00,49.256
1181.00, 
1182.00,49.218
1183.00, 
1184.00,49.198
1185.00, 
1186.00,49.261
1187.00, 
1188.00,49.193
1189.00, 
1190.00,49.206
1191.00, 
1192.00,49.205
1193.00, 
1194.00,49.193
1195.00, 
1196.00,49.206
1197.00, 
1198.00,49.206
1199.00, 
1200.00,49.194
1201.00, 
1202.00,49.217
1203.00, 
1204.00,49.187
1205.00, 
1206.00,49.194
1207.00, 
1208.00,49.182
1209.00, 
1210.00,49.189
1211.00, 
1212.00,49.148
1213.00, 
1214.00,49.176
1215.00, 
1216.00,49.160
1217.00, 
1218.00,49.143
1219.00, 
1220.00,49.169
1221.00, 
1222.00,49.162
1223.00, 
1224.00,49.164
1225.00, 
1226.00,49.176
1227.00, 
1228.00,49.172
1229.00, 
1230.00,49.190
1231.00, 
1232.00,49.202
1233.00, 
1234.00,49.211
1235.00, 
1236.00,49.219
1237.00, 
1238.00,49.187
1239.00, 
1240.00,49.213
1241.00, 
1242.00,49.167
1243.00, 
1244.00,49.194
1245.00, 
1246.00,49.191
1247.00, 
1248.00,49.198
1249.00, 
1250.00,49.185
1251.00, 
1252.00,49.241
1253.00, 
1254.00,49.197
1255.00, 
1256.00,49.204
1257.00, 
1258.00,49.214
1259.00, 
1260.00,49.196
1261.00, 
1262.00,49.214
1263.00, 
1264.00,49.250
1265.00, 
1266.00,49.233
1267.00, 
1268.00,49.274
1269.00, 
1270.00,49.277
1271.00, 
1272.00,49.319
1273.00, 
1274.00,49.290
1275.00, 
1276.00,49.297
1277.00, 
1278.00,49.331
1279.00, 
1280.00,49.304
1281.00, 
1282.00,49.315
1283.00, 
1284.00,49.323
1285.00, 
1286.00,49.286
1287.00, 
1288.00,49.331
1289.00, 
1290.00,49.328
1291.00, 
1292.00,49.381
1293.00, 
1294.00,49.351
1295.00, 
1296.00,49.401
1297.00, 
1298.00,49.385
1299.00, 
1300.00,49.398
1301.00, 
1302.00,49.435
1303.00, 
1304.00,49.419
1305.00, 
1306.00,49.425
1307.00, 
1308.00,49.466
1309.00, 
1310.00,49.381
1311.00, 
1312.00,49.468
1313.00, 
1314.00,49.505
1315.00, 
1316.00,49.508
1317.00, 
1318.00,49.591
1319.00, 
1320.00,49.533
1321.00, 
1322.00,49.677
1323.00, 
1324.00,49.654
1325.00, 
1326.00,49.661
1327.00, 
1328.00,49.641
1329.00, 
1330.00,49.665
1331.00, 
1332.00,49.680
1333.00, 
1334.00,49.700
1335.00, 
1336.00,49.740
1337.00, 
1338.00,49.831
1339.00, 
1340.00,49.959
1341.00, 
1342.00,50.070
1343.00, 
1344.00,50.163
1345.00, 
1346.00,50.275
1347.00, 
1348.00,50.275
1349.00, 
1350.00,50.256
1351.00, 
1352.00,50.348
1353.00, 
1354.00,50.350
1355.00, 
1356.00,50.318
1357.00, 
1358.00,50.371
1359.00, 
1360.00,50.345
1361.00, 
1362.00,50.349
1363.00, 
1364.00,50.465
1365.00, 
1366.00,50.498
1367.00, 
1368.00,50.164
1369.00, 
1370.00,50.381
1371.00, 
1372.00,50.275
1373.00, 
1374.00,50.365
1375.00, 
1376.00,50.278
1377.00, 
1378.00,50.328
1379.00, 
1380.00,50.309
1381.00, 
1382.00,50.272
1383.00, 
1384.00,50.332
1385.00, 
1386.00,50.400
1387.00, 
1388.00,50.251
1389.00, 
1390.00,50.308
1391.00, 
1392.00,50.352
1393.00, 
1394.00,50.370
1395.00, 
1396.00,50.310
1397.00, 
1398.00,50.272
1399.00, 
1400.00,50.374
1401.00, 
1402.00,50.330
1403.00, 
1404.00,50.331
1405.00, 
1406.00,50.356
1407.00, 
1408.00,50.425
1409.00, 
1410.00,50.346
1411.00, 
1412.00,50.495
1413.00, 
1414.00,50.402
1415.00, 
1416.00,50.495
1417.00, 
1418.00,50.462
1419.00, 
1420.00,50.479
1421.00, 
1422.00,50.545
1423.00, 
1424.00,50.518
1425.00, 
1426.00,50.522
1427.00, 
1428.00,50.591
1429.00, 
1430.00,50.589
1431.00, 
1432.00,50.644
1433.00, 
1434.00,50.660
1435.00, 
1436.00,50.732
1437.00, 
1438.00,50.710
1439.00, 
1440.00,50.808
1441.00, 
1442.00,50.775
1443.00, 
1444.00,50.910
1445.00, 
1446.00,50.852
1447.00, 
1448.00,50.905
1449.00, 
1450.00,50.953
1451.00, 
1452.00,50.992
1453.00, 
1454.00,50.978
1455.00, 
1456.00,51.014
1457.00, 
1458.00,51.072
1459.00, 
1460.00,51.083
1461.00, 
1462.00,51.109
1463.00, 
1464.00,51.144
1465.00, 
1466.00,51.173
1467.00, 
1468.00,51.232
1469.00, 
1470.00,51.228
1471.00, 
1472.00,51.293
1473.00, 
1474.00,51.301
1475.00, 
1476.00,51.327
1477.00, 
1478.00,51.342
1479.00, 
1480.00,51.377
1481.00, 
1482.00,51.377
1483.00, 
1484.00,51.430
1485.00, 
1486.00,51.429
1487.00, 
1488.00,51.458
1489.00, 
1490.00,51.475
1491.00, 
1492.00,51.481
1493.00, 
1494.00,51.494
1495.00, 
1496.00,51.548
1497.00, 
1498.00,51.550
1499.00, 
1500.00,51.595
1501.00, 
1502.00,51.584
1503.00, 
1504.00,51.639
1505.00, 
1506.00,51.648
1507.00, 
1508.00,51.672
1509.00, 
1510.00,51.686
1511.00, 
1512.00,51.713
1513.00, 
1514.00,51.702
1515.00, 
1516.00,51.752
1517.00, 
1518.00,51.769
1519.00, 
1520.00,51.761
1521.00, 
1522.00,51.816
1523.00, 
1524.00,51.847
1525.00, 
1526.00,51.843
1527.00, 
1528.00,51.890
1529.00, 
1530.00,51.889
1531.00, 
1532.00,51.974
1533.00, 
1534.00,51.919
1535.00, 
1536.00,51.942
1537.00, 
1538.00,51.988
1539.00, 
1540.00,52.000
1541.00, 
1542.00,52.002
1543.00, 
1544.00,52.035
1545.00, 
1546.00,52.046
1547.00, 
1548.00,52.055
1549.00, 
1550.00,52.077
1551.00, 
1552.00,52.127
1553.00, 
1554.00,52.117
1555.00, 
1556.00,52.180
1557.00, 
1558.00,52.175
1559.00, 
1560.00,52.217
1561.00, 
1562.00,52.248
1563.00, 
1564.00,52.261
1565.00, 
1566.00,52.308
1567.00, 
1568.00,52.314
1569.00, 
1570.00,52.337
1571.00, 
1572.00,52.386
1573.00, 
1574.00,52.366
1575.00, 
1576.00,52.408
1577.00, 
1578.00,52.413
1579.00, 
1580.00,52.444
1581.00, 
1582.00,52.494
1583.00, 
1584.00,52.538
1585.00, 
1586.00,52.557
1587.00, 
1588.00,52.565
1589.00, 
1590.00,52.620
1591.00, 
1592.00,52.656
1593.00, 
1594.00,52.654
1595.00, 
1596.00,52.694
1597.00, 
1598.00,52.685
1599.00, 
1600.00,52.729
1601.00, 
1602.00,52.716
1603.00, 
1604.00,52.790
1605.00, 
1606.00,52.800
1607.00, 
1608.00,52.783
1609.00, 
1610.00,52.832
1611.00, 
1612.00,52.838
1613.00, 
1614.00,52.846
1615.00, 
1616.00,52.921
1617.00, 
1618.00,52.886
1619.00, 
1620.00,52.968
1621.00, 
1622.00,52.928
1623.00, 
1624.00,52.992
1625.00, 
1626.00,52.977
1627.00, 
1628.00,52.993
1629.00, 
1630.00,53.003
1631.00, 
1632.00,53.023
1633.00, 
1634.00,53.043
1635.00, 
1636.00,53.059
1637.00, 
1638.00,53.061
1639.00, 
1640.00,53.107
1641.00, 
1642.00,53.054
1643.00, 
1644.00,53.153
1645.00, 
1646.00,53.106
1647.00, 
1648.00,53.141
1649.00, 
1650.00,53.183
1651.00, 
1652.00,53.693
1653.00, 
1654.00,53.707
1655.00, 
1656.00,53.832
1657.00, 
1658.00,53.705
1659.00, 
1660.00,53.694
1661.00, 
1662.00,53.787
1663.00, 
1664.00,53.848
1665.00, 
1666.00,53.843
1667.00, 
1668.00,53.683
1669.00, 
1670.00,53.700
1671.00, 
1672.00,53.807
1673.00, 
1674.00,53.665
1675.00, 
1676.00,53.789
1677.00, 
1678.00,53.972
1679.00, 
1680.00,53.909
1681.00, 
1682.00,53.998
1683.00, 
1684.00,53.810
1685.00, 
1686.00,53.928
1687.00, 
1688.00,53.842
1689.00, 
1690.00,53.868
1691.00, 
1692.00,53.766
1693.00, 
1694.00,53.709
1695.00, 
1696.00,54.014
1697.00, 
1698.00,53.882
1699.00, 
1700.00,53.789
1701.00, 
1702.00,53.789
1703.00, 
1704.00,53.743
1705.00, 
1706.00,53.609
1707.00, 
1708.00,53.949
1709.00, 
1710.00,53.702
1711.00, 
1712.00,53.995
1713.00, 
1714.00,53.804
1715.00, 
1716.00,53.983
1717.00, 
1718.00,53.851
1719.00, 
1720.00,53.752
1721.00, 
1722.00,54.069
1723.00, 
1724.00,53.744
1725.00, 
1726.00,53.628
1727.00, 
1728.00,53.742
1729.00, 
1730.00,53.724
1731.00, 
1732.00,53.684
1733.00, 
1734.00,53.694
1735.00, 
1736.00,53.849
1737.00, 
1738.00,53.876
1739.00, 
1740.00,53.801
1741.00, 
1742.00,53.763
1743.00, 
1744.00,53.697
1745.00, 
1746.00,53.712
1747.00, 
1748.00,53.668
1749.00, 
1750.00,53.641
1751.00, 
1752.00,53.790
1753.00, 
1754.00,53.462
1755.00, 
1756.00,53.730
1757.00, 
1758.00,53.788
1759.00, 
1760.00,53.646
1761.00, 
1762.00,53.802
1763.00, 
1764.00,53.793
1765.00, 
1766.00,53.773
1767.00, 
1768.00,53.959
1769.00, 
1770.00,53.709
1771.00, 
1772.00,53.557
1773.00, 
1774.00,53.672
1775.00, 
1776.00,53.729
1777.00, 
1778.00,53.731
1779.00, 
1780.00,53.784
1781.00, 
1782.00,53.783
1783.00, 
1784.00,53.791
1785.00, 
1786.00,53.865
1787.00, 
1788.00,53.946
1789.00, 
1790.00,53.976
1791.00, 
1792.00,54.143
1793.00, 
1794.00,53.643
1795.00, 
1796.00,53.733
1797.00, 
1798.00,53.700
1799.00, 
1800.00,53.701
1801.00, 
1802.00,53.608
1803.00, 
1804.00,53.990
1805.00, 
1806.00,53.847
1807.00, 
1808.00,54.018
1809.00, 
1810.00,53.778
1811.00, 
1812.00,53.759
1813.00, 
1814.00,53.819
1815.00, 
1816.00,53.706
1817.00, 
1818.00,53.701
1819.00, 
1820.00,54.079
1821.00, 
1822.00,53.917
1823.00, 
1824.00,53.612
1825.00, 
1826.00,53.805
1827.00, 
1828.00,53.901
1829.00, 
1830.00,54.345
1831.00, 
1832.00,54.045
1833.00, 
1834.00,54.425
1835.00, 
1836.00,54.043
1837.00, 
1838.00,54.022
1839.00, 
1840.00,54.182
1841.00, 
1842.00,54.243
1843.00, 
1844.00,54.086
1845.00, 
1846.00,53.975
1847.00, 
1848.00,54.275
1849.00, 
1850.00,54.153
1851.00, 
1852.00,53.986
1853.00, 
1854.00,54.270
1855.00, 
1856.00,54.434
1857.00, 
1858.00,54.389
1859.00, 
1860.00,54.311
1861.00, 
1862.00,54.447
1863.00, 
1864.00,54.448
1865.00, 
1866.00,54.771
1867.00, 
1868.00,54.656
1869.00, 
1870.00,54.028
1871.00, 
1872.00,54.395
1873.00, 
1874.00,54.525
1875.00, 
1876.00,54.576
1877.00, 
1878.00,54.314
1879.00, 
1880.00,54.373
1881.00, 
1882.00,54.271
1883.00, 
1884.00,54.240
1885.00, 
1886.00,54.042
1887.00, 
1888.00,54.232
1889.00, 
1890.00,54.054
1891.00, 
1892.00,53.965
1893.00, 
1894.00,53.931
1895.00, 
1896.00,54.242
1897.00, 
1898.00,54.655
1899.00, 
1900.00,53.839
1901.00, 
1902.00,53.975
1903.00, 
1904.00,53.792
1905.00, 
1906.00,54.039
1907.00, 
1908.00,53.870
1909.00, 
1910.00,53.797
1911.00, 
1912.00,54.051
1913.00, 
1914.00,53.990
1915.00, 
1916.00,53.708
1917.00, 
1918.00,53.960
1919.00, 
1920.00,53.503
1921.00, 
1922.00,53.958
1923.00, 
1924.00,53.983
1925.00, 
1926.00,54.161
1927.00, 
1928.00,53.672
1929.00, 
1930.00,53.714
1931.00, 
1932.00,53.588
1933.00, 
1934.00,53.615
1935.00, 
1936.00,53.615
1937.00, 
1938.00,53.672
1939.00, 
1940.00,53.687
1941.00, 
1942.00,53.510
1943.00, 
1944.00,53.994
1945.00, 
1946.00,54.067
1947.00, 
1948.00,53.910
1949.00, 
1950.00,53.873
1951.00, 
1952.00,53.903
1953.00, 
1954.00,53.671
1955.00, 
1956.00,54.000
1957.00, 
1958.00,53.749
1959.00, 
1960.00,53.750
1961.00, 
1962.00,53.650
1963.00, 
1964.00,53.596
1965.00, 
1966.00,53.522
1967.00, 
1968.00,53.965
1969.00, 
1970.00,53.738
1971.00, 
1972.00,53.667
1973.00, 
1974.00,53.740
1975.00, 
1976.00,53.549
1977.00, 
1978.00,53.576
1979.00, 
1980.00,53.567
1981.00, 
1982.00,53.917
1983.00, 
1984.00,53.600
1985.00, 
1986.00,53.435
1987.00, 
1988.00,53.897
1989.00, 
1990.00,53.830
1991.00, 
1992.00,53.688
1993.00, 
1994.00,53.752
1995.00, 
1996.00,53.462
1997.00, 
1998.00,53.742
1999.00, 
2000.00,53.749
2001.00, 
2002.00,53.617
2003.00, 
2004.00,53.638
2005.00, 
2006.00,53.204
2007.00, 
2008.00,53.483
2009.00, 
2010.00,53.654
2011.00, 
2012.00,53.964
2013.00, 
2014.00,53.804
2015.00, 
2016.00,53.933
2017.00, 
2018.00,53.863
2019.00, 
2020.00,53.777
2021.00, 
2022.00,53.866
2023.00, 
2024.00,53.786
2025.00, 
2026.00,53.666
2027.00, 
2028.00,53.683
2029.00, 
2030.00,53.629
2031.00, 
2032.00,54.098
2033.00, 
2034.00,53.688
2035.00, 
2036.00,53.451
2037.00, 
2038.00,54.082
2039.00, 
2040.00,53.933
2041.00, 
2042.00,53.538
2043.00, 
2044.00,54.056
2045.00, 
2046.00,53.665
2047.00, 
2048.00,53.760
2049.00, 
2050.00,53.596
2051.00, 
2052.00,53.862
2053.00, 
2054.00,53.287
2055.00, 
2056.00,53.301
2057.00, 
2058.00,53.613
2059.00, 
2060.00,53.423
2061.00, 
2062.00,53.833
2063.00, 
2064.00,53.463
2065.00, 
2066.00,53.574
2067.00, 
2068.00,53.927
2069.00, 
2070.00,53.176
2071.00, 
2072.00,53.573
2073.00, 
2074.00,53.453
2075.00, 
2076.00,53.423
2077.00, 
2078.00,53.901
2079.00, 
2080.00,53.344
2081.00, 
2082.00,53.372
2083.00, 
2084.00,53.543
2085.00, 
2086.00,53.122
2087.00, 
2088.00,53.167
2089.00, 
2090.00,53.323
2091.00, 
2092.00,53.810
2093.00, 
2094.00,53.649
2095.00, 
2096.00,53.431
2097.00, 
2098.00,53.591
2099.00, 
2100.00,53.543
2101.00, 
2102.00,54.264
2103.00, 
2104.00,53.602
2105.00, 
2106.00,53.350
2107.00, 
2108.00,53.784
2109.00, 
2110.00,53.646
2111.00, 
2112.00,53.273
2113.00, 
2114.00,53.706
2115.00, 
2116.00,53.944
2117.00, 
2118.00,53.722
2119.00, 
2120.00,53.528
2121.00, 
2122.00,53.580
2123.00, 
2124.00,53.542
2125.00, 
2126.00,53.659
2127.00, 
2128.00,53.499
2129.00, 
2130.00,53.272
2131.00, 
2132.00,53.850
2133.00, 
2134.00,53.799
2135.00, 
2136.00,53.820
2137.00, 
2138.00,53.625
2139.00, 
2140.00,53.766
2141.00, 
2142.00,53.008
2143.00, 
2144.00,53.008
2145.00, 
2146.00,53.682
2147.00, 
2148.00,53.322
2149.00, 
2150.00,53.142
2151.00, 
2152.00,53.282
2153.00, 
2154.00,53.516
2155.00, 
2156.00,53.352
2157.00, 
2158.00,53.315
2159.00, 
2160.00,53.658
2161.00, 
2162.00,52.981
2163.00, 
2164.00,53.265
2165.00, 
2166.00,53.283
2167.00, 
2168.00,53.427
2169.00, 
2170.00,53.273
2171.00, 
2172.00,53.308
2173.00, 
2174.00,52.839
2175.00, 
2176.00,53.831
2177.00, 
2178.00,53.386
2179.00, 
2180.00,53.696
2181.00, 
2182.00,53.322
2183.00, 
2184.00,52.992
2185.00, 
2186.00,52.368
2187.00, 
2188.00,52.885
2189.00, 
2190.00,53.073
2191.00, 
2192.00,52.971
2193.00, 
2194.00,52.745
2195.00, 
2196.00,53.403
2197.00, 
2198.00,53.501
2199.00, 
2200.00,53.435
2201.00, 
2202.00,52.783
2203.00, 
2204.00,52.891
2205.00, 
2206.00,52.834
2207.00, 
2208.00,52.681
2209.00, 
2210.00,52.415
2211.00, 
2212.00,52.643
2213.00, 
2214.00,53.197
2215.00, 
2216.00,52.405
2217.00, 
2218.00,52.464
2219.00, 
2220.00,53.302
2221.00, 
2222.00,52.964
2223.00, 
2224.00,52.748
2225.00, 
2226.00,52.597
2227.00, 
2228.00,52.612
2229.00, 
2230.00,53.146
2231.00, 
2232.00,53.155
2233.00, 
2234.00,52.915
2235.00, 
2236.00,53.457
2237.00, 
2238.00,52.901
2239.00, 
2240.00,53.442
2241.00, 
2242.00,53.510
2243.00, 
2244.00,53.302
2245.00, 
2246.00,53.656
2247.00, 
2248.00,53.521
2249.00, 
2250.00,53.851
2251.00, 
2252.00,53.842
2253.00, 
2254.00,53.543
2255.00, 
2256.00,54.132
2257.00, 
2258.00,53.784
2259.00, 
2260.00,53.331
2261.00, 
2262.00,54.084
2263.00, 
2264.00,53.511
2265.00, 
2266.00,54.319
2267.00, 
2268.00,53.959
2269.00, 
2270.00,53.617
2271.00, 
2272.00,53.612
2273.00, 
2274.00,54.124
2275.00, 
2276.00,54.034
2277.00, 
2278.00,53.258
2279.00, 
2280.00,53.121
2281.00, 
2282.00,53.681
2283.00, 
2284.00,53.871
2285.00, 
2286.00,53.872
2287.00, 
2288.00,52.998
2289.00, 
2290.00,53.329
2291.00, 
2292.00,53.914
2293.00, 
2294.00,53.360
2295.00, 
2296.00,53.782
2297.00, 
2298.00,53.344
2299.00, 
2300.00,53.615
2301.00, 
2302.00,53.753
2303.00, 
2304.00,53.793
2305.00, 
2306.00,53.387
2307.00, 
2308.00,53.758
2309.00, 
2310.00,53.747
2311.00, 
2312.00,53.718
2313.00, 
2314.00,53.719
2315.00, 
2316.00,54.017
2317.00, 
2318.00,53.581
2319.00, 
2320.00,53.493
2321.00, 
2322.00,53.894
2323.00, 
2324.00,54.770
2325.00, 
2326.00,53.863
2327.00, 
2328.00,54.037
2329.00, 
2330.00,53.763
2331.00, 
2332.00,53.869
2333.00, 
2334.00,54.003
2335.00, 
2336.00,53.347
2337.00, 
2338.00,53.467
2339.00, 
2340.00,53.852
2341.00, 
2342.00,53.594
2343.00, 
2344.00,53.876
2345.00, 
2346.00,54.498
2347.00, 
2348.00,53.906
2349.00, 
2350.00,54.435
2351.00, 
2352.00,53.878
2353.00, 
2354.00,53.550
2355.00, 
2356.00,53.610
2357.00, 
2358.00,53.132
2359.00, 
2360.00,54.289
2361.00, 
2362.00,52.937
2363.00, 
2364.00,53.765
2365.00, 
2366.00,53.704
2367.00, 
2368.00,53.885
2369.00, 
2370.00,54.264
2371.00, 
2372.00,53.435
2373.00, 
2374.00,53.449
2375.00, 
2376.00,53.315
2377.00, 
2378.00,53.645
2379.00, 
2380.00,53.547
2381.00, 
2382.00,53.956
2383.00, 
2384.00,53.447
2385.00, 
2386.00,53.807
2387.00, 
2388.00,54.342
2389.00, 
2390.00,54.647
2391.00, 
2392.00,53.949
2393.00, 
2394.00,52.789
2395.00, 
2396.00,53.560
2397.00, 
2398.00,54.139
2399.00, 
2400.00,53.554
2401.00, 
2402.00,52.603
2403.00, 
2404.00,54.590
2405.00, 
2406.00,53.192
2407.00, 
2408.00,53.199
2409.00, 
2410.00,53.213
2411.00, 
2412.00,53.485
2413.00, 
2414.00,53.144
2415.00, 
2416.00,53.884
2417.00, 
2418.00,53.164
2419.00, 
2420.00,53.455
2421.00, 
2422.00,52.489
2423.00, 
2424.00,52.529
2425.00, 
2426.00,53.325
2427.00, 
2428.00,53.663
2429.00, 
2430.00,53.448
2431.00, 
2432.00,52.579
2433.00, 
2434.00,53.040
2435.00, 
2436.00,53.337
2437.00, 
2438.00,54.496
2439.00, 
2440.00,53.032
2441.00, 
2442.00,53.640
2443.00, 
2444.00,52.622
2445.00, 
2446.00,53.110
2447.00, 
2448.00,54.217
2449.00, 
2450.00,52.798
2451.00, 
2452.00,53.787
2453.00, 
2454.00,52.772
2455.00, 
2456.00,53.126
2457.00, 
2458.00,52.784
2459.00, 
2460.00,52.706
2461.00, 
2462.00,53.847
2463.00, 
2464.00,52.076
2465.00, 
2466.00,53.162
2467.00, 
2468.00,52.799
2469.00, 
2470.00,53.472
2471.00, 
2472.00,52.367
2473.00, 
2474.00,52.182
2475.00, 
2476.00,53.653
2477.00, 
2478.00,52.677
2479.00, 
2480.00,52.827
2481.00, 
2482.00,52.174
2483.00, 
2484.00,51.958
2485.00, 
2486.00,52.110
2487.00, 
2488.00,52.342
2489.00, 
2490.00,53.126
2491.00, 
2492.00,52.718
2493.00, 
2494.00,53.104
2495.00, 
2496.00,52.654
2497.00, 
2498.00,53.459
2499.00, 
2500.00,52.117
2501.00, 
2502.00,52.516
2503.00, 
2504.00,52.751
2505.00, 
2506.00,52.633
2507.00, 
2508.00,52.939
2509.00, 
2510.00,52.684
2511.00, 
2512.00,51.980
2513.00, 
2514.00,52.152
2515.00, 
2516.00,52.373
2517.00, 
2518.00,52.864
2519.00, 
2520.00,52.860
2521.00, 
2522.00,52.750
2523.00, 
2524.00,52.721
2525.00, 
2526.00,52.121
2527.00, 
2528.00,52.518
2529.00, 
2530.00,53.000
2531.00, 
2532.00,52.657
2533.00, 
2534.00,52.356
2535.00, 
2536.00,53.371
2537.00, 
2538.00,52.026
2539.00, 
2540.00,52.077
2541.00, 
2542.00,51.836
2543.00, 
2544.00,53.012
2545.00, 
2546.00,53.757
2547.00, 
2548.00,53.028
2549.00, 
2550.00,52.039
2551.00, 
2552.00,52.852
2553.00, 
2554.00,51.638
2555.00, 
2556.00,51.272
2557.00, 
2558.00,52.153
2559.00, 
2560.00,52.451
2561.00, 
2562.00,52.350
2563.00, 
2564.00,52.519
2565.00, 
2566.00,52.237
2567.00, 
2568.00,52.358
2569.00, 
2570.00,52.582
2571.00, 
2572.00,52.290
2573.00, 
2574.00,52.495
2575.00, 
2576.00,53.331
2577.00, 
2578.00,52.991
2579.00, 
2580.00,53.689
2581.00, 
2582.00,52.941
2583.00, 
2584.00,52.384
2585.00, 
2586.00,52.082
2587.00, 
2588.00,51.979
2589.00, 
2590.00,51.628
2591.00, 
2592.00,52.163
2593.00, 
2594.00,51.818
2595.00, 
2596.00,53.064
2597.00, 
2598.00,52.423
2599.00, 
2600.00,52.732
