"1cP1 - RawData"
"Wavelength nm.","T%"
200.00,0.003
201.00,0.003
202.00,0.003
203.00,0.001
204.00,0.001
205.00,0.001
206.00,-0.000
207.00,-0.000
208.00,0.002
209.00,0.003
210.00,0.003
211.00,0.001
212.00,0.000
213.00,0.001
214.00,-0.000
215.00,0.002
216.00,0.003
217.00,0.002
218.00,0.002
219.00,0.003
220.00,0.001
221.00,0.002
222.00,-0.001
223.00,-0.000
224.00,0.001
225.00,0.002
226.00,0.000
227.00,-0.002
228.00,0.000
229.00,0.001
230.00,0.001
231.00,-0.000
232.00,-0.002
233.00,-0.000
234.00,0.001
235.00,0.000
236.00,0.000
237.00,0.001
238.00,0.001
239.00,0.001
240.00,0.000
241.00,0.000
242.00,0.002
243.00,-0.001
244.00,-0.001
245.00,0.001
246.00,-0.001
247.00,0.000
248.00,0.001
249.00,-0.000
250.00,-0.000
251.00,0.000
252.00,0.003
253.00,0.000
254.00,0.000
255.00,0.002
256.00,-0.001
257.00,0.000
258.00,0.001
259.00,-0.002
260.00,0.000
261.00,0.002
262.00,0.003
263.00,-0.000
264.00,-0.000
265.00,-0.001
266.00,-0.001
267.00,0.000
268.00,0.001
269.00,-0.001
270.00,0.000
271.00,-0.001
272.00,0.001
273.00,-0.000
274.00,-0.000
275.00,0.001
276.00,-0.000
277.00,-0.001
278.00,-0.000
279.00,0.000
280.00,-0.000
281.00,0.000
282.00,0.000
283.00,0.000
284.00,-0.001
285.00,-0.000
286.00,-0.001
287.00,-0.000
288.00,0.001
289.00,0.001
290.00,0.001
291.00,-0.001
292.00,0.002
293.00,-0.001
294.00,0.001
295.00,0.000
296.00,0.001
297.00,0.000
298.00,0.000
299.00,0.000
300.00,0.001
301.00,0.001
302.00,-0.000
303.00,0.001
304.00,0.000
305.00,0.002
306.00,0.002
307.00,0.002
308.00,0.004
309.00,0.011
310.00,0.014
311.00,0.027
312.00,0.034
313.00,0.056
314.00,0.087
315.00,0.123
316.00,0.181
317.00,0.251
318.00,0.344
319.00,0.460
320.00,0.615
321.00,0.798
322.00,1.011
323.00,1.302
324.00,1.541
325.00,1.898
326.00,2.260
327.00,2.686
328.00,3.119
329.00,3.614
330.00,4.141
331.00,4.685
332.00,5.263
333.00,5.869
334.00,6.451
335.00,7.133
336.00,7.764
337.00,8.406
338.00,9.092
339.00,9.677
340.00,10.329
341.00,10.955
342.00,11.551
343.00,12.124
344.00,12.676
345.00,13.270
346.00,13.767
347.00,14.218
348.00,14.671
349.00,15.084
350.00,15.516
351.00,15.879
352.00,16.228
353.00,16.562
354.00,16.900
355.00,17.208
356.00,17.480
357.00,17.741
358.00,17.952
359.00,18.227
360.00,18.457
361.00,18.530
362.00,18.754
363.00,18.882
364.00,18.969
365.00,19.077
366.00,19.175
367.00,19.261
368.00,19.305
369.00,19.362
370.00,19.453
371.00,19.459
372.00,19.385
373.00,19.431
374.00,19.413
375.00,19.341
376.00,19.242
377.00,19.162
378.00,19.073
379.00,18.958
380.00,18.963
381.00,18.942
382.00,18.926
383.00,18.938
384.00,18.977
385.00,19.021
386.00,19.031
387.00,19.081
388.00,19.205
389.00,19.191
390.00,19.226
391.00,19.284
392.00,19.274
393.00,19.295
394.00,19.335
395.00,19.363
396.00,19.320
397.00,19.329
398.00,19.319
399.00,19.323
400.00,19.336
401.00,19.345
402.00,19.317
403.00,19.302
404.00,19.255
405.00,19.278
406.00,19.235
407.00,19.182
408.00,19.190
409.00,19.126
410.00,19.094
411.00,19.104
412.00,19.002
413.00,19.067
414.00,19.001
415.00,19.041
416.00,19.114
417.00,19.080
418.00,19.098
419.00,19.175
420.00,19.205
421.00,19.195
422.00,19.176
423.00,19.221
424.00,19.269
425.00,19.266
426.00,19.309
427.00,19.366
428.00,19.377
429.00,19.412
430.00,19.447
431.00,19.522
432.00,19.540
433.00,19.623
434.00,19.643
435.00,19.683
436.00,19.766
437.00,19.808
438.00,19.860
439.00,19.958
440.00,19.994
441.00,20.067
442.00,20.158
443.00,20.234
444.00,20.302
445.00,20.401
446.00,20.466
447.00,20.553
448.00,20.657
449.00,20.762
450.00,20.868
451.00,20.936
452.00,21.042
453.00,21.165
454.00,21.263
455.00,21.379
456.00,21.490
457.00,21.576
458.00,21.693
459.00,21.808
460.00,21.944
461.00,22.052
462.00,22.179
463.00,22.331
464.00,22.460
465.00,22.582
466.00,22.689
467.00,22.832
468.00,22.903
469.00,23.058
470.00,23.136
471.00,23.229
472.00,23.360
473.00,23.415
474.00,23.546
475.00,23.674
476.00,23.771
477.00,23.907
478.00,23.980
479.00,24.198
480.00,24.293
481.00,24.435
482.00,24.599
483.00,24.742
484.00,24.897
485.00,25.056
486.00,25.176
487.00,25.375
488.00,25.514
489.00,25.670
490.00,25.855
491.00,25.973
492.00,26.207
493.00,26.343
494.00,26.414
495.00,26.472
496.00,26.613
497.00,26.710
498.00,26.891
499.00,27.014
500.00,27.161
501.00,27.286
502.00,27.432
503.00,27.573
504.00,27.606
505.00,27.769
506.00,27.898
507.00,27.987
508.00,28.101
509.00,28.278
510.00,28.387
511.00,28.518
512.00,28.708
513.00,28.819
514.00,28.938
515.00,29.102
516.00,29.190
517.00,29.326
518.00,29.456
519.00,29.506
520.00,29.568
521.00,29.681
522.00,29.787
523.00,29.802
524.00,29.965
525.00,30.090
526.00,30.208
527.00,30.252
528.00,30.385
529.00,30.542
530.00,30.679
531.00,30.787
532.00,30.830
533.00,30.950
534.00,31.077
535.00,31.137
536.00,31.229
537.00,31.353
538.00,31.412
539.00,31.458
540.00,31.533
541.00,31.617
542.00,31.679
543.00,31.767
544.00,31.931
545.00,32.008
546.00,31.927
547.00,32.093
548.00,32.199
549.00,32.232
550.00,32.352
551.00,32.420
552.00,32.523
553.00,32.552
554.00,32.667
555.00,32.720
556.00,32.770
557.00,32.824
558.00,32.877
559.00,33.006
560.00,33.048
561.00,33.178
562.00,33.222
563.00,33.217
564.00,33.308
565.00,33.311
566.00,33.311
567.00,33.374
568.00,33.415
569.00,33.503
570.00,33.532
571.00,33.609
572.00,33.616
573.00,33.617
574.00,33.675
575.00,33.730
576.00,33.711
577.00,33.807
578.00,33.893
579.00,33.908
580.00,33.957
581.00,34.171
582.00,34.209
583.00,34.202
584.00,34.286
585.00,34.390
586.00,34.426
587.00,34.485
588.00,34.527
589.00,34.527
590.00,34.587
591.00,34.636
592.00,34.588
593.00,34.568
594.00,34.757
595.00,34.837
596.00,34.863
597.00,34.945
598.00,34.998
599.00,35.008
600.00,35.049
601.00,35.124
602.00,35.174
603.00,35.207
604.00,35.264
605.00,35.391
606.00,35.364
607.00,35.381
608.00,35.570
609.00,35.608
610.00,35.484
611.00,35.589
612.00,35.619
613.00,35.661
614.00,35.722
615.00,35.810
616.00,35.910
617.00,35.963
618.00,35.916
619.00,35.968
620.00,35.937
621.00,36.135
622.00,36.230
623.00,36.187
624.00,36.327
625.00,36.389
626.00,36.431
627.00,36.536
628.00,36.528
629.00,36.598
630.00,36.636
631.00,36.649
632.00,36.816
633.00,36.881
634.00,36.931
635.00,37.029
636.00,37.139
637.00,37.220
638.00,37.261
639.00,37.404
640.00,37.420
641.00,37.407
642.00,37.527
643.00,37.658
644.00,37.730
645.00,37.830
646.00,37.919
647.00,37.979
648.00,38.026
649.00,38.075
650.00,38.137
651.00,38.323
652.00,38.338
653.00,38.398
654.00,38.492
655.00,38.718
656.00,38.965
657.00,38.659
658.00,38.821
659.00,39.064
660.00,38.947
661.00,39.128
662.00,39.239
663.00,39.396
664.00,39.900
665.00,39.756
666.00,39.668
667.00,39.809
668.00,39.839
669.00,40.044
670.00,40.318
671.00,40.325
672.00,40.357
673.00,40.464
674.00,40.626
675.00,40.665
676.00,40.882
677.00,41.026
678.00,40.725
679.00,40.961
680.00,41.124
681.00,41.292
682.00,41.171
683.00,41.307
684.00,41.608
685.00,41.640
686.00,41.492
687.00,41.693
688.00,41.780
689.00,41.784
690.00,42.190
691.00,42.373
692.00,42.120
693.00,42.164
694.00,42.357
695.00,42.457
696.00,42.621
697.00,42.611
698.00,42.742
699.00,43.008
700.00,43.061
701.00,43.025
702.00,43.160
703.00,43.437
704.00,43.428
705.00,43.359
706.00,43.423
707.00,43.486
708.00,43.655
709.00,44.184
710.00,43.852
711.00,43.808
712.00,43.889
713.00,44.114
714.00,44.137
715.00,44.368
716.00,44.082
717.00,44.407
718.00,44.399
719.00,44.378
720.00,44.598
721.00,49.107
722.00,49.039
723.00,49.091
724.00,49.136
725.00,49.113
726.00,49.254
727.00,49.293
728.00,49.280
729.00,49.334
730.00,49.457
731.00,49.455
732.00,49.487
733.00,49.519
734.00,49.517
735.00,49.616
736.00,49.644
737.00,49.688
738.00,49.795
739.00,49.779
740.00,49.788
741.00,49.966
742.00,49.925
743.00,49.919
744.00,49.857
745.00,49.905
746.00,49.965
747.00,50.004
748.00,49.874
749.00,49.964
750.00,49.977
751.00,49.996
752.00,50.012
753.00,50.031
754.00,50.047
755.00,50.035
756.00,50.099
757.00,50.102
758.00,50.122
759.00,50.130
760.00,50.203
761.00,50.141
762.00,50.207
763.00,50.244
764.00,50.241
765.00,50.250
766.00,50.294
767.00,50.332
768.00,50.308
769.00,50.358
770.00,50.457
771.00,50.336
772.00,50.356
773.00,50.397
774.00,50.491
775.00,50.462
776.00,50.400
777.00,50.438
778.00,50.447
779.00,50.536
780.00,50.452
781.00,50.486
782.00,50.523
783.00,50.449
784.00,50.484
785.00,50.406
786.00,50.515
787.00,50.462
788.00,50.463
789.00,50.463
790.00,50.364
791.00,50.513
792.00,50.475
793.00,50.486
794.00,50.527
795.00,50.406
796.00,50.507
797.00,50.442
798.00,50.502
799.00,50.372
800.00,50.377
801.00,50.430
802.00,50.415
803.00,50.424
804.00,50.334
805.00,50.409
806.00,50.377
807.00,50.298
808.00,50.316
809.00,50.256
810.00,50.292
811.00,50.292
812.00,50.342
813.00,50.259
814.00,50.320
815.00,50.263
816.00,50.236
817.00,50.173
818.00,50.229
819.00,50.270
820.00,50.226
821.00,50.222
822.00,50.210
823.00,50.087
824.00,50.188
825.00,50.091
826.00,50.117
827.00,50.177
828.00,50.171
829.00,50.097
830.00,50.050
831.00,52.478
832.00,52.494
833.00,52.356
834.00,52.397
835.00,52.394
836.00,52.406
837.00,52.362
838.00,52.346
839.00,52.335
840.00,52.234
841.00,52.298
842.00,52.258
843.00,52.250
844.00,52.244
845.00,52.158
846.00,52.214
847.00,52.165
848.00,52.165
849.00,52.153
850.00,52.158
851.00,52.012
852.00,52.095
853.00,51.977
854.00,51.972
855.00,51.942
856.00,51.968
857.00,51.930
858.00,51.887
859.00,51.903
860.00,51.871
861.00,51.875
862.00,51.763
863.00,51.847
864.00,51.791
865.00,51.842
866.00,51.764
867.00,51.758
868.00,52.001
869.00,51.726
870.00,51.784
871.00,51.744
872.00,51.791
873.00,51.699
874.00,51.753
875.00,51.689
876.00,51.757
877.00,51.698
878.00,51.686
879.00,51.651
880.00,51.650
881.00,51.611
882.00,51.650
883.00,51.605
884.00,51.572
885.00,51.530
886.00,51.558
887.00,51.510
888.00,51.486
889.00,51.484
890.00,51.501
891.00,51.462
892.00,51.421
893.00,51.417
894.00,51.426
895.00,51.392
896.00,51.348
897.00,51.352
898.00,51.306
899.00,51.330
900.00,51.289
901.00,51.283
902.00,51.295
903.00,51.256
904.00,51.255
905.00,51.251
906.00,51.237
907.00,51.193
908.00,51.151
909.00,51.167
910.00,51.108
911.00,51.118
912.00,51.108
913.00,51.063
914.00,51.062
915.00,51.040
916.00,51.009
917.00,51.006
918.00,50.992
919.00,50.955
920.00,50.943
921.00,50.925
922.00,50.900
923.00,50.923
924.00,50.840
925.00,50.889
926.00,50.833
927.00,50.837
928.00,50.773
929.00,50.815
930.00,50.761
931.00,50.799
932.00,50.744
933.00,50.760
934.00,50.739
935.00,50.686
936.00,50.630
937.00,50.658
938.00,50.616
939.00,50.628
940.00,50.570
941.00,50.598
942.00,50.543
943.00,50.518
944.00,50.497
945.00,50.517
946.00,50.507
947.00,50.435
948.00,50.442
949.00,50.394
950.00,50.416
951.00,50.376
952.00,50.357
953.00,50.368
954.00,50.316
955.00,50.253
956.00,50.290
957.00,50.210
958.00,50.241
959.00,50.165
960.00,50.180
961.00,50.166
962.00,50.162
963.00,50.109
964.00,50.108
965.00,50.111
966.00,50.082
967.00,50.103
968.00,50.047
969.00,50.097
970.00,50.059
971.00,50.073
972.00,50.027
973.00,50.079
974.00,50.090
975.00,50.040
976.00,50.079
977.00,50.057
978.00,50.125
979.00,50.084
980.00,50.086
981.00,50.119
982.00,50.043
983.00,50.088
984.00,50.043
985.00,50.078
986.00,50.038
987.00,50.064
988.00,50.016
989.00,50.047
990.00,50.024
991.00,49.999
992.00,50.032
993.00,49.969
994.00,49.959
995.00,49.960
996.00,49.956
997.00,49.943
998.00,49.896
999.00,49.952
1000.00,49.878
1001.00,49.903
1002.00,49.874
1003.00,49.889
1004.00,49.847
1005.00,49.808
1006.00,49.853
1007.00,49.788
1008.00,49.786
1009.00,49.776
1010.00,49.758
1011.00,49.779
1012.00,49.726
1013.00,49.751
1014.00,49.737
1015.00,49.721
1016.00,49.672
1017.00,49.669
1018.00,49.678
1019.00,49.628
1020.00,49.650
1021.00,49.607
1022.00,49.616
1023.00,49.561
1024.00,49.575
1025.00,49.562
1026.00,49.542
1027.00,49.524
1028.00,49.545
1029.00,49.541
1030.00,49.475
1031.00,49.499
1032.00,49.442
1033.00,49.453
1034.00,49.418
1035.00,49.379
1036.00,49.384
1037.00,49.345
1038.00,49.343
1039.00,49.305
1040.00,49.303
1041.00,49.268
1042.00,49.266
1043.00,49.230
1044.00,49.278
1045.00,49.259
1046.00,49.237
1047.00,49.287
1048.00,49.267
1049.00,49.294
1050.00,49.282
1051.00,49.332
1052.00,49.303
1053.00,49.326
1054.00,49.319
1055.00,49.364
1056.00,49.358
1057.00,49.359
1058.00,49.346
1059.00,49.323
1060.00,49.368
1061.00,49.313
1062.00,49.308
1063.00,49.320
1064.00,49.343
1065.00,49.317
1066.00,49.335
1067.00,49.302
1068.00,49.332
1069.00,49.274
1070.00,49.254
1071.00,49.245
1072.00,49.278
1073.00,49.224
1074.00,49.229
1075.00,49.217
1076.00,49.219
1077.00,49.197
1078.00,49.181
1079.00,49.201
1080.00,49.223
1081.00,49.200
1082.00,49.196
1083.00,49.193
1084.00,49.165
1085.00,49.171
1086.00,49.146
1087.00,49.143
1088.00,49.124
1089.00,49.120
1090.00,49.089
1091.00,49.120
1092.00,49.101
1093.00,49.103
1094.00,49.070
1095.00,49.066
1096.00,49.046
1097.00,49.060
1098.00,49.044
1099.00,49.060
1100.00,49.015
1101.00,49.018
1102.00,49.002
1103.00,49.007
1104.00,48.989
1105.00,48.987
1106.00,48.967
1107.00,48.976
1108.00,48.958
1109.00,48.948
1110.00,48.947
1111.00,48.939
1112.00,48.922
1113.00,48.932
1114.00,48.894
1115.00,48.925
1116.00,48.902
1117.00,48.889
1118.00,48.890
1119.00,48.896
1120.00,48.882
1121.00,48.889
1122.00,48.843
1123.00,48.856
1124.00,48.851
1125.00,48.852
1126.00,48.833
1127.00,48.859
1128.00,48.828
1129.00,48.835
1130.00,48.805
1131.00,48.802
1132.00,48.799
1133.00,48.792
1134.00,48.770
1135.00,48.811
1136.00,48.751
1137.00,48.763
1138.00,48.757
1139.00,48.780
1140.00,48.777
1141.00,48.784
1142.00,48.754
1143.00,48.786
1144.00,48.737
1145.00,48.745
1146.00,48.746
1147.00,48.734
1148.00,48.722
1149.00,48.747
1150.00,48.726
1151.00,48.735
1152.00,48.725
1153.00,48.728
1154.00,48.718
1155.00,48.734
1156.00,48.708
1157.00,48.736
1158.00,48.715
1159.00,48.725
1160.00,48.721
1161.00,48.716
1162.00,48.720
1163.00,48.712
1164.00,48.712
1165.00,48.698
1166.00,48.718
1167.00,48.698
1168.00,48.719
1169.00,48.696
1170.00,48.699
1171.00,48.678
1172.00,48.693
1173.00,48.691
1174.00,48.706
1175.00,48.697
1176.00,48.703
1177.00,48.680
1178.00,48.667
1179.00,48.704
1180.00,48.673
1181.00,48.716
1182.00,48.693
1183.00,48.681
1184.00,48.666
1185.00,48.690
1186.00,48.674
1187.00,48.691
1188.00,48.676
1189.00,48.665
1190.00,48.682
1191.00,48.659
1192.00,48.682
1193.00,48.668
1194.00,48.661
1195.00,48.629
1196.00,48.676
1197.00,48.664
1198.00,48.659
1199.00,48.661
1200.00,48.676
1201.00,48.698
1202.00,48.657
1203.00,48.671
1204.00,48.664
1205.00,48.677
1206.00,48.665
1207.00,48.677
1208.00,48.650
1209.00,48.655
1210.00,48.662
1211.00,48.653
1212.00,48.713
1213.00,48.663
1214.00,48.682
1215.00,48.652
1216.00,48.658
1217.00,48.674
1218.00,48.662
1219.00,48.679
1220.00,48.673
1221.00,48.702
1222.00,48.684
1223.00,48.708
1224.00,48.683
1225.00,48.686
1226.00,48.689
1227.00,48.677
1228.00,48.722
1229.00,48.685
1230.00,48.712
1231.00,48.726
1232.00,48.744
1233.00,48.733
1234.00,48.741
1235.00,48.742
1236.00,48.745
1237.00,48.761
1238.00,48.739
1239.00,48.757
1240.00,48.754
1241.00,48.758
1242.00,48.760
1243.00,48.784
1244.00,48.743
1245.00,48.799
1246.00,48.777
1247.00,48.767
1248.00,48.783
1249.00,48.780
1250.00,48.801
1251.00,48.782
1252.00,48.796
1253.00,48.779
1254.00,48.822
1255.00,48.775
1256.00,48.778
1257.00,48.767
1258.00,48.839
1259.00,48.820
1260.00,48.840
1261.00,48.836
1262.00,48.828
1263.00,48.833
1264.00,48.842
1265.00,48.855
1266.00,48.842
1267.00,48.869
1268.00,48.865
1269.00,48.867
1270.00,48.891
1271.00,48.884
1272.00,48.880
1273.00,48.925
1274.00,48.921
1275.00,48.911
1276.00,48.886
1277.00,48.912
1278.00,48.926
1279.00,48.902
1280.00,48.904
1281.00,48.929
1282.00,48.930
1283.00,48.929
1284.00,48.960
1285.00,48.920
1286.00,48.957
1287.00,48.941
1288.00,48.953
1289.00,48.958
1290.00,48.988
1291.00,48.985
1292.00,49.000
1293.00,48.997
1294.00,49.038
1295.00,49.021
1296.00,49.020
1297.00,49.023
1298.00,49.076
1299.00,49.023
1300.00,49.066
1301.00,49.037
1302.00,49.067
1303.00,49.069
1304.00,49.036
1305.00,49.085
1306.00,49.072
1307.00,49.068
1308.00,49.071
1309.00,49.092
1310.00,49.077
1311.00,49.065
1312.00,49.100
1313.00,49.155
1314.00,49.126
1315.00,49.149
1316.00,49.150
1317.00,49.202
1318.00,49.172
1319.00,49.184
1320.00,49.188
1321.00,49.370
1322.00,49.359
1323.00,49.333
1324.00,49.346
1325.00,49.340
1326.00,49.347
1327.00,49.338
1328.00,49.340
1329.00,49.311
1330.00,49.329
1331.00,49.348
1332.00,49.378
1333.00,49.275
1334.00,49.380
1335.00,49.390
1336.00,49.437
1337.00,49.433
1338.00,49.514
1339.00,49.553
1340.00,49.597
1341.00,49.672
1342.00,49.719
1343.00,49.768
1344.00,49.831
1345.00,49.885
1346.00,49.930
1347.00,49.950
1348.00,49.998
1349.00,50.005
1350.00,50.041
1351.00,50.041
1352.00,50.073
1353.00,50.083
1354.00,50.092
1355.00,50.010
1356.00,50.099
1357.00,50.092
1358.00,50.110
1359.00,50.101
1360.00,50.125
1361.00,50.123
1362.00,50.061
1363.00,50.189
1364.00,50.173
1365.00,50.097
1366.00,50.210
1367.00,50.151
1368.00,50.094
1369.00,50.122
1370.00,50.128
1371.00,50.125
1372.00,50.122
1373.00,50.116
1374.00,50.146
1375.00,50.100
1376.00,50.090
1377.00,50.152
1378.00,50.239
1379.00,50.127
1380.00,50.137
1381.00,50.161
1382.00,50.027
1383.00,50.122
1384.00,50.019
1385.00,50.074
1386.00,50.134
1387.00,50.124
1388.00,50.013
1389.00,50.047
1390.00,50.056
1391.00,50.158
1392.00,50.068
1393.00,50.241
1394.00,50.143
1395.00,50.099
1396.00,50.056
1397.00,50.125
1398.00,50.122
1399.00,50.122
1400.00,50.091
1401.00,50.086
1402.00,50.135
1403.00,50.154
1404.00,50.152
1405.00,50.174
1406.00,50.179
1407.00,50.169
1408.00,50.192
1409.00,50.167
1410.00,50.220
1411.00,50.196
1412.00,50.242
1413.00,50.211
1414.00,50.218
1415.00,50.250
1416.00,50.285
1417.00,50.298
1418.00,50.267
1419.00,50.306
1420.00,50.292
1421.00,50.358
1422.00,50.326
1423.00,50.365
1424.00,50.352
1425.00,50.383
1426.00,50.392
1427.00,50.419
1428.00,50.396
1429.00,50.440
1430.00,50.431
1431.00,50.482
1432.00,50.482
1433.00,50.506
1434.00,50.483
1435.00,50.546
1436.00,50.538
1437.00,50.543
1438.00,50.575
1439.00,50.600
1440.00,50.610
1441.00,50.602
1442.00,50.635
1443.00,50.677
1444.00,50.712
1445.00,50.674
1446.00,50.726
1447.00,50.731
1448.00,50.789
1449.00,50.779
1450.00,50.782
1451.00,50.801
1452.00,50.836
1453.00,50.839
1454.00,50.893
1455.00,50.885
1456.00,50.890
1457.00,50.883
1458.00,50.918
1459.00,50.923
1460.00,50.962
1461.00,50.946
1462.00,51.012
1463.00,50.981
1464.00,51.008
1465.00,51.044
1466.00,51.045
1467.00,51.071
1468.00,51.144
1469.00,51.081
1470.00,51.129
1471.00,51.143
1472.00,51.148
1473.00,51.183
1474.00,51.197
1475.00,51.192
1476.00,51.224
1477.00,51.191
1478.00,51.224
1479.00,51.230
1480.00,51.218
1481.00,51.234
1482.00,51.275
1483.00,51.287
1484.00,51.333
1485.00,51.331
1486.00,51.354
1487.00,51.389
1488.00,51.407
1489.00,51.383
1490.00,51.435
1491.00,51.402
1492.00,51.460
1493.00,51.417
1494.00,51.455
1495.00,51.442
1496.00,51.483
1497.00,51.469
1498.00,51.506
1499.00,51.498
1500.00,51.530
1501.00, 
1502.00, 
1503.00, 
1504.00, 
1505.00, 
1506.00, 
1507.00, 
1508.00, 
1509.00, 
1510.00, 
1511.00, 
1512.00, 
1513.00, 
1514.00, 
1515.00, 
1516.00, 
1517.00, 
1518.00, 
1519.00, 
1520.00, 
1521.00, 
1522.00, 
1523.00, 
1524.00, 
1525.00, 
1526.00, 
1527.00, 
1528.00, 
1529.00, 
1530.00, 
1531.00, 
1532.00, 
1533.00, 
1534.00, 
1535.00, 
1536.00, 
1537.00, 
1538.00, 
1539.00, 
1540.00, 
1541.00, 
1542.00, 
1543.00, 
1544.00, 
1545.00, 
1546.00, 
1547.00, 
1548.00, 
1549.00, 
1550.00, 
1551.00, 
1552.00, 
1553.00, 
1554.00, 
1555.00, 
1556.00, 
1557.00, 
1558.00, 
1559.00, 
1560.00, 
1561.00, 
1562.00, 
1563.00, 
1564.00, 
1565.00, 
1566.00, 
1567.00, 
1568.00, 
1569.00, 
1570.00, 
1571.00, 
1572.00, 
1573.00, 
1574.00, 
1575.00, 
1576.00, 
1577.00, 
1578.00, 
1579.00, 
1580.00, 
1581.00, 
1582.00, 
1583.00, 
1584.00, 
1585.00, 
1586.00, 
1587.00, 
1588.00, 
1589.00, 
1590.00, 
1591.00, 
1592.00, 
1593.00, 
1594.00, 
1595.00, 
1596.00, 
1597.00, 
1598.00, 
1599.00, 
1600.00, 
1601.00, 
1602.00, 
1603.00, 
1604.00, 
1605.00, 
1606.00, 
1607.00, 
1608.00, 
1609.00, 
1610.00, 
1611.00, 
1612.00, 
1613.00, 
1614.00, 
1615.00, 
1616.00, 
1617.00, 
1618.00, 
1619.00, 
1620.00, 
1621.00, 
1622.00, 
1623.00, 
1624.00, 
1625.00, 
1626.00, 
1627.00, 
1628.00, 
1629.00, 
1630.00, 
1631.00, 
1632.00, 
1633.00, 
1634.00, 
1635.00, 
1636.00, 
1637.00, 
1638.00, 
1639.00, 
1640.00, 
1641.00, 
1642.00, 
1643.00, 
1644.00, 
1645.00, 
1646.00, 
1647.00, 
1648.00, 
1649.00, 
1650.00, 
1651.00, 
1652.00, 
1653.00, 
1654.00, 
1655.00, 
1656.00, 
1657.00, 
1658.00, 
1659.00, 
1660.00, 
1661.00, 
1662.00, 
1663.00, 
1664.00, 
1665.00, 
1666.00, 
1667.00, 
1668.00, 
1669.00, 
1670.00, 
1671.00, 
1672.00, 
1673.00, 
1674.00, 
1675.00, 
1676.00, 
1677.00, 
1678.00, 
1679.00, 
1680.00, 
1681.00, 
1682.00, 
1683.00, 
1684.00, 
1685.00, 
1686.00, 
1687.00, 
1688.00, 
1689.00, 
1690.00, 
1691.00, 
1692.00, 
1693.00, 
1694.00, 
1695.00, 
1696.00, 
1697.00, 
1698.00, 
1699.00, 
1700.00, 
1701.00, 
1702.00, 
1703.00, 
1704.00, 
1705.00, 
1706.00, 
1707.00, 
1708.00, 
1709.00, 
1710.00, 
1711.00, 
1712.00, 
1713.00, 
1714.00, 
1715.00, 
1716.00, 
1717.00, 
1718.00, 
1719.00, 
1720.00, 
1721.00, 
1722.00, 
1723.00, 
1724.00, 
1725.00, 
1726.00, 
1727.00, 
1728.00, 
1729.00, 
1730.00, 
1731.00, 
1732.00, 
1733.00, 
1734.00, 
1735.00, 
1736.00, 
1737.00, 
1738.00, 
1739.00, 
1740.00, 
1741.00, 
1742.00, 
1743.00, 
1744.00, 
1745.00, 
1746.00, 
1747.00, 
1748.00, 
1749.00, 
1750.00, 
1751.00, 
1752.00, 
1753.00, 
1754.00, 
1755.00, 
1756.00, 
1757.00, 
1758.00, 
1759.00, 
1760.00, 
1761.00, 
1762.00, 
1763.00, 
1764.00, 
1765.00, 
1766.00, 
1767.00, 
1768.00, 
1769.00, 
1770.00, 
1771.00, 
1772.00, 
1773.00, 
1774.00, 
1775.00, 
1776.00, 
1777.00, 
1778.00, 
1779.00, 
1780.00, 
1781.00, 
1782.00, 
1783.00, 
1784.00, 
1785.00, 
1786.00, 
1787.00, 
1788.00, 
1789.00, 
1790.00, 
1791.00, 
1792.00, 
1793.00, 
1794.00, 
1795.00, 
1796.00, 
1797.00, 
1798.00, 
1799.00, 
1800.00, 
1801.00, 
1802.00, 
1803.00, 
1804.00, 
1805.00, 
1806.00, 
1807.00, 
1808.00, 
1809.00, 
1810.00, 
1811.00, 
1812.00, 
1813.00, 
1814.00, 
1815.00, 
1816.00, 
1817.00, 
1818.00, 
1819.00, 
1820.00, 
1821.00, 
1822.00, 
1823.00, 
1824.00, 
1825.00, 
1826.00, 
1827.00, 
1828.00, 
1829.00, 
1830.00, 
1831.00, 
1832.00, 
1833.00, 
1834.00, 
1835.00, 
1836.00, 
1837.00, 
1838.00, 
1839.00, 
1840.00, 
1841.00, 
1842.00, 
1843.00, 
1844.00, 
1845.00, 
1846.00, 
1847.00, 
1848.00, 
1849.00, 
1850.00, 
1851.00, 
1852.00, 
1853.00, 
1854.00, 
1855.00, 
1856.00, 
1857.00, 
1858.00, 
1859.00, 
1860.00, 
1861.00, 
1862.00, 
1863.00, 
1864.00, 
1865.00, 
1866.00, 
1867.00, 
1868.00, 
1869.00, 
1870.00, 
1871.00, 
1872.00, 
1873.00, 
1874.00, 
1875.00, 
1876.00, 
1877.00, 
1878.00, 
1879.00, 
1880.00, 
1881.00, 
1882.00, 
1883.00, 
1884.00, 
1885.00, 
1886.00, 
1887.00, 
1888.00, 
1889.00, 
1890.00, 
1891.00, 
1892.00, 
1893.00, 
1894.00, 
1895.00, 
1896.00, 
1897.00, 
1898.00, 
1899.00, 
1900.00, 
1901.00, 
1902.00, 
1903.00, 
1904.00, 
1905.00, 
1906.00, 
1907.00, 
1908.00, 
1909.00, 
1910.00, 
1911.00, 
1912.00, 
1913.00, 
1914.00, 
1915.00, 
1916.00, 
1917.00, 
1918.00, 
1919.00, 
1920.00, 
1921.00, 
1922.00, 
1923.00, 
1924.00, 
1925.00, 
1926.00, 
1927.00, 
1928.00, 
1929.00, 
1930.00, 
1931.00, 
1932.00, 
1933.00, 
1934.00, 
1935.00, 
1936.00, 
1937.00, 
1938.00, 
1939.00, 
1940.00, 
1941.00, 
1942.00, 
1943.00, 
1944.00, 
1945.00, 
1946.00, 
1947.00, 
1948.00, 
1949.00, 
1950.00, 
1951.00, 
1952.00, 
1953.00, 
1954.00, 
1955.00, 
1956.00, 
1957.00, 
1958.00, 
1959.00, 
1960.00, 
1961.00, 
1962.00, 
1963.00, 
1964.00, 
1965.00, 
1966.00, 
1967.00, 
1968.00, 
1969.00, 
1970.00, 
1971.00, 
1972.00, 
1973.00, 
1974.00, 
1975.00, 
1976.00, 
1977.00, 
1978.00, 
1979.00, 
1980.00, 
1981.00, 
1982.00, 
1983.00, 
1984.00, 
1985.00, 
1986.00, 
1987.00, 
1988.00, 
1989.00, 
1990.00, 
1991.00, 
1992.00, 
1993.00, 
1994.00, 
1995.00, 
1996.00, 
1997.00, 
1998.00, 
1999.00, 
2000.00, 
2001.00, 
2002.00, 
2003.00, 
2004.00, 
2005.00, 
2006.00, 
2007.00, 
2008.00, 
2009.00, 
2010.00, 
2011.00, 
2012.00, 
2013.00, 
2014.00, 
2015.00, 
2016.00, 
2017.00, 
2018.00, 
2019.00, 
2020.00, 
2021.00, 
2022.00, 
2023.00, 
2024.00, 
2025.00, 
2026.00, 
2027.00, 
2028.00, 
2029.00, 
2030.00, 
2031.00, 
2032.00, 
2033.00, 
2034.00, 
2035.00, 
2036.00, 
2037.00, 
2038.00, 
2039.00, 
2040.00, 
2041.00, 
2042.00, 
2043.00, 
2044.00, 
2045.00, 
2046.00, 
2047.00, 
2048.00, 
2049.00, 
2050.00, 
2051.00, 
2052.00, 
2053.00, 
2054.00, 
2055.00, 
2056.00, 
2057.00, 
2058.00, 
2059.00, 
2060.00, 
2061.00, 
2062.00, 
2063.00, 
2064.00, 
2065.00, 
2066.00, 
2067.00, 
2068.00, 
2069.00, 
2070.00, 
2071.00, 
2072.00, 
2073.00, 
2074.00, 
2075.00, 
2076.00, 
2077.00, 
2078.00, 
2079.00, 
2080.00, 
2081.00, 
2082.00, 
2083.00, 
2084.00, 
2085.00, 
2086.00, 
2087.00, 
2088.00, 
2089.00, 
2090.00, 
2091.00, 
2092.00, 
2093.00, 
2094.00, 
2095.00, 
2096.00, 
2097.00, 
2098.00, 
2099.00, 
2100.00, 
2101.00, 
2102.00, 
2103.00, 
2104.00, 
2105.00, 
2106.00, 
2107.00, 
2108.00, 
2109.00, 
2110.00, 
2111.00, 
2112.00, 
2113.00, 
2114.00, 
2115.00, 
2116.00, 
2117.00, 
2118.00, 
2119.00, 
2120.00, 
2121.00, 
2122.00, 
2123.00, 
2124.00, 
2125.00, 
2126.00, 
2127.00, 
2128.00, 
2129.00, 
2130.00, 
2131.00, 
2132.00, 
2133.00, 
2134.00, 
2135.00, 
2136.00, 
2137.00, 
2138.00, 
2139.00, 
2140.00, 
2141.00, 
2142.00, 
2143.00, 
2144.00, 
2145.00, 
2146.00, 
2147.00, 
2148.00, 
2149.00, 
2150.00, 
2151.00, 
2152.00, 
2153.00, 
2154.00, 
2155.00, 
2156.00, 
2157.00, 
2158.00, 
2159.00, 
2160.00, 
2161.00, 
2162.00, 
2163.00, 
2164.00, 
2165.00, 
2166.00, 
2167.00, 
2168.00, 
2169.00, 
2170.00, 
2171.00, 
2172.00, 
2173.00, 
2174.00, 
2175.00, 
2176.00, 
2177.00, 
2178.00, 
2179.00, 
2180.00, 
2181.00, 
2182.00, 
2183.00, 
2184.00, 
2185.00, 
2186.00, 
2187.00, 
2188.00, 
2189.00, 
2190.00, 
2191.00, 
2192.00, 
2193.00, 
2194.00, 
2195.00, 
2196.00, 
2197.00, 
2198.00, 
2199.00, 
2200.00, 
2201.00, 
2202.00, 
2203.00, 
2204.00, 
2205.00, 
2206.00, 
2207.00, 
2208.00, 
2209.00, 
2210.00, 
2211.00, 
2212.00, 
2213.00, 
2214.00, 
2215.00, 
2216.00, 
2217.00, 
2218.00, 
2219.00, 
2220.00, 
2221.00, 
2222.00, 
2223.00, 
2224.00, 
2225.00, 
2226.00, 
2227.00, 
2228.00, 
2229.00, 
2230.00, 
2231.00, 
2232.00, 
2233.00, 
2234.00, 
2235.00, 
2236.00, 
2237.00, 
2238.00, 
2239.00, 
2240.00, 
2241.00, 
2242.00, 
2243.00, 
2244.00, 
2245.00, 
2246.00, 
2247.00, 
2248.00, 
2249.00, 
2250.00, 
2251.00, 
2252.00, 
2253.00, 
2254.00, 
2255.00, 
2256.00, 
2257.00, 
2258.00, 
2259.00, 
2260.00, 
2261.00, 
2262.00, 
2263.00, 
2264.00, 
2265.00, 
2266.00, 
2267.00, 
2268.00, 
2269.00, 
2270.00, 
2271.00, 
2272.00, 
2273.00, 
2274.00, 
2275.00, 
2276.00, 
2277.00, 
2278.00, 
2279.00, 
2280.00, 
2281.00, 
2282.00, 
2283.00, 
2284.00, 
2285.00, 
2286.00, 
2287.00, 
2288.00, 
2289.00, 
2290.00, 
2291.00, 
2292.00, 
2293.00, 
2294.00, 
2295.00, 
2296.00, 
2297.00, 
2298.00, 
2299.00, 
2300.00, 
2301.00, 
2302.00, 
2303.00, 
2304.00, 
2305.00, 
2306.00, 
2307.00, 
2308.00, 
2309.00, 
2310.00, 
2311.00, 
2312.00, 
2313.00, 
2314.00, 
2315.00, 
2316.00, 
2317.00, 
2318.00, 
2319.00, 
2320.00, 
2321.00, 
2322.00, 
2323.00, 
2324.00, 
2325.00, 
2326.00, 
2327.00, 
2328.00, 
2329.00, 
2330.00, 
2331.00, 
2332.00, 
2333.00, 
2334.00, 
2335.00, 
2336.00, 
2337.00, 
2338.00, 
2339.00, 
2340.00, 
2341.00, 
2342.00, 
2343.00, 
2344.00, 
2345.00, 
2346.00, 
2347.00, 
2348.00, 
2349.00, 
2350.00, 
2351.00, 
2352.00, 
2353.00, 
2354.00, 
2355.00, 
2356.00, 
2357.00, 
2358.00, 
2359.00, 
2360.00, 
2361.00, 
2362.00, 
2363.00, 
2364.00, 
2365.00, 
2366.00, 
2367.00, 
2368.00, 
2369.00, 
2370.00, 
2371.00, 
2372.00, 
2373.00, 
2374.00, 
2375.00, 
2376.00, 
2377.00, 
2378.00, 
2379.00, 
2380.00, 
2381.00, 
2382.00, 
2383.00, 
2384.00, 
2385.00, 
2386.00, 
2387.00, 
2388.00, 
2389.00, 
2390.00, 
2391.00, 
2392.00, 
2393.00, 
2394.00, 
2395.00, 
2396.00, 
2397.00, 
2398.00, 
2399.00, 
2400.00, 
2401.00, 
2402.00, 
2403.00, 
2404.00, 
2405.00, 
2406.00, 
2407.00, 
2408.00, 
2409.00, 
2410.00, 
2411.00, 
2412.00, 
2413.00, 
2414.00, 
2415.00, 
2416.00, 
2417.00, 
2418.00, 
2419.00, 
2420.00, 
2421.00, 
2422.00, 
2423.00, 
2424.00, 
2425.00, 
2426.00, 
2427.00, 
2428.00, 
2429.00, 
2430.00, 
2431.00, 
2432.00, 
2433.00, 
2434.00, 
2435.00, 
2436.00, 
2437.00, 
2438.00, 
2439.00, 
2440.00, 
2441.00, 
2442.00, 
2443.00, 
2444.00, 
2445.00, 
2446.00, 
2447.00, 
2448.00, 
2449.00, 
2450.00, 
2451.00, 
2452.00, 
2453.00, 
2454.00, 
2455.00, 
2456.00, 
2457.00, 
2458.00, 
2459.00, 
2460.00, 
2461.00, 
2462.00, 
2463.00, 
2464.00, 
2465.00, 
2466.00, 
2467.00, 
2468.00, 
2469.00, 
2470.00, 
2471.00, 
2472.00, 
2473.00, 
2474.00, 
2475.00, 
2476.00, 
2477.00, 
2478.00, 
2479.00, 
2480.00, 
2481.00, 
2482.00, 
2483.00, 
2484.00, 
2485.00, 
2486.00, 
2487.00, 
2488.00, 
2489.00, 
2490.00, 
2491.00, 
2492.00, 
2493.00, 
2494.00, 
2495.00, 
2496.00, 
2497.00, 
2498.00, 
2499.00, 
2500.00, 
2501.00, 
2502.00, 
2503.00, 
2504.00, 
2505.00, 
2506.00, 
2507.00, 
2508.00, 
2509.00, 
2510.00, 
2511.00, 
2512.00, 
2513.00, 
2514.00, 
2515.00, 
2516.00, 
2517.00, 
2518.00, 
2519.00, 
2520.00, 
2521.00, 
2522.00, 
2523.00, 
2524.00, 
2525.00, 
2526.00, 
2527.00, 
2528.00, 
2529.00, 
2530.00, 
2531.00, 
2532.00, 
2533.00, 
2534.00, 
2535.00, 
2536.00, 
2537.00, 
2538.00, 
2539.00, 
2540.00, 
2541.00, 
2542.00, 
2543.00, 
2544.00, 
2545.00, 
2546.00, 
2547.00, 
2548.00, 
2549.00, 
2550.00, 
2551.00, 
2552.00, 
2553.00, 
2554.00, 
2555.00, 
2556.00, 
2557.00, 
2558.00, 
2559.00, 
2560.00, 
2561.00, 
2562.00, 
2563.00, 
2564.00, 
2565.00, 
2566.00, 
2567.00, 
2568.00, 
2569.00, 
2570.00, 
2571.00, 
2572.00, 
2573.00, 
2574.00, 
2575.00, 
2576.00, 
2577.00, 
2578.00, 
2579.00, 
2580.00, 
2581.00, 
2582.00, 
2583.00, 
2584.00, 
2585.00, 
2586.00, 
2587.00, 
2588.00, 
2589.00, 
2590.00, 
2591.00, 
2592.00, 
2593.00, 
2594.00, 
2595.00, 
2596.00, 
2597.00, 
2598.00, 
2599.00, 
2600.00, 
