"2cP2 - RawData"
"Wavelength nm.","T%"
200.00,0.002
201.00,-0.000
202.00,-0.002
203.00,0.002
204.00,0.000
205.00,0.002
206.00,0.002
207.00,0.004
208.00,0.000
209.00,0.001
210.00,-0.001
211.00,0.001
212.00,-0.002
213.00,0.001
214.00,0.002
215.00,-0.000
216.00,0.002
217.00,0.002
218.00,0.003
219.00,0.004
220.00,0.002
221.00,0.002
222.00,-0.000
223.00,0.001
224.00,0.000
225.00,-0.001
226.00,-0.001
227.00,-0.001
228.00,0.001
229.00,-0.000
230.00,0.001
231.00,0.000
232.00,-0.000
233.00,0.000
234.00,0.001
235.00,-0.000
236.00,0.001
237.00,-0.000
238.00,-0.002
239.00,0.001
240.00,0.001
241.00,0.001
242.00,0.001
243.00,-0.000
244.00,-0.000
245.00,0.000
246.00,-0.001
247.00,-0.000
248.00,0.001
249.00,0.000
250.00,0.000
251.00,0.001
252.00,-0.000
253.00,-0.001
254.00,0.003
255.00,-0.000
256.00,-0.002
257.00,-0.002
258.00,-0.000
259.00,0.001
260.00,-0.001
261.00,0.000
262.00,0.000
263.00,-0.001
264.00,-0.000
265.00,0.001
266.00,0.000
267.00,0.000
268.00,-0.000
269.00,-0.000
270.00,0.000
271.00,0.003
272.00,0.000
273.00,-0.000
274.00,-0.000
275.00,-0.001
276.00,0.001
277.00,0.001
278.00,0.001
279.00,-0.001
280.00,-0.001
281.00,-0.000
282.00,0.001
283.00,0.000
284.00,0.003
285.00,-0.001
286.00,-0.002
287.00,0.002
288.00,0.001
289.00,0.000
290.00,0.001
291.00,0.001
292.00,-0.001
293.00,-0.000
294.00,0.000
295.00,-0.001
296.00,0.001
297.00,0.001
298.00,0.002
299.00,0.001
300.00,0.001
301.00,-0.000
302.00,0.002
303.00,0.006
304.00,0.007
305.00,0.014
306.00,0.018
307.00,0.024
308.00,0.038
309.00,0.062
310.00,0.089
311.00,0.114
312.00,0.158
313.00,0.209
314.00,0.277
315.00,0.370
316.00,0.464
317.00,0.574
318.00,0.712
319.00,0.883
320.00,1.066
321.00,1.280
322.00,1.505
323.00,1.779
324.00,2.045
325.00,2.329
326.00,2.625
327.00,2.979
328.00,3.322
329.00,3.656
330.00,4.022
331.00,4.407
332.00,4.780
333.00,5.182
334.00,5.565
335.00,5.929
336.00,6.323
337.00,6.725
338.00,7.083
339.00,7.413
340.00,7.796
341.00,8.119
342.00,8.445
343.00,8.776
344.00,9.075
345.00,9.327
346.00,9.595
347.00,9.857
348.00,10.101
349.00,10.301
350.00,10.514
351.00,10.686
352.00,10.873
353.00,11.014
354.00,11.165
355.00,11.315
356.00,11.454
357.00,11.557
358.00,11.652
359.00,11.755
360.00,11.830
361.00,11.878
362.00,11.921
363.00,11.998
364.00,12.072
365.00,12.082
366.00,12.114
367.00,12.131
368.00,12.135
369.00,12.143
370.00,12.124
371.00,12.117
372.00,12.087
373.00,12.057
374.00,12.033
375.00,11.958
376.00,11.893
377.00,11.862
378.00,11.806
379.00,11.762
380.00,11.706
381.00,11.656
382.00,11.626
383.00,11.594
384.00,11.573
385.00,11.565
386.00,11.520
387.00,11.521
388.00,11.485
389.00,11.475
390.00,11.449
391.00,11.441
392.00,11.402
393.00,11.404
394.00,11.379
395.00,11.354
396.00,11.314
397.00,11.299
398.00,11.260
399.00,11.236
400.00,11.238
401.00,11.192
402.00,11.163
403.00,11.152
404.00,11.148
405.00,11.118
406.00,11.073
407.00,11.055
408.00,11.028
409.00,10.986
410.00,10.956
411.00,10.931
412.00,10.894
413.00,10.873
414.00,10.855
415.00,10.861
416.00,10.855
417.00,10.879
418.00,10.885
419.00,10.890
420.00,10.868
421.00,10.867
422.00,10.874
423.00,10.894
424.00,10.894
425.00,10.908
426.00,10.912
427.00,10.952
428.00,10.976
429.00,10.991
430.00,11.021
431.00,11.039
432.00,11.051
433.00,11.111
434.00,11.120
435.00,11.193
436.00,11.220
437.00,11.278
438.00,11.323
439.00,11.374
440.00,11.428
441.00,11.472
442.00,11.535
443.00,11.595
444.00,11.646
445.00,11.715
446.00,11.783
447.00,11.883
448.00,11.929
449.00,12.001
450.00,12.082
451.00,12.164
452.00,12.246
453.00,12.328
454.00,12.407
455.00,12.495
456.00,12.599
457.00,12.689
458.00,12.763
459.00,12.878
460.00,12.982
461.00,13.084
462.00,13.183
463.00,13.290
464.00,13.399
465.00,13.521
466.00,13.605
467.00,13.730
468.00,13.829
469.00,13.922
470.00,14.032
471.00,14.139
472.00,14.239
473.00,14.345
474.00,14.465
475.00,14.576
476.00,14.656
477.00,14.784
478.00,14.927
479.00,15.052
480.00,15.184
481.00,15.324
482.00,15.479
483.00,15.613
484.00,15.753
485.00,15.911
486.00,16.035
487.00,16.176
488.00,16.302
489.00,16.450
490.00,16.584
491.00,16.729
492.00,16.894
493.00,17.029
494.00,17.149
495.00,17.248
496.00,17.382
497.00,17.484
498.00,17.641
499.00,17.771
500.00,17.896
501.00,18.012
502.00,18.199
503.00,18.309
504.00,18.373
505.00,18.527
506.00,18.687
507.00,18.832
508.00,18.960
509.00,19.136
510.00,19.224
511.00,19.376
512.00,19.521
513.00,19.634
514.00,19.752
515.00,19.884
516.00,20.000
517.00,20.178
518.00,20.335
519.00,20.404
520.00,20.523
521.00,20.660
522.00,20.740
523.00,20.859
524.00,20.971
525.00,21.076
526.00,21.234
527.00,21.313
528.00,21.422
529.00,21.537
530.00,21.645
531.00,21.770
532.00,21.860
533.00,21.983
534.00,22.103
535.00,22.113
536.00,22.326
537.00,22.411
538.00,22.516
539.00,22.612
540.00,22.703
541.00,22.785
542.00,22.849
543.00,22.949
544.00,23.046
545.00,23.148
546.00,23.198
547.00,23.334
548.00,23.393
549.00,23.473
550.00,23.572
551.00,23.645
552.00,23.747
553.00,23.834
554.00,23.923
555.00,24.006
556.00,24.059
557.00,24.145
558.00,24.202
559.00,24.286
560.00,24.363
561.00,24.425
562.00,24.495
563.00,24.574
564.00,24.627
565.00,24.703
566.00,24.746
567.00,24.799
568.00,24.860
569.00,24.894
570.00,24.973
571.00,25.051
572.00,25.079
573.00,25.138
574.00,25.190
575.00,25.244
576.00,25.272
577.00,25.365
578.00,25.424
579.00,25.501
580.00,25.551
581.00,25.679
582.00,25.775
583.00,25.811
584.00,25.927
585.00,25.969
586.00,26.040
587.00,26.119
588.00,26.188
589.00,26.257
590.00,26.305
591.00,26.359
592.00,26.393
593.00,26.461
594.00,26.516
595.00,26.537
596.00,26.626
597.00,26.689
598.00,26.822
599.00,26.891
600.00,26.923
601.00,26.986
602.00,27.013
603.00,27.118
604.00,27.147
605.00,27.194
606.00,27.322
607.00,27.302
608.00,27.424
609.00,27.476
610.00,27.494
611.00,27.542
612.00,27.596
613.00,27.699
614.00,27.733
615.00,27.808
616.00,27.922
617.00,27.945
618.00,28.067
619.00,28.081
620.00,28.134
621.00,28.264
622.00,28.344
623.00,28.414
624.00,28.512
625.00,28.624
626.00,28.640
627.00,28.730
628.00,28.802
629.00,28.909
630.00,29.026
631.00,29.072
632.00,29.208
633.00,29.294
634.00,29.341
635.00,29.520
636.00,29.523
637.00,29.680
638.00,29.818
639.00,29.903
640.00,30.017
641.00,30.083
642.00,30.205
643.00,30.270
644.00,30.414
645.00,30.522
646.00,30.670
647.00,30.781
648.00,30.848
649.00,31.043
650.00,31.033
651.00,31.256
652.00,31.400
653.00,31.434
654.00,31.653
655.00,31.783
656.00,31.915
657.00,32.130
658.00,32.125
659.00,32.200
660.00,32.406
661.00,32.506
662.00,32.702
663.00,32.838
664.00,32.928
665.00,33.058
666.00,33.039
667.00,33.378
668.00,33.515
669.00,33.553
670.00,33.780
671.00,33.823
672.00,34.029
673.00,34.202
674.00,34.316
675.00,34.490
676.00,34.669
677.00,34.762
678.00,34.817
679.00,34.970
680.00,35.210
681.00,35.349
682.00,35.515
683.00,35.659
684.00,35.866
685.00,35.961
686.00,36.087
687.00,36.245
688.00,36.385
689.00,36.530
690.00,36.699
691.00,36.896
692.00,36.969
693.00,37.144
694.00,37.203
695.00,37.421
696.00,37.539
697.00,37.730
698.00,37.925
699.00,38.044
700.00,38.300
701.00,38.311
702.00,38.447
703.00,38.724
704.00,38.740
705.00,38.895
706.00,39.054
707.00,39.292
708.00,39.305
709.00,39.555
710.00,39.767
711.00,39.748
712.00,39.807
713.00,40.072
714.00,40.130
715.00,40.390
716.00,40.476
717.00,40.564
718.00,40.743
719.00,40.762
720.00,40.979
721.00,45.075
722.00,45.104
723.00,45.207
724.00,45.310
725.00,45.425
726.00,45.481
727.00,45.644
728.00,45.654
729.00,45.732
730.00,45.897
731.00,45.924
732.00,46.037
733.00,46.194
734.00,46.298
735.00,46.379
736.00,46.448
737.00,46.577
738.00,46.646
739.00,46.753
740.00,46.836
741.00,46.892
742.00,47.081
743.00,47.082
744.00,47.106
745.00,47.217
746.00,47.270
747.00,47.326
748.00,47.323
749.00,47.432
750.00,47.514
751.00,47.584
752.00,47.650
753.00,47.588
754.00,47.708
755.00,47.826
756.00,47.879
757.00,47.904
758.00,48.053
759.00,48.076
760.00,48.150
761.00,48.179
762.00,48.226
763.00,48.284
764.00,48.301
765.00,48.388
766.00,48.390
767.00,48.515
768.00,48.689
769.00,48.638
770.00,48.733
771.00,48.776
772.00,48.771
773.00,48.836
774.00,48.907
775.00,48.951
776.00,48.934
777.00,49.075
778.00,49.131
779.00,49.136
780.00,49.137
781.00,49.138
782.00,49.217
783.00,49.229
784.00,49.316
785.00,49.261
786.00,49.375
787.00,49.376
788.00,49.452
789.00,49.442
790.00,49.448
791.00,49.482
792.00,49.473
793.00,49.524
794.00,49.556
795.00,49.547
796.00,49.576
797.00,49.511
798.00,49.605
799.00,49.670
800.00,49.590
801.00,49.676
802.00,49.657
803.00,49.655
804.00,49.672
805.00,49.702
806.00,49.706
807.00,49.762
808.00,49.749
809.00,49.702
810.00,49.824
811.00,49.715
812.00,49.797
813.00,49.775
814.00,49.851
815.00,49.776
816.00,49.791
817.00,49.882
818.00,49.780
819.00,49.884
820.00,49.735
821.00,49.722
822.00,49.836
823.00,49.850
824.00,49.804
825.00,49.815
826.00,49.834
827.00,49.864
828.00,49.897
829.00,49.808
830.00,49.885
831.00,52.269
832.00,52.241
833.00,52.237
834.00,52.265
835.00,52.243
836.00,52.219
837.00,52.291
838.00,52.240
839.00,52.250
840.00,52.201
841.00,52.255
842.00,52.253
843.00,52.271
844.00,52.196
845.00,52.226
846.00,52.197
847.00,52.196
848.00,52.189
849.00,52.154
850.00,52.139
851.00,52.108
852.00,52.132
853.00,52.114
854.00,52.069
855.00,52.043
856.00,52.050
857.00,52.065
858.00,52.045
859.00,51.970
860.00,52.018
861.00,52.011
862.00,51.926
863.00,51.977
864.00,51.973
865.00,51.993
866.00,51.966
867.00,51.982
868.00,51.948
869.00,51.980
870.00,51.969
871.00,51.967
872.00,51.970
873.00,51.959
874.00,51.961
875.00,51.964
876.00,51.956
877.00,51.936
878.00,51.934
879.00,51.924
880.00,51.905
881.00,51.913
882.00,51.926
883.00,51.804
884.00,51.843
885.00,51.877
886.00,51.882
887.00,51.844
888.00,51.814
889.00,51.824
890.00,51.801
891.00,51.780
892.00,51.763
893.00,51.735
894.00,51.741
895.00,51.719
896.00,51.712
897.00,51.708
898.00,51.675
899.00,51.648
900.00,51.663
901.00,51.625
902.00,51.627
903.00,51.623
904.00,51.624
905.00,51.621
906.00,51.586
907.00,51.587
908.00,51.566
909.00,51.567
910.00,51.524
911.00,51.545
912.00,51.543
913.00,51.481
914.00,51.473
915.00,51.465
916.00,51.438
917.00,51.440
918.00,51.427
919.00,51.404
920.00,51.363
921.00,51.359
922.00,51.354
923.00,51.330
924.00,51.300
925.00,51.281
926.00,51.304
927.00,51.275
928.00,51.263
929.00,51.260
930.00,51.248
931.00,51.226
932.00,51.212
933.00,51.195
934.00,51.184
935.00,51.167
936.00,51.172
937.00,51.138
938.00,51.130
939.00,51.090
940.00,51.076
941.00,51.085
942.00,51.042
943.00,51.047
944.00,51.023
945.00,51.010
946.00,51.022
947.00,50.982
948.00,50.948
949.00,50.918
950.00,50.911
951.00,50.896
952.00,50.876
953.00,50.838
954.00,50.844
955.00,50.815
956.00,50.789
957.00,50.738
958.00,50.751
959.00,50.712
960.00,50.711
961.00,50.682
962.00,50.696
963.00,50.643
964.00,50.625
965.00,50.629
966.00,50.634
967.00,50.625
968.00,50.594
969.00,50.636
970.00,50.604
971.00,50.618
972.00,50.622
973.00,50.623
974.00,50.649
975.00,50.600
976.00,50.639
977.00,50.608
978.00,50.638
979.00,50.607
980.00,50.639
981.00,50.614
982.00,50.608
983.00,50.607
984.00,50.597
985.00,50.594
986.00,50.563
987.00,50.614
988.00,50.559
989.00,50.553
990.00,50.556
991.00,50.537
992.00,50.540
993.00,50.523
994.00,50.526
995.00,50.509
996.00,50.486
997.00,50.478
998.00,50.471
999.00,50.491
1000.00,50.429
1001.00,50.438
1002.00,50.423
1003.00,50.403
1004.00,50.393
1005.00,50.366
1006.00,50.394
1007.00,50.358
1008.00,50.351
1009.00,50.355
1010.00,50.320
1011.00,50.312
1012.00,50.286
1013.00,50.293
1014.00,50.244
1015.00,50.259
1016.00,50.207
1017.00,50.217
1018.00,50.197
1019.00,50.177
1020.00,50.171
1021.00,50.165
1022.00,50.146
1023.00,50.115
1024.00,50.123
1025.00,50.090
1026.00,50.106
1027.00,50.076
1028.00,50.072
1029.00,50.065
1030.00,50.028
1031.00,50.030
1032.00,49.979
1033.00,49.980
1034.00,49.960
1035.00,49.932
1036.00,49.913
1037.00,49.904
1038.00,49.890
1039.00,49.859
1040.00,49.840
1041.00,49.798
1042.00,49.803
1043.00,49.780
1044.00,49.790
1045.00,49.779
1046.00,49.775
1047.00,49.786
1048.00,49.796
1049.00,49.817
1050.00,49.826
1051.00,49.846
1052.00,49.855
1053.00,49.873
1054.00,49.865
1055.00,49.878
1056.00,49.897
1057.00,49.891
1058.00,49.881
1059.00,49.880
1060.00,49.870
1061.00,49.866
1062.00,49.845
1063.00,49.850
1064.00,49.838
1065.00,49.823
1066.00,49.794
1067.00,49.794
1068.00,49.798
1069.00,49.779
1070.00,49.760
1071.00,49.750
1072.00,49.763
1073.00,49.752
1074.00,49.722
1075.00,49.721
1076.00,49.732
1077.00,49.709
1078.00,49.711
1079.00,49.709
1080.00,49.698
1081.00,49.684
1082.00,49.684
1083.00,49.670
1084.00,49.663
1085.00,49.646
1086.00,49.637
1087.00,49.640
1088.00,49.615
1089.00,49.606
1090.00,49.602
1091.00,49.588
1092.00,49.576
1093.00,49.561
1094.00,49.560
1095.00,49.550
1096.00,49.526
1097.00,49.529
1098.00,49.531
1099.00,49.491
1100.00,49.495
1101.00,49.485
1102.00,49.493
1103.00,49.476
1104.00,49.467
1105.00,49.460
1106.00,49.448
1107.00,49.428
1108.00,49.436
1109.00,49.419
1110.00,49.405
1111.00,49.410
1112.00,49.399
1113.00,49.374
1114.00,49.385
1115.00,49.376
1116.00,49.364
1117.00,49.346
1118.00,49.344
1119.00,49.352
1120.00,49.337
1121.00,49.325
1122.00,49.312
1123.00,49.310
1124.00,49.310
1125.00,49.297
1126.00,49.293
1127.00,49.298
1128.00,49.275
1129.00,49.276
1130.00,49.252
1131.00,49.240
1132.00,49.233
1133.00,49.238
1134.00,49.224
1135.00,49.271
1136.00,49.219
1137.00,49.218
1138.00,49.227
1139.00,49.218
1140.00,49.193
1141.00,49.197
1142.00,49.192
1143.00,49.191
1144.00,49.173
1145.00,49.160
1146.00,49.165
1147.00,49.165
1148.00,49.147
1149.00,49.157
1150.00,49.159
1151.00,49.137
1152.00,49.130
1153.00,49.121
1154.00,49.109
1155.00,49.122
1156.00,49.112
1157.00,49.121
1158.00,49.113
1159.00,49.114
1160.00,49.103
1161.00,49.117
1162.00,49.099
1163.00,49.104
1164.00,49.099
1165.00,49.087
1166.00,49.103
1167.00,49.080
1168.00,49.088
1169.00,49.088
1170.00,49.089
1171.00,49.069
1172.00,49.071
1173.00,49.054
1174.00,49.071
1175.00,49.058
1176.00,49.052
1177.00,49.059
1178.00,49.044
1179.00,49.055
1180.00,49.050
1181.00,49.056
1182.00,49.050
1183.00,49.042
1184.00,49.014
1185.00,49.045
1186.00,49.026
1187.00,49.019
1188.00,49.006
1189.00,49.021
1190.00,49.010
1191.00,49.021
1192.00,49.026
1193.00,49.019
1194.00,49.025
1195.00,48.999
1196.00,49.015
1197.00,49.018
1198.00,49.004
1199.00,49.004
1200.00,48.991
1201.00,48.993
1202.00,48.990
1203.00,49.000
1204.00,48.992
1205.00,48.999
1206.00,48.983
1207.00,49.007
1208.00,48.998
1209.00,48.986
1210.00,48.989
1211.00,48.979
1212.00,48.987
1213.00,48.966
1214.00,48.986
1215.00,48.967
1216.00,48.966
1217.00,48.968
1218.00,48.976
1219.00,48.987
1220.00,48.960
1221.00,48.979
1222.00,48.965
1223.00,48.979
1224.00,48.973
1225.00,48.965
1226.00,48.970
1227.00,48.950
1228.00,48.962
1229.00,48.981
1230.00,49.023
1231.00,49.000
1232.00,49.035
1233.00,49.022
1234.00,49.019
1235.00,49.021
1236.00,49.031
1237.00,49.010
1238.00,49.028
1239.00,49.020
1240.00,49.018
1241.00,49.037
1242.00,49.029
1243.00,49.034
1244.00,49.024
1245.00,49.033
1246.00,49.051
1247.00,49.038
1248.00,49.035
1249.00,49.040
1250.00,49.024
1251.00,49.037
1252.00,49.058
1253.00,49.033
1254.00,49.053
1255.00,49.049
1256.00,49.030
1257.00,49.013
1258.00,49.074
1259.00,49.053
1260.00,49.070
1261.00,49.053
1262.00,49.061
1263.00,49.064
1264.00,49.065
1265.00,49.083
1266.00,49.075
1267.00,49.079
1268.00,49.094
1269.00,49.083
1270.00,49.097
1271.00,49.092
1272.00,49.095
1273.00,49.104
1274.00,49.108
1275.00,49.099
1276.00,49.111
1277.00,49.114
1278.00,49.121
1279.00,49.127
1280.00,49.124
1281.00,49.142
1282.00,49.143
1283.00,49.145
1284.00,49.144
1285.00,49.131
1286.00,49.128
1287.00,49.132
1288.00,49.144
1289.00,49.125
1290.00,49.155
1291.00,49.157
1292.00,49.162
1293.00,49.153
1294.00,49.160
1295.00,49.183
1296.00,49.169
1297.00,49.184
1298.00,49.207
1299.00,49.187
1300.00,49.200
1301.00,49.194
1302.00,49.202
1303.00,49.209
1304.00,49.193
1305.00,49.207
1306.00,49.213
1307.00,49.223
1308.00,49.219
1309.00,49.235
1310.00,49.233
1311.00,49.231
1312.00,49.231
1313.00,49.243
1314.00,49.261
1315.00,49.266
1316.00,49.255
1317.00,49.284
1318.00,49.284
1319.00,49.283
1320.00,49.303
1321.00,49.457
1322.00,49.449
1323.00,49.450
1324.00,49.454
1325.00,49.420
1326.00,49.448
1327.00,49.450
1328.00,49.431
1329.00,49.422
1330.00,49.441
1331.00,49.434
1332.00,49.439
1333.00,49.433
1334.00,49.471
1335.00,49.473
1336.00,49.500
1337.00,49.539
1338.00,49.597
1339.00,49.625
1340.00,49.685
1341.00,49.762
1342.00,49.823
1343.00,49.854
1344.00,49.915
1345.00,49.987
1346.00,49.992
1347.00,50.022
1348.00,50.028
1349.00,50.047
1350.00,50.112
1351.00,50.117
1352.00,50.098
1353.00,50.119
1354.00,50.129
1355.00,50.049
1356.00,50.153
1357.00,50.117
1358.00,50.172
1359.00,50.171
1360.00,50.211
1361.00,50.111
1362.00,50.213
1363.00,50.171
1364.00,50.110
1365.00,50.146
1366.00,50.141
1367.00,50.166
1368.00,50.124
1369.00,50.126
1370.00,50.122
1371.00,50.070
1372.00,50.104
1373.00,50.121
1374.00,50.139
1375.00,50.127
1376.00,50.120
1377.00,50.103
1378.00,50.163
1379.00,50.146
1380.00,50.117
1381.00,50.151
1382.00,50.082
1383.00,50.100
1384.00,50.107
1385.00,50.065
1386.00,50.121
1387.00,50.111
1388.00,50.045
1389.00,50.099
1390.00,50.069
1391.00,50.133
1392.00,50.076
1393.00,50.151
1394.00,50.080
1395.00,50.073
1396.00,50.040
1397.00,50.086
1398.00,50.177
1399.00,50.111
1400.00,50.075
1401.00,50.094
1402.00,50.166
1403.00,50.096
1404.00,50.125
1405.00,50.113
1406.00,50.150
1407.00,50.134
1408.00,50.139
1409.00,50.129
1410.00,50.159
1411.00,50.143
1412.00,50.208
1413.00,50.152
1414.00,50.128
1415.00,50.178
1416.00,50.212
1417.00,50.253
1418.00,50.217
1419.00,50.237
1420.00,50.263
1421.00,50.309
1422.00,50.285
1423.00,50.266
1424.00,50.279
1425.00,50.287
1426.00,50.309
1427.00,50.315
1428.00,50.332
1429.00,50.351
1430.00,50.364
1431.00,50.386
1432.00,50.382
1433.00,50.417
1434.00,50.416
1435.00,50.451
1436.00,50.467
1437.00,50.456
1438.00,50.481
1439.00,50.510
1440.00,50.544
1441.00,50.545
1442.00,50.538
1443.00,50.564
1444.00,50.596
1445.00,50.579
1446.00,50.585
1447.00,50.621
1448.00,50.652
1449.00,50.667
1450.00,50.668
1451.00,50.681
1452.00,50.694
1453.00,50.698
1454.00,50.701
1455.00,50.743
1456.00,50.762
1457.00,50.751
1458.00,50.771
1459.00,50.804
1460.00,50.821
1461.00,50.827
1462.00,50.837
1463.00,50.861
1464.00,50.871
1465.00,50.869
1466.00,50.892
1467.00,50.902
1468.00,50.930
1469.00,50.942
1470.00,50.939
1471.00,50.952
1472.00,50.957
1473.00,50.973
1474.00,51.008
1475.00,51.005
1476.00,51.023
1477.00,51.021
1478.00,51.039
1479.00,51.058
1480.00,51.070
1481.00,51.074
1482.00,51.100
1483.00,51.125
1484.00,51.113
1485.00,51.141
1486.00,51.141
1487.00,51.148
1488.00,51.167
1489.00,51.180
1490.00,51.193
1491.00,51.203
1492.00,51.225
1493.00,51.223
1494.00,51.239
1495.00,51.232
1496.00,51.233
1497.00,51.258
1498.00,51.268
1499.00,51.287
1500.00,51.300
1501.00, 
1502.00, 
1503.00, 
1504.00, 
1505.00, 
1506.00, 
1507.00, 
1508.00, 
1509.00, 
1510.00, 
1511.00, 
1512.00, 
1513.00, 
1514.00, 
1515.00, 
1516.00, 
1517.00, 
1518.00, 
1519.00, 
1520.00, 
1521.00, 
1522.00, 
1523.00, 
1524.00, 
1525.00, 
1526.00, 
1527.00, 
1528.00, 
1529.00, 
1530.00, 
1531.00, 
1532.00, 
1533.00, 
1534.00, 
1535.00, 
1536.00, 
1537.00, 
1538.00, 
1539.00, 
1540.00, 
1541.00, 
1542.00, 
1543.00, 
1544.00, 
1545.00, 
1546.00, 
1547.00, 
1548.00, 
1549.00, 
1550.00, 
1551.00, 
1552.00, 
1553.00, 
1554.00, 
1555.00, 
1556.00, 
1557.00, 
1558.00, 
1559.00, 
1560.00, 
1561.00, 
1562.00, 
1563.00, 
1564.00, 
1565.00, 
1566.00, 
1567.00, 
1568.00, 
1569.00, 
1570.00, 
1571.00, 
1572.00, 
1573.00, 
1574.00, 
1575.00, 
1576.00, 
1577.00, 
1578.00, 
1579.00, 
1580.00, 
1581.00, 
1582.00, 
1583.00, 
1584.00, 
1585.00, 
1586.00, 
1587.00, 
1588.00, 
1589.00, 
1590.00, 
1591.00, 
1592.00, 
1593.00, 
1594.00, 
1595.00, 
1596.00, 
1597.00, 
1598.00, 
1599.00, 
1600.00, 
1601.00, 
1602.00, 
1603.00, 
1604.00, 
1605.00, 
1606.00, 
1607.00, 
1608.00, 
1609.00, 
1610.00, 
1611.00, 
1612.00, 
1613.00, 
1614.00, 
1615.00, 
1616.00, 
1617.00, 
1618.00, 
1619.00, 
1620.00, 
1621.00, 
1622.00, 
1623.00, 
1624.00, 
1625.00, 
1626.00, 
1627.00, 
1628.00, 
1629.00, 
1630.00, 
1631.00, 
1632.00, 
1633.00, 
1634.00, 
1635.00, 
1636.00, 
1637.00, 
1638.00, 
1639.00, 
1640.00, 
1641.00, 
1642.00, 
1643.00, 
1644.00, 
1645.00, 
1646.00, 
1647.00, 
1648.00, 
1649.00, 
1650.00, 
1651.00, 
1652.00, 
1653.00, 
1654.00, 
1655.00, 
1656.00, 
1657.00, 
1658.00, 
1659.00, 
1660.00, 
1661.00, 
1662.00, 
1663.00, 
1664.00, 
1665.00, 
1666.00, 
1667.00, 
1668.00, 
1669.00, 
1670.00, 
1671.00, 
1672.00, 
1673.00, 
1674.00, 
1675.00, 
1676.00, 
1677.00, 
1678.00, 
1679.00, 
1680.00, 
1681.00, 
1682.00, 
1683.00, 
1684.00, 
1685.00, 
1686.00, 
1687.00, 
1688.00, 
1689.00, 
1690.00, 
1691.00, 
1692.00, 
1693.00, 
1694.00, 
1695.00, 
1696.00, 
1697.00, 
1698.00, 
1699.00, 
1700.00, 
1701.00, 
1702.00, 
1703.00, 
1704.00, 
1705.00, 
1706.00, 
1707.00, 
1708.00, 
1709.00, 
1710.00, 
1711.00, 
1712.00, 
1713.00, 
1714.00, 
1715.00, 
1716.00, 
1717.00, 
1718.00, 
1719.00, 
1720.00, 
1721.00, 
1722.00, 
1723.00, 
1724.00, 
1725.00, 
1726.00, 
1727.00, 
1728.00, 
1729.00, 
1730.00, 
1731.00, 
1732.00, 
1733.00, 
1734.00, 
1735.00, 
1736.00, 
1737.00, 
1738.00, 
1739.00, 
1740.00, 
1741.00, 
1742.00, 
1743.00, 
1744.00, 
1745.00, 
1746.00, 
1747.00, 
1748.00, 
1749.00, 
1750.00, 
1751.00, 
1752.00, 
1753.00, 
1754.00, 
1755.00, 
1756.00, 
1757.00, 
1758.00, 
1759.00, 
1760.00, 
1761.00, 
1762.00, 
1763.00, 
1764.00, 
1765.00, 
1766.00, 
1767.00, 
1768.00, 
1769.00, 
1770.00, 
1771.00, 
1772.00, 
1773.00, 
1774.00, 
1775.00, 
1776.00, 
1777.00, 
1778.00, 
1779.00, 
1780.00, 
1781.00, 
1782.00, 
1783.00, 
1784.00, 
1785.00, 
1786.00, 
1787.00, 
1788.00, 
1789.00, 
1790.00, 
1791.00, 
1792.00, 
1793.00, 
1794.00, 
1795.00, 
1796.00, 
1797.00, 
1798.00, 
1799.00, 
1800.00, 
1801.00, 
1802.00, 
1803.00, 
1804.00, 
1805.00, 
1806.00, 
1807.00, 
1808.00, 
1809.00, 
1810.00, 
1811.00, 
1812.00, 
1813.00, 
1814.00, 
1815.00, 
1816.00, 
1817.00, 
1818.00, 
1819.00, 
1820.00, 
1821.00, 
1822.00, 
1823.00, 
1824.00, 
1825.00, 
1826.00, 
1827.00, 
1828.00, 
1829.00, 
1830.00, 
1831.00, 
1832.00, 
1833.00, 
1834.00, 
1835.00, 
1836.00, 
1837.00, 
1838.00, 
1839.00, 
1840.00, 
1841.00, 
1842.00, 
1843.00, 
1844.00, 
1845.00, 
1846.00, 
1847.00, 
1848.00, 
1849.00, 
1850.00, 
1851.00, 
1852.00, 
1853.00, 
1854.00, 
1855.00, 
1856.00, 
1857.00, 
1858.00, 
1859.00, 
1860.00, 
1861.00, 
1862.00, 
1863.00, 
1864.00, 
1865.00, 
1866.00, 
1867.00, 
1868.00, 
1869.00, 
1870.00, 
1871.00, 
1872.00, 
1873.00, 
1874.00, 
1875.00, 
1876.00, 
1877.00, 
1878.00, 
1879.00, 
1880.00, 
1881.00, 
1882.00, 
1883.00, 
1884.00, 
1885.00, 
1886.00, 
1887.00, 
1888.00, 
1889.00, 
1890.00, 
1891.00, 
1892.00, 
1893.00, 
1894.00, 
1895.00, 
1896.00, 
1897.00, 
1898.00, 
1899.00, 
1900.00, 
1901.00, 
1902.00, 
1903.00, 
1904.00, 
1905.00, 
1906.00, 
1907.00, 
1908.00, 
1909.00, 
1910.00, 
1911.00, 
1912.00, 
1913.00, 
1914.00, 
1915.00, 
1916.00, 
1917.00, 
1918.00, 
1919.00, 
1920.00, 
1921.00, 
1922.00, 
1923.00, 
1924.00, 
1925.00, 
1926.00, 
1927.00, 
1928.00, 
1929.00, 
1930.00, 
1931.00, 
1932.00, 
1933.00, 
1934.00, 
1935.00, 
1936.00, 
1937.00, 
1938.00, 
1939.00, 
1940.00, 
1941.00, 
1942.00, 
1943.00, 
1944.00, 
1945.00, 
1946.00, 
1947.00, 
1948.00, 
1949.00, 
1950.00, 
1951.00, 
1952.00, 
1953.00, 
1954.00, 
1955.00, 
1956.00, 
1957.00, 
1958.00, 
1959.00, 
1960.00, 
1961.00, 
1962.00, 
1963.00, 
1964.00, 
1965.00, 
1966.00, 
1967.00, 
1968.00, 
1969.00, 
1970.00, 
1971.00, 
1972.00, 
1973.00, 
1974.00, 
1975.00, 
1976.00, 
1977.00, 
1978.00, 
1979.00, 
1980.00, 
1981.00, 
1982.00, 
1983.00, 
1984.00, 
1985.00, 
1986.00, 
1987.00, 
1988.00, 
1989.00, 
1990.00, 
1991.00, 
1992.00, 
1993.00, 
1994.00, 
1995.00, 
1996.00, 
1997.00, 
1998.00, 
1999.00, 
2000.00, 
2001.00, 
2002.00, 
2003.00, 
2004.00, 
2005.00, 
2006.00, 
2007.00, 
2008.00, 
2009.00, 
2010.00, 
2011.00, 
2012.00, 
2013.00, 
2014.00, 
2015.00, 
2016.00, 
2017.00, 
2018.00, 
2019.00, 
2020.00, 
2021.00, 
2022.00, 
2023.00, 
2024.00, 
2025.00, 
2026.00, 
2027.00, 
2028.00, 
2029.00, 
2030.00, 
2031.00, 
2032.00, 
2033.00, 
2034.00, 
2035.00, 
2036.00, 
2037.00, 
2038.00, 
2039.00, 
2040.00, 
2041.00, 
2042.00, 
2043.00, 
2044.00, 
2045.00, 
2046.00, 
2047.00, 
2048.00, 
2049.00, 
2050.00, 
2051.00, 
2052.00, 
2053.00, 
2054.00, 
2055.00, 
2056.00, 
2057.00, 
2058.00, 
2059.00, 
2060.00, 
2061.00, 
2062.00, 
2063.00, 
2064.00, 
2065.00, 
2066.00, 
2067.00, 
2068.00, 
2069.00, 
2070.00, 
2071.00, 
2072.00, 
2073.00, 
2074.00, 
2075.00, 
2076.00, 
2077.00, 
2078.00, 
2079.00, 
2080.00, 
2081.00, 
2082.00, 
2083.00, 
2084.00, 
2085.00, 
2086.00, 
2087.00, 
2088.00, 
2089.00, 
2090.00, 
2091.00, 
2092.00, 
2093.00, 
2094.00, 
2095.00, 
2096.00, 
2097.00, 
2098.00, 
2099.00, 
2100.00, 
2101.00, 
2102.00, 
2103.00, 
2104.00, 
2105.00, 
2106.00, 
2107.00, 
2108.00, 
2109.00, 
2110.00, 
2111.00, 
2112.00, 
2113.00, 
2114.00, 
2115.00, 
2116.00, 
2117.00, 
2118.00, 
2119.00, 
2120.00, 
2121.00, 
2122.00, 
2123.00, 
2124.00, 
2125.00, 
2126.00, 
2127.00, 
2128.00, 
2129.00, 
2130.00, 
2131.00, 
2132.00, 
2133.00, 
2134.00, 
2135.00, 
2136.00, 
2137.00, 
2138.00, 
2139.00, 
2140.00, 
2141.00, 
2142.00, 
2143.00, 
2144.00, 
2145.00, 
2146.00, 
2147.00, 
2148.00, 
2149.00, 
2150.00, 
2151.00, 
2152.00, 
2153.00, 
2154.00, 
2155.00, 
2156.00, 
2157.00, 
2158.00, 
2159.00, 
2160.00, 
2161.00, 
2162.00, 
2163.00, 
2164.00, 
2165.00, 
2166.00, 
2167.00, 
2168.00, 
2169.00, 
2170.00, 
2171.00, 
2172.00, 
2173.00, 
2174.00, 
2175.00, 
2176.00, 
2177.00, 
2178.00, 
2179.00, 
2180.00, 
2181.00, 
2182.00, 
2183.00, 
2184.00, 
2185.00, 
2186.00, 
2187.00, 
2188.00, 
2189.00, 
2190.00, 
2191.00, 
2192.00, 
2193.00, 
2194.00, 
2195.00, 
2196.00, 
2197.00, 
2198.00, 
2199.00, 
2200.00, 
2201.00, 
2202.00, 
2203.00, 
2204.00, 
2205.00, 
2206.00, 
2207.00, 
2208.00, 
2209.00, 
2210.00, 
2211.00, 
2212.00, 
2213.00, 
2214.00, 
2215.00, 
2216.00, 
2217.00, 
2218.00, 
2219.00, 
2220.00, 
2221.00, 
2222.00, 
2223.00, 
2224.00, 
2225.00, 
2226.00, 
2227.00, 
2228.00, 
2229.00, 
2230.00, 
2231.00, 
2232.00, 
2233.00, 
2234.00, 
2235.00, 
2236.00, 
2237.00, 
2238.00, 
2239.00, 
2240.00, 
2241.00, 
2242.00, 
2243.00, 
2244.00, 
2245.00, 
2246.00, 
2247.00, 
2248.00, 
2249.00, 
2250.00, 
2251.00, 
2252.00, 
2253.00, 
2254.00, 
2255.00, 
2256.00, 
2257.00, 
2258.00, 
2259.00, 
2260.00, 
2261.00, 
2262.00, 
2263.00, 
2264.00, 
2265.00, 
2266.00, 
2267.00, 
2268.00, 
2269.00, 
2270.00, 
2271.00, 
2272.00, 
2273.00, 
2274.00, 
2275.00, 
2276.00, 
2277.00, 
2278.00, 
2279.00, 
2280.00, 
2281.00, 
2282.00, 
2283.00, 
2284.00, 
2285.00, 
2286.00, 
2287.00, 
2288.00, 
2289.00, 
2290.00, 
2291.00, 
2292.00, 
2293.00, 
2294.00, 
2295.00, 
2296.00, 
2297.00, 
2298.00, 
2299.00, 
2300.00, 
2301.00, 
2302.00, 
2303.00, 
2304.00, 
2305.00, 
2306.00, 
2307.00, 
2308.00, 
2309.00, 
2310.00, 
2311.00, 
2312.00, 
2313.00, 
2314.00, 
2315.00, 
2316.00, 
2317.00, 
2318.00, 
2319.00, 
2320.00, 
2321.00, 
2322.00, 
2323.00, 
2324.00, 
2325.00, 
2326.00, 
2327.00, 
2328.00, 
2329.00, 
2330.00, 
2331.00, 
2332.00, 
2333.00, 
2334.00, 
2335.00, 
2336.00, 
2337.00, 
2338.00, 
2339.00, 
2340.00, 
2341.00, 
2342.00, 
2343.00, 
2344.00, 
2345.00, 
2346.00, 
2347.00, 
2348.00, 
2349.00, 
2350.00, 
2351.00, 
2352.00, 
2353.00, 
2354.00, 
2355.00, 
2356.00, 
2357.00, 
2358.00, 
2359.00, 
2360.00, 
2361.00, 
2362.00, 
2363.00, 
2364.00, 
2365.00, 
2366.00, 
2367.00, 
2368.00, 
2369.00, 
2370.00, 
2371.00, 
2372.00, 
2373.00, 
2374.00, 
2375.00, 
2376.00, 
2377.00, 
2378.00, 
2379.00, 
2380.00, 
2381.00, 
2382.00, 
2383.00, 
2384.00, 
2385.00, 
2386.00, 
2387.00, 
2388.00, 
2389.00, 
2390.00, 
2391.00, 
2392.00, 
2393.00, 
2394.00, 
2395.00, 
2396.00, 
2397.00, 
2398.00, 
2399.00, 
2400.00, 
2401.00, 
2402.00, 
2403.00, 
2404.00, 
2405.00, 
2406.00, 
2407.00, 
2408.00, 
2409.00, 
2410.00, 
2411.00, 
2412.00, 
2413.00, 
2414.00, 
2415.00, 
2416.00, 
2417.00, 
2418.00, 
2419.00, 
2420.00, 
2421.00, 
2422.00, 
2423.00, 
2424.00, 
2425.00, 
2426.00, 
2427.00, 
2428.00, 
2429.00, 
2430.00, 
2431.00, 
2432.00, 
2433.00, 
2434.00, 
2435.00, 
2436.00, 
2437.00, 
2438.00, 
2439.00, 
2440.00, 
2441.00, 
2442.00, 
2443.00, 
2444.00, 
2445.00, 
2446.00, 
2447.00, 
2448.00, 
2449.00, 
2450.00, 
2451.00, 
2452.00, 
2453.00, 
2454.00, 
2455.00, 
2456.00, 
2457.00, 
2458.00, 
2459.00, 
2460.00, 
2461.00, 
2462.00, 
2463.00, 
2464.00, 
2465.00, 
2466.00, 
2467.00, 
2468.00, 
2469.00, 
2470.00, 
2471.00, 
2472.00, 
2473.00, 
2474.00, 
2475.00, 
2476.00, 
2477.00, 
2478.00, 
2479.00, 
2480.00, 
2481.00, 
2482.00, 
2483.00, 
2484.00, 
2485.00, 
2486.00, 
2487.00, 
2488.00, 
2489.00, 
2490.00, 
2491.00, 
2492.00, 
2493.00, 
2494.00, 
2495.00, 
2496.00, 
2497.00, 
2498.00, 
2499.00, 
2500.00, 
2501.00, 
2502.00, 
2503.00, 
2504.00, 
2505.00, 
2506.00, 
2507.00, 
2508.00, 
2509.00, 
2510.00, 
2511.00, 
2512.00, 
2513.00, 
2514.00, 
2515.00, 
2516.00, 
2517.00, 
2518.00, 
2519.00, 
2520.00, 
2521.00, 
2522.00, 
2523.00, 
2524.00, 
2525.00, 
2526.00, 
2527.00, 
2528.00, 
2529.00, 
2530.00, 
2531.00, 
2532.00, 
2533.00, 
2534.00, 
2535.00, 
2536.00, 
2537.00, 
2538.00, 
2539.00, 
2540.00, 
2541.00, 
2542.00, 
2543.00, 
2544.00, 
2545.00, 
2546.00, 
2547.00, 
2548.00, 
2549.00, 
2550.00, 
2551.00, 
2552.00, 
2553.00, 
2554.00, 
2555.00, 
2556.00, 
2557.00, 
2558.00, 
2559.00, 
2560.00, 
2561.00, 
2562.00, 
2563.00, 
2564.00, 
2565.00, 
2566.00, 
2567.00, 
2568.00, 
2569.00, 
2570.00, 
2571.00, 
2572.00, 
2573.00, 
2574.00, 
2575.00, 
2576.00, 
2577.00, 
2578.00, 
2579.00, 
2580.00, 
2581.00, 
2582.00, 
2583.00, 
2584.00, 
2585.00, 
2586.00, 
2587.00, 
2588.00, 
2589.00, 
2590.00, 
2591.00, 
2592.00, 
2593.00, 
2594.00, 
2595.00, 
2596.00, 
2597.00, 
2598.00, 
2599.00, 
2600.00, 
