"2cP3.txt - RawData"
"Wavelength nm.","T%"
200.00,0.002
201.00,-0.000
202.00,0.000
203.00,0.004
204.00,0.003
205.00,-0.000
206.00,0.000
207.00,-0.001
208.00,0.003
209.00,-0.002
210.00,-0.004
211.00,0.001
212.00,0.000
213.00,0.000
214.00,0.002
215.00,-0.000
216.00,-0.001
217.00,0.004
218.00,0.001
219.00,0.001
220.00,0.002
221.00,0.001
222.00,-0.002
223.00,0.003
224.00,-0.001
225.00,0.002
226.00,0.001
227.00,0.002
228.00,0.002
229.00,0.001
230.00,0.001
231.00,-0.001
232.00,-0.000
233.00,0.001
234.00,0.000
235.00,-0.000
236.00,0.001
237.00,0.000
238.00,0.000
239.00,-0.001
240.00,0.001
241.00,0.001
242.00,0.001
243.00,0.001
244.00,-0.001
245.00,-0.000
246.00,0.001
247.00,-0.002
248.00,0.001
249.00,-0.000
250.00,-0.001
251.00,-0.002
252.00,-0.001
253.00,-0.001
254.00,0.001
255.00,0.000
256.00,-0.000
257.00,0.001
258.00,0.001
259.00,-0.001
260.00,0.000
261.00,0.000
262.00,0.000
263.00,-0.000
264.00,0.001
265.00,0.000
266.00,0.000
267.00,0.001
268.00,0.000
269.00,-0.000
270.00,0.003
271.00,-0.002
272.00,-0.001
273.00,-0.000
274.00,-0.000
275.00,0.000
276.00,0.000
277.00,0.000
278.00,-0.000
279.00,0.001
280.00,-0.001
281.00,0.001
282.00,0.001
283.00,0.001
284.00,0.001
285.00,0.001
286.00,-0.000
287.00,0.002
288.00,0.000
289.00,0.001
290.00,0.001
291.00,-0.002
292.00,0.001
293.00,0.002
294.00,0.000
295.00,0.000
296.00,-0.001
297.00,-0.002
298.00,0.001
299.00,0.002
300.00,0.000
301.00,0.001
302.00,0.002
303.00,0.002
304.00,0.008
305.00,0.009
306.00,0.013
307.00,0.021
308.00,0.031
309.00,0.049
310.00,0.063
311.00,0.091
312.00,0.125
313.00,0.170
314.00,0.217
315.00,0.289
316.00,0.362
317.00,0.456
318.00,0.553
319.00,0.682
320.00,0.828
321.00,0.999
322.00,1.178
323.00,1.352
324.00,1.603
325.00,1.822
326.00,2.062
327.00,2.310
328.00,2.585
329.00,2.844
330.00,3.126
331.00,3.399
332.00,3.716
333.00,4.024
334.00,4.295
335.00,4.594
336.00,4.872
337.00,5.165
338.00,5.450
339.00,5.701
340.00,6.000
341.00,6.237
342.00,6.482
343.00,6.728
344.00,6.961
345.00,7.146
346.00,7.353
347.00,7.501
348.00,7.721
349.00,7.872
350.00,8.007
351.00,8.150
352.00,8.268
353.00,8.393
354.00,8.486
355.00,8.583
356.00,8.673
357.00,8.740
358.00,8.827
359.00,8.911
360.00,8.975
361.00,8.973
362.00,9.049
363.00,9.085
364.00,9.120
365.00,9.119
366.00,9.156
367.00,9.157
368.00,9.165
369.00,9.154
370.00,9.127
371.00,9.120
372.00,9.108
373.00,9.075
374.00,9.050
375.00,9.032
376.00,8.988
377.00,8.938
378.00,8.891
379.00,8.842
380.00,8.801
381.00,8.773
382.00,8.762
383.00,8.725
384.00,8.714
385.00,8.694
386.00,8.654
387.00,8.673
388.00,8.655
389.00,8.628
390.00,8.632
391.00,8.609
392.00,8.592
393.00,8.575
394.00,8.563
395.00,8.552
396.00,8.510
397.00,8.504
398.00,8.489
399.00,8.473
400.00,8.471
401.00,8.452
402.00,8.444
403.00,8.429
404.00,8.431
405.00,8.409
406.00,8.389
407.00,8.352
408.00,8.347
409.00,8.322
410.00,8.315
411.00,8.293
412.00,8.278
413.00,8.268
414.00,8.284
415.00,8.273
416.00,8.278
417.00,8.277
418.00,8.306
419.00,8.335
420.00,8.319
421.00,8.319
422.00,8.323
423.00,8.344
424.00,8.351
425.00,8.376
426.00,8.411
427.00,8.423
428.00,8.455
429.00,8.484
430.00,8.507
431.00,8.548
432.00,8.570
433.00,8.609
434.00,8.647
435.00,8.693
436.00,8.723
437.00,8.781
438.00,8.817
439.00,8.868
440.00,8.919
441.00,8.960
442.00,9.033
443.00,9.074
444.00,9.148
445.00,9.214
446.00,9.278
447.00,9.357
448.00,9.402
449.00,9.495
450.00,9.543
451.00,9.628
452.00,9.711
453.00,9.781
454.00,9.871
455.00,9.957
456.00,10.031
457.00,10.126
458.00,10.209
459.00,10.325
460.00,10.419
461.00,10.509
462.00,10.604
463.00,10.702
464.00,10.790
465.00,10.898
466.00,11.013
467.00,11.112
468.00,11.207
469.00,11.309
470.00,11.407
471.00,11.503
472.00,11.615
473.00,11.688
474.00,11.814
475.00,11.908
476.00,11.986
477.00,12.153
478.00,12.258
479.00,12.400
480.00,12.524
481.00,12.634
482.00,12.771
483.00,12.901
484.00,13.040
485.00,13.178
486.00,13.301
487.00,13.443
488.00,13.561
489.00,13.697
490.00,13.831
491.00,13.976
492.00,14.137
493.00,14.287
494.00,14.405
495.00,14.488
496.00,14.608
497.00,14.731
498.00,14.877
499.00,15.016
500.00,15.115
501.00,15.251
502.00,15.413
503.00,15.524
504.00,15.668
505.00,15.790
506.00,15.909
507.00,16.011
508.00,16.153
509.00,16.312
510.00,16.415
511.00,16.535
512.00,16.680
513.00,16.824
514.00,16.960
515.00,17.087
516.00,17.228
517.00,17.329
518.00,17.471
519.00,17.554
520.00,17.691
521.00,17.789
522.00,17.885
523.00,17.986
524.00,18.092
525.00,18.220
526.00,18.318
527.00,18.435
528.00,18.554
529.00,18.670
530.00,18.792
531.00,18.900
532.00,19.037
533.00,19.139
534.00,19.227
535.00,19.339
536.00,19.407
537.00,19.545
538.00,19.626
539.00,19.719
540.00,19.802
541.00,19.904
542.00,19.958
543.00,20.049
544.00,20.151
545.00,20.221
546.00,20.297
547.00,20.389
548.00,20.460
549.00,20.536
550.00,20.617
551.00,20.773
552.00,20.852
553.00,20.942
554.00,21.022
555.00,21.128
556.00,21.179
557.00,21.243
558.00,21.336
559.00,21.397
560.00,21.503
561.00,21.552
562.00,21.633
563.00,21.693
564.00,21.765
565.00,21.850
566.00,21.880
567.00,21.955
568.00,22.018
569.00,22.037
570.00,22.094
571.00,22.169
572.00,22.236
573.00,22.271
574.00,22.357
575.00,22.398
576.00,22.441
577.00,22.520
578.00,22.584
579.00,22.664
580.00,22.722
581.00,22.842
582.00,22.921
583.00,22.976
584.00,23.082
585.00,23.130
586.00,23.178
587.00,23.249
588.00,23.298
589.00,23.371
590.00,23.454
591.00,23.484
592.00,23.511
593.00,23.619
594.00,23.653
595.00,23.669
596.00,23.757
597.00,23.786
598.00,23.946
599.00,24.025
600.00,24.117
601.00,24.151
602.00,24.181
603.00,24.260
604.00,24.328
605.00,24.378
606.00,24.452
607.00,24.521
608.00,24.605
609.00,24.674
610.00,24.740
611.00,24.744
612.00,24.805
613.00,24.902
614.00,24.939
615.00,25.043
616.00,25.147
617.00,25.200
618.00,25.264
619.00,25.324
620.00,25.381
621.00,25.486
622.00,25.602
623.00,25.653
624.00,25.773
625.00,25.858
626.00,25.923
627.00,25.982
628.00,26.075
629.00,26.187
630.00,26.237
631.00,26.352
632.00,26.473
633.00,26.546
634.00,26.682
635.00,26.800
636.00,26.882
637.00,26.975
638.00,27.114
639.00,27.258
640.00,27.346
641.00,27.450
642.00,27.597
643.00,27.650
644.00,27.819
645.00,27.882
646.00,28.061
647.00,28.185
648.00,28.271
649.00,28.427
650.00,28.501
651.00,28.624
652.00,28.805
653.00,28.899
654.00,29.059
655.00,29.255
656.00,29.348
657.00,29.546
658.00,29.685
659.00,29.745
660.00,29.820
661.00,29.986
662.00,30.267
663.00,30.335
664.00,30.474
665.00,30.627
666.00,30.608
667.00,30.943
668.00,30.955
669.00,31.200
670.00,31.428
671.00,31.345
672.00,31.581
673.00,31.935
674.00,32.034
675.00,32.144
676.00,32.347
677.00,32.470
678.00,32.475
679.00,32.670
680.00,32.906
681.00,33.053
682.00,33.206
683.00,33.357
684.00,33.521
685.00,33.750
686.00,33.867
687.00,34.041
688.00,34.187
689.00,34.311
690.00,34.548
691.00,34.787
692.00,34.789
693.00,34.957
694.00,35.087
695.00,35.274
696.00,35.438
697.00,35.620
698.00,35.826
699.00,35.962
700.00,36.219
701.00,36.317
702.00,36.470
703.00,36.729
704.00,36.886
705.00,36.931
706.00,37.064
707.00,37.345
708.00,37.367
709.00,37.715
710.00,37.875
711.00,37.866
712.00,38.006
713.00,38.096
714.00,38.235
715.00,38.544
716.00,38.529
717.00,38.715
718.00,38.926
719.00,38.902
720.00,39.147
721.00,43.271
722.00,43.419
723.00,43.531
724.00,43.584
725.00,43.748
726.00,43.869
727.00,43.955
728.00,44.074
729.00,44.191
730.00,44.301
731.00,44.351
732.00,44.513
733.00,44.616
734.00,44.823
735.00,44.828
736.00,44.914
737.00,45.042
738.00,45.187
739.00,45.287
740.00,45.364
741.00,45.564
742.00,45.677
743.00,45.713
744.00,45.744
745.00,45.825
746.00,45.952
747.00,46.048
748.00,46.105
749.00,46.185
750.00,46.278
751.00,46.380
752.00,46.369
753.00,46.375
754.00,46.545
755.00,46.632
756.00,46.691
757.00,46.675
758.00,46.866
759.00,46.887
760.00,47.044
761.00,47.039
762.00,47.104
763.00,47.272
764.00,47.290
765.00,47.318
766.00,47.373
767.00,47.471
768.00,47.542
769.00,47.594
770.00,47.782
771.00,47.745
772.00,47.778
773.00,47.914
774.00,47.944
775.00,47.999
776.00,48.036
777.00,48.115
778.00,48.204
779.00,48.259
780.00,48.231
781.00,48.303
782.00,48.389
783.00,48.348
784.00,48.464
785.00,48.407
786.00,48.478
787.00,48.518
788.00,48.585
789.00,48.714
790.00,48.635
791.00,48.676
792.00,48.705
793.00,48.728
794.00,48.781
795.00,48.720
796.00,48.864
797.00,48.817
798.00,48.910
799.00,48.901
800.00,48.845
801.00,48.935
802.00,48.969
803.00,48.950
804.00,48.995
805.00,48.985
806.00,49.048
807.00,49.052
808.00,49.100
809.00,49.042
810.00,49.121
811.00,49.129
812.00,49.190
813.00,49.133
814.00,49.271
815.00,49.211
816.00,49.210
817.00,49.237
818.00,49.169
819.00,49.240
820.00,49.271
821.00,49.242
822.00,49.255
823.00,49.243
824.00,49.278
825.00,49.240
826.00,49.294
827.00,49.386
828.00,49.407
829.00,49.292
830.00,49.316
831.00,51.772
832.00,51.774
833.00,51.759
834.00,51.776
835.00,51.786
836.00,51.796
837.00,51.780
838.00,51.797
839.00,51.793
840.00,51.796
841.00,51.818
842.00,51.809
843.00,51.813
844.00,51.839
845.00,51.779
846.00,51.805
847.00,51.775
848.00,51.798
849.00,51.763
850.00,51.717
851.00,51.780
852.00,51.737
853.00,51.696
854.00,51.680
855.00,51.677
856.00,51.653
857.00,51.675
858.00,51.660
859.00,51.617
860.00,51.651
861.00,51.658
862.00,51.590
863.00,51.649
864.00,51.622
865.00,51.640
866.00,51.774
867.00,51.617
868.00,51.620
869.00,51.645
870.00,51.601
871.00,51.639
872.00,51.631
873.00,51.650
874.00,51.654
875.00,51.650
876.00,51.651
877.00,51.667
878.00,51.629
879.00,51.632
880.00,51.635
881.00,51.611
882.00,51.627
883.00,51.589
884.00,51.578
885.00,51.585
886.00,51.578
887.00,51.578
888.00,51.561
889.00,51.558
890.00,51.523
891.00,51.627
892.00,51.523
893.00,51.500
894.00,51.507
895.00,51.481
896.00,51.469
897.00,51.464
898.00,51.422
899.00,51.429
900.00,51.414
901.00,51.418
902.00,51.416
903.00,51.439
904.00,51.417
905.00,51.395
906.00,51.376
907.00,51.397
908.00,51.350
909.00,51.297
910.00,51.434
911.00,51.333
912.00,51.341
913.00,51.276
914.00,51.274
915.00,51.258
916.00,51.223
917.00,51.239
918.00,51.242
919.00,51.201
920.00,51.116
921.00,51.201
922.00,51.176
923.00,51.129
924.00,51.106
925.00,51.097
926.00,51.098
927.00,51.076
928.00,51.071
929.00,51.065
930.00,51.065
931.00,51.044
932.00,51.026
933.00,51.028
934.00,51.023
935.00,50.976
936.00,50.982
937.00,50.952
938.00,50.946
939.00,50.926
940.00,50.901
941.00,50.907
942.00,50.868
943.00,50.851
944.00,50.858
945.00,50.835
946.00,50.840
947.00,50.810
948.00,50.773
949.00,50.781
950.00,50.767
951.00,50.709
952.00,50.753
953.00,50.687
954.00,50.677
955.00,50.658
956.00,50.640
957.00,50.592
958.00,50.597
959.00,50.561
960.00,50.569
961.00,50.536
962.00,50.555
963.00,50.510
964.00,50.497
965.00,50.498
966.00,50.509
967.00,50.490
968.00,50.469
969.00,50.499
970.00,50.456
971.00,50.473
972.00,50.451
973.00,50.488
974.00,50.514
975.00,50.481
976.00,50.501
977.00,50.498
978.00,50.530
979.00,50.497
980.00,50.520
981.00,50.499
982.00,50.507
983.00,50.504
984.00,50.484
985.00,50.507
986.00,50.454
987.00,50.474
988.00,50.459
989.00,50.449
990.00,50.437
991.00,50.430
992.00,50.437
993.00,50.418
994.00,50.422
995.00,50.401
996.00,50.405
997.00,50.392
998.00,50.381
999.00,50.405
1000.00,50.334
1001.00,50.340
1002.00,50.345
1003.00,50.316
1004.00,50.290
1005.00,50.278
1006.00,50.307
1007.00,50.264
1008.00,50.264
1009.00,50.254
1010.00,50.244
1011.00,50.216
1012.00,50.207
1013.00,50.220
1014.00,50.165
1015.00,50.180
1016.00,50.139
1017.00,50.144
1018.00,50.142
1019.00,50.109
1020.00,50.096
1021.00,50.090
1022.00,50.085
1023.00,50.040
1024.00,50.044
1025.00,50.007
1026.00,50.021
1027.00,49.972
1028.00,49.986
1029.00,49.971
1030.00,49.936
1031.00,49.947
1032.00,49.924
1033.00,49.915
1034.00,49.886
1035.00,49.860
1036.00,49.823
1037.00,49.814
1038.00,49.802
1039.00,49.771
1040.00,49.778
1041.00,49.735
1042.00,49.752
1043.00,49.712
1044.00,49.730
1045.00,49.727
1046.00,49.732
1047.00,49.735
1048.00,49.745
1049.00,49.762
1050.00,49.767
1051.00,49.805
1052.00,49.795
1053.00,49.800
1054.00,49.806
1055.00,49.813
1056.00,49.829
1057.00,49.831
1058.00,49.802
1059.00,49.826
1060.00,49.823
1061.00,49.812
1062.00,49.803
1063.00,49.802
1064.00,49.805
1065.00,49.800
1066.00,49.769
1067.00,49.766
1068.00,49.782
1069.00,49.733
1070.00,49.726
1071.00,49.721
1072.00,49.712
1073.00,49.695
1074.00,49.696
1075.00,49.676
1076.00,49.692
1077.00,49.662
1078.00,49.663
1079.00,49.659
1080.00,49.650
1081.00,49.638
1082.00,49.632
1083.00,49.621
1084.00,49.623
1085.00,49.591
1086.00,49.581
1087.00,49.586
1088.00,49.590
1089.00,49.603
1090.00,49.567
1091.00,49.545
1092.00,49.544
1093.00,49.521
1094.00,49.516
1095.00,49.513
1096.00,49.482
1097.00,49.469
1098.00,49.494
1099.00,49.467
1100.00,49.453
1101.00,49.444
1102.00,49.437
1103.00,49.443
1104.00,49.430
1105.00,49.419
1106.00,49.431
1107.00,49.420
1108.00,49.416
1109.00,49.410
1110.00,49.389
1111.00,49.389
1112.00,49.391
1113.00,49.359
1114.00,49.362
1115.00,49.352
1116.00,49.344
1117.00,49.336
1118.00,49.328
1119.00,49.323
1120.00,49.314
1121.00,49.296
1122.00,49.292
1123.00,49.292
1124.00,49.281
1125.00,49.276
1126.00,49.274
1127.00,49.271
1128.00,49.262
1129.00,49.237
1130.00,49.230
1131.00,49.235
1132.00,49.215
1133.00,49.228
1134.00,49.224
1135.00,49.199
1136.00,49.200
1137.00,49.204
1138.00,49.198
1139.00,49.202
1140.00,49.181
1141.00,49.176
1142.00,49.182
1143.00,49.173
1144.00,49.151
1145.00,49.161
1146.00,49.153
1147.00,49.157
1148.00,49.142
1149.00,49.147
1150.00,49.159
1151.00,49.130
1152.00,49.115
1153.00,49.122
1154.00,49.100
1155.00,49.115
1156.00,49.110
1157.00,49.110
1158.00,49.105
1159.00,49.101
1160.00,49.088
1161.00,49.101
1162.00,49.075
1163.00,49.068
1164.00,49.093
1165.00,49.088
1166.00,49.066
1167.00,49.059
1168.00,49.068
1169.00,49.065
1170.00,49.076
1171.00,49.053
1172.00,49.063
1173.00,49.054
1174.00,49.072
1175.00,49.078
1176.00,49.047
1177.00,49.037
1178.00,49.041
1179.00,49.043
1180.00,49.034
1181.00,49.053
1182.00,49.042
1183.00,49.046
1184.00,49.018
1185.00,49.039
1186.00,49.041
1187.00,49.034
1188.00,49.030
1189.00,49.038
1190.00,49.014
1191.00,49.012
1192.00,49.036
1193.00,49.019
1194.00,49.034
1195.00,49.007
1196.00,49.020
1197.00,49.024
1198.00,49.004
1199.00,49.003
1200.00,49.004
1201.00,49.009
1202.00,49.007
1203.00,49.017
1204.00,48.990
1205.00,49.007
1206.00,48.991
1207.00,49.005
1208.00,49.010
1209.00,48.992
1210.00,48.996
1211.00,48.996
1212.00,48.996
1213.00,48.974
1214.00,48.990
1215.00,48.957
1216.00,48.969
1217.00,48.959
1218.00,48.956
1219.00,48.985
1220.00,48.967
1221.00,48.996
1222.00,48.982
1223.00,48.987
1224.00,48.991
1225.00,48.981
1226.00,48.972
1227.00,48.976
1228.00,49.001
1229.00,49.025
1230.00,49.021
1231.00,48.997
1232.00,49.027
1233.00,49.025
1234.00,49.020
1235.00,49.033
1236.00,49.034
1237.00,49.014
1238.00,49.051
1239.00,49.039
1240.00,49.022
1241.00,49.043
1242.00,49.026
1243.00,49.045
1244.00,49.025
1245.00,49.039
1246.00,49.052
1247.00,49.046
1248.00,49.040
1249.00,49.054
1250.00,49.045
1251.00,49.046
1252.00,49.070
1253.00,49.048
1254.00,49.065
1255.00,49.063
1256.00,49.027
1257.00,49.026
1258.00,49.091
1259.00,49.084
1260.00,49.099
1261.00,49.084
1262.00,49.080
1263.00,49.088
1264.00,49.080
1265.00,49.087
1266.00,49.094
1267.00,49.090
1268.00,49.110
1269.00,49.112
1270.00,49.114
1271.00,49.122
1272.00,49.122
1273.00,49.129
1274.00,49.137
1275.00,49.125
1276.00,49.135
1277.00,49.137
1278.00,49.143
1279.00,49.152
1280.00,49.149
1281.00,49.153
1282.00,49.169
1283.00,49.167
1284.00,49.145
1285.00,49.155
1286.00,49.158
1287.00,49.157
1288.00,49.180
1289.00,49.161
1290.00,49.175
1291.00,49.176
1292.00,49.178
1293.00,49.188
1294.00,49.191
1295.00,49.193
1296.00,49.201
1297.00,49.199
1298.00,49.212
1299.00,49.201
1300.00,49.209
1301.00,49.232
1302.00,49.239
1303.00,49.248
1304.00,49.236
1305.00,49.252
1306.00,49.243
1307.00,49.267
1308.00,49.252
1309.00,49.253
1310.00,49.266
1311.00,49.253
1312.00,49.263
1313.00,49.278
1314.00,49.282
1315.00,49.302
1316.00,49.294
1317.00,49.313
1318.00,49.318
1319.00,49.314
1320.00,49.339
1321.00,49.510
1322.00,49.496
1323.00,49.491
1324.00,49.499
1325.00,49.456
1326.00,49.498
1327.00,49.496
1328.00,49.483
1329.00,49.488
1330.00,49.491
1331.00,49.472
1332.00,49.493
1333.00,49.475
1334.00,49.510
1335.00,49.522
1336.00,49.538
1337.00,49.579
1338.00,49.644
1339.00,49.674
1340.00,49.751
1341.00,49.818
1342.00,49.870
1343.00,49.930
1344.00,49.958
1345.00,50.022
1346.00,50.080
1347.00,50.080
1348.00,50.092
1349.00,50.136
1350.00,50.135
1351.00,50.161
1352.00,50.149
1353.00,50.135
1354.00,50.184
1355.00,50.132
1356.00,50.200
1357.00,50.186
1358.00,50.194
1359.00,50.199
1360.00,50.249
1361.00,50.212
1362.00,50.179
1363.00,50.110
1364.00,50.164
1365.00,50.195
1366.00,50.190
1367.00,50.202
1368.00,50.187
1369.00,50.177
1370.00,50.184
1371.00,50.138
1372.00,50.161
1373.00,50.168
1374.00,50.201
1375.00,50.148
1376.00,50.158
1377.00,50.139
1378.00,50.190
1379.00,50.169
1380.00,50.135
1381.00,50.171
1382.00,50.136
1383.00,50.136
1384.00,50.131
1385.00,50.116
1386.00,50.140
1387.00,50.154
1388.00,50.100
1389.00,50.120
1390.00,50.078
1391.00,50.145
1392.00,50.105
1393.00,50.176
1394.00,50.107
1395.00,50.118
1396.00,50.094
1397.00,50.102
1398.00,50.220
1399.00,50.134
1400.00,50.100
1401.00,50.134
1402.00,50.221
1403.00,50.156
1404.00,50.179
1405.00,50.183
1406.00,50.218
1407.00,50.189
1408.00,50.177
1409.00,50.181
1410.00,50.240
1411.00,50.193
1412.00,50.241
1413.00,50.196
1414.00,50.196
1415.00,50.225
1416.00,50.269
1417.00,50.303
1418.00,50.293
1419.00,50.275
1420.00,50.317
1421.00,50.321
1422.00,50.328
1423.00,50.322
1424.00,50.351
1425.00,50.377
1426.00,50.382
1427.00,50.382
1428.00,50.400
1429.00,50.422
1430.00,50.418
1431.00,50.447
1432.00,50.443
1433.00,50.481
1434.00,50.479
1435.00,50.509
1436.00,50.515
1437.00,50.514
1438.00,50.524
1439.00,50.570
1440.00,50.574
1441.00,50.567
1442.00,50.591
1443.00,50.624
1444.00,50.644
1445.00,50.632
1446.00,50.632
1447.00,50.682
1448.00,50.700
1449.00,50.694
1450.00,50.711
1451.00,50.723
1452.00,50.728
1453.00,50.743
1454.00,50.756
1455.00,50.788
1456.00,50.811
1457.00,50.799
1458.00,50.835
1459.00,50.855
1460.00,50.862
1461.00,50.886
1462.00,50.898
1463.00,50.914
1464.00,50.927
1465.00,50.917
1466.00,50.933
1467.00,50.962
1468.00,50.987
1469.00,50.997
1470.00,50.992
1471.00,50.996
1472.00,51.013
1473.00,51.029
1474.00,51.056
1475.00,51.072
1476.00,51.077
1477.00,51.071
1478.00,51.098
1479.00,51.092
1480.00,51.103
1481.00,51.119
1482.00,51.134
1483.00,51.156
1484.00,51.159
1485.00,51.174
1486.00,51.185
1487.00,51.197
1488.00,51.208
1489.00,51.222
1490.00,51.231
1491.00,51.248
1492.00,51.277
1493.00,51.253
1494.00,51.294
1495.00,51.287
1496.00,51.291
1497.00,51.328
1498.00,51.316
1499.00,51.350
1500.00,51.359
1501.00, 
1502.00, 
1503.00, 
1504.00, 
1505.00, 
1506.00, 
1507.00, 
1508.00, 
1509.00, 
1510.00, 
1511.00, 
1512.00, 
1513.00, 
1514.00, 
1515.00, 
1516.00, 
1517.00, 
1518.00, 
1519.00, 
1520.00, 
1521.00, 
1522.00, 
1523.00, 
1524.00, 
1525.00, 
1526.00, 
1527.00, 
1528.00, 
1529.00, 
1530.00, 
1531.00, 
1532.00, 
1533.00, 
1534.00, 
1535.00, 
1536.00, 
1537.00, 
1538.00, 
1539.00, 
1540.00, 
1541.00, 
1542.00, 
1543.00, 
1544.00, 
1545.00, 
1546.00, 
1547.00, 
1548.00, 
1549.00, 
1550.00, 
1551.00, 
1552.00, 
1553.00, 
1554.00, 
1555.00, 
1556.00, 
1557.00, 
1558.00, 
1559.00, 
1560.00, 
1561.00, 
1562.00, 
1563.00, 
1564.00, 
1565.00, 
1566.00, 
1567.00, 
1568.00, 
1569.00, 
1570.00, 
1571.00, 
1572.00, 
1573.00, 
1574.00, 
1575.00, 
1576.00, 
1577.00, 
1578.00, 
1579.00, 
1580.00, 
1581.00, 
1582.00, 
1583.00, 
1584.00, 
1585.00, 
1586.00, 
1587.00, 
1588.00, 
1589.00, 
1590.00, 
1591.00, 
1592.00, 
1593.00, 
1594.00, 
1595.00, 
1596.00, 
1597.00, 
1598.00, 
1599.00, 
1600.00, 
1601.00, 
1602.00, 
1603.00, 
1604.00, 
1605.00, 
1606.00, 
1607.00, 
1608.00, 
1609.00, 
1610.00, 
1611.00, 
1612.00, 
1613.00, 
1614.00, 
1615.00, 
1616.00, 
1617.00, 
1618.00, 
1619.00, 
1620.00, 
1621.00, 
1622.00, 
1623.00, 
1624.00, 
1625.00, 
1626.00, 
1627.00, 
1628.00, 
1629.00, 
1630.00, 
1631.00, 
1632.00, 
1633.00, 
1634.00, 
1635.00, 
1636.00, 
1637.00, 
1638.00, 
1639.00, 
1640.00, 
1641.00, 
1642.00, 
1643.00, 
1644.00, 
1645.00, 
1646.00, 
1647.00, 
1648.00, 
1649.00, 
1650.00, 
1651.00, 
1652.00, 
1653.00, 
1654.00, 
1655.00, 
1656.00, 
1657.00, 
1658.00, 
1659.00, 
1660.00, 
1661.00, 
1662.00, 
1663.00, 
1664.00, 
1665.00, 
1666.00, 
1667.00, 
1668.00, 
1669.00, 
1670.00, 
1671.00, 
1672.00, 
1673.00, 
1674.00, 
1675.00, 
1676.00, 
1677.00, 
1678.00, 
1679.00, 
1680.00, 
1681.00, 
1682.00, 
1683.00, 
1684.00, 
1685.00, 
1686.00, 
1687.00, 
1688.00, 
1689.00, 
1690.00, 
1691.00, 
1692.00, 
1693.00, 
1694.00, 
1695.00, 
1696.00, 
1697.00, 
1698.00, 
1699.00, 
1700.00, 
1701.00, 
1702.00, 
1703.00, 
1704.00, 
1705.00, 
1706.00, 
1707.00, 
1708.00, 
1709.00, 
1710.00, 
1711.00, 
1712.00, 
1713.00, 
1714.00, 
1715.00, 
1716.00, 
1717.00, 
1718.00, 
1719.00, 
1720.00, 
1721.00, 
1722.00, 
1723.00, 
1724.00, 
1725.00, 
1726.00, 
1727.00, 
1728.00, 
1729.00, 
1730.00, 
1731.00, 
1732.00, 
1733.00, 
1734.00, 
1735.00, 
1736.00, 
1737.00, 
1738.00, 
1739.00, 
1740.00, 
1741.00, 
1742.00, 
1743.00, 
1744.00, 
1745.00, 
1746.00, 
1747.00, 
1748.00, 
1749.00, 
1750.00, 
1751.00, 
1752.00, 
1753.00, 
1754.00, 
1755.00, 
1756.00, 
1757.00, 
1758.00, 
1759.00, 
1760.00, 
1761.00, 
1762.00, 
1763.00, 
1764.00, 
1765.00, 
1766.00, 
1767.00, 
1768.00, 
1769.00, 
1770.00, 
1771.00, 
1772.00, 
1773.00, 
1774.00, 
1775.00, 
1776.00, 
1777.00, 
1778.00, 
1779.00, 
1780.00, 
1781.00, 
1782.00, 
1783.00, 
1784.00, 
1785.00, 
1786.00, 
1787.00, 
1788.00, 
1789.00, 
1790.00, 
1791.00, 
1792.00, 
1793.00, 
1794.00, 
1795.00, 
1796.00, 
1797.00, 
1798.00, 
1799.00, 
1800.00, 
1801.00, 
1802.00, 
1803.00, 
1804.00, 
1805.00, 
1806.00, 
1807.00, 
1808.00, 
1809.00, 
1810.00, 
1811.00, 
1812.00, 
1813.00, 
1814.00, 
1815.00, 
1816.00, 
1817.00, 
1818.00, 
1819.00, 
1820.00, 
1821.00, 
1822.00, 
1823.00, 
1824.00, 
1825.00, 
1826.00, 
1827.00, 
1828.00, 
1829.00, 
1830.00, 
1831.00, 
1832.00, 
1833.00, 
1834.00, 
1835.00, 
1836.00, 
1837.00, 
1838.00, 
1839.00, 
1840.00, 
1841.00, 
1842.00, 
1843.00, 
1844.00, 
1845.00, 
1846.00, 
1847.00, 
1848.00, 
1849.00, 
1850.00, 
1851.00, 
1852.00, 
1853.00, 
1854.00, 
1855.00, 
1856.00, 
1857.00, 
1858.00, 
1859.00, 
1860.00, 
1861.00, 
1862.00, 
1863.00, 
1864.00, 
1865.00, 
1866.00, 
1867.00, 
1868.00, 
1869.00, 
1870.00, 
1871.00, 
1872.00, 
1873.00, 
1874.00, 
1875.00, 
1876.00, 
1877.00, 
1878.00, 
1879.00, 
1880.00, 
1881.00, 
1882.00, 
1883.00, 
1884.00, 
1885.00, 
1886.00, 
1887.00, 
1888.00, 
1889.00, 
1890.00, 
1891.00, 
1892.00, 
1893.00, 
1894.00, 
1895.00, 
1896.00, 
1897.00, 
1898.00, 
1899.00, 
1900.00, 
1901.00, 
1902.00, 
1903.00, 
1904.00, 
1905.00, 
1906.00, 
1907.00, 
1908.00, 
1909.00, 
1910.00, 
1911.00, 
1912.00, 
1913.00, 
1914.00, 
1915.00, 
1916.00, 
1917.00, 
1918.00, 
1919.00, 
1920.00, 
1921.00, 
1922.00, 
1923.00, 
1924.00, 
1925.00, 
1926.00, 
1927.00, 
1928.00, 
1929.00, 
1930.00, 
1931.00, 
1932.00, 
1933.00, 
1934.00, 
1935.00, 
1936.00, 
1937.00, 
1938.00, 
1939.00, 
1940.00, 
1941.00, 
1942.00, 
1943.00, 
1944.00, 
1945.00, 
1946.00, 
1947.00, 
1948.00, 
1949.00, 
1950.00, 
1951.00, 
1952.00, 
1953.00, 
1954.00, 
1955.00, 
1956.00, 
1957.00, 
1958.00, 
1959.00, 
1960.00, 
1961.00, 
1962.00, 
1963.00, 
1964.00, 
1965.00, 
1966.00, 
1967.00, 
1968.00, 
1969.00, 
1970.00, 
1971.00, 
1972.00, 
1973.00, 
1974.00, 
1975.00, 
1976.00, 
1977.00, 
1978.00, 
1979.00, 
1980.00, 
1981.00, 
1982.00, 
1983.00, 
1984.00, 
1985.00, 
1986.00, 
1987.00, 
1988.00, 
1989.00, 
1990.00, 
1991.00, 
1992.00, 
1993.00, 
1994.00, 
1995.00, 
1996.00, 
1997.00, 
1998.00, 
1999.00, 
2000.00, 
2001.00, 
2002.00, 
2003.00, 
2004.00, 
2005.00, 
2006.00, 
2007.00, 
2008.00, 
2009.00, 
2010.00, 
2011.00, 
2012.00, 
2013.00, 
2014.00, 
2015.00, 
2016.00, 
2017.00, 
2018.00, 
2019.00, 
2020.00, 
2021.00, 
2022.00, 
2023.00, 
2024.00, 
2025.00, 
2026.00, 
2027.00, 
2028.00, 
2029.00, 
2030.00, 
2031.00, 
2032.00, 
2033.00, 
2034.00, 
2035.00, 
2036.00, 
2037.00, 
2038.00, 
2039.00, 
2040.00, 
2041.00, 
2042.00, 
2043.00, 
2044.00, 
2045.00, 
2046.00, 
2047.00, 
2048.00, 
2049.00, 
2050.00, 
2051.00, 
2052.00, 
2053.00, 
2054.00, 
2055.00, 
2056.00, 
2057.00, 
2058.00, 
2059.00, 
2060.00, 
2061.00, 
2062.00, 
2063.00, 
2064.00, 
2065.00, 
2066.00, 
2067.00, 
2068.00, 
2069.00, 
2070.00, 
2071.00, 
2072.00, 
2073.00, 
2074.00, 
2075.00, 
2076.00, 
2077.00, 
2078.00, 
2079.00, 
2080.00, 
2081.00, 
2082.00, 
2083.00, 
2084.00, 
2085.00, 
2086.00, 
2087.00, 
2088.00, 
2089.00, 
2090.00, 
2091.00, 
2092.00, 
2093.00, 
2094.00, 
2095.00, 
2096.00, 
2097.00, 
2098.00, 
2099.00, 
2100.00, 
2101.00, 
2102.00, 
2103.00, 
2104.00, 
2105.00, 
2106.00, 
2107.00, 
2108.00, 
2109.00, 
2110.00, 
2111.00, 
2112.00, 
2113.00, 
2114.00, 
2115.00, 
2116.00, 
2117.00, 
2118.00, 
2119.00, 
2120.00, 
2121.00, 
2122.00, 
2123.00, 
2124.00, 
2125.00, 
2126.00, 
2127.00, 
2128.00, 
2129.00, 
2130.00, 
2131.00, 
2132.00, 
2133.00, 
2134.00, 
2135.00, 
2136.00, 
2137.00, 
2138.00, 
2139.00, 
2140.00, 
2141.00, 
2142.00, 
2143.00, 
2144.00, 
2145.00, 
2146.00, 
2147.00, 
2148.00, 
2149.00, 
2150.00, 
2151.00, 
2152.00, 
2153.00, 
2154.00, 
2155.00, 
2156.00, 
2157.00, 
2158.00, 
2159.00, 
2160.00, 
2161.00, 
2162.00, 
2163.00, 
2164.00, 
2165.00, 
2166.00, 
2167.00, 
2168.00, 
2169.00, 
2170.00, 
2171.00, 
2172.00, 
2173.00, 
2174.00, 
2175.00, 
2176.00, 
2177.00, 
2178.00, 
2179.00, 
2180.00, 
2181.00, 
2182.00, 
2183.00, 
2184.00, 
2185.00, 
2186.00, 
2187.00, 
2188.00, 
2189.00, 
2190.00, 
2191.00, 
2192.00, 
2193.00, 
2194.00, 
2195.00, 
2196.00, 
2197.00, 
2198.00, 
2199.00, 
2200.00, 
2201.00, 
2202.00, 
2203.00, 
2204.00, 
2205.00, 
2206.00, 
2207.00, 
2208.00, 
2209.00, 
2210.00, 
2211.00, 
2212.00, 
2213.00, 
2214.00, 
2215.00, 
2216.00, 
2217.00, 
2218.00, 
2219.00, 
2220.00, 
2221.00, 
2222.00, 
2223.00, 
2224.00, 
2225.00, 
2226.00, 
2227.00, 
2228.00, 
2229.00, 
2230.00, 
2231.00, 
2232.00, 
2233.00, 
2234.00, 
2235.00, 
2236.00, 
2237.00, 
2238.00, 
2239.00, 
2240.00, 
2241.00, 
2242.00, 
2243.00, 
2244.00, 
2245.00, 
2246.00, 
2247.00, 
2248.00, 
2249.00, 
2250.00, 
2251.00, 
2252.00, 
2253.00, 
2254.00, 
2255.00, 
2256.00, 
2257.00, 
2258.00, 
2259.00, 
2260.00, 
2261.00, 
2262.00, 
2263.00, 
2264.00, 
2265.00, 
2266.00, 
2267.00, 
2268.00, 
2269.00, 
2270.00, 
2271.00, 
2272.00, 
2273.00, 
2274.00, 
2275.00, 
2276.00, 
2277.00, 
2278.00, 
2279.00, 
2280.00, 
2281.00, 
2282.00, 
2283.00, 
2284.00, 
2285.00, 
2286.00, 
2287.00, 
2288.00, 
2289.00, 
2290.00, 
2291.00, 
2292.00, 
2293.00, 
2294.00, 
2295.00, 
2296.00, 
2297.00, 
2298.00, 
2299.00, 
2300.00, 
2301.00, 
2302.00, 
2303.00, 
2304.00, 
2305.00, 
2306.00, 
2307.00, 
2308.00, 
2309.00, 
2310.00, 
2311.00, 
2312.00, 
2313.00, 
2314.00, 
2315.00, 
2316.00, 
2317.00, 
2318.00, 
2319.00, 
2320.00, 
2321.00, 
2322.00, 
2323.00, 
2324.00, 
2325.00, 
2326.00, 
2327.00, 
2328.00, 
2329.00, 
2330.00, 
2331.00, 
2332.00, 
2333.00, 
2334.00, 
2335.00, 
2336.00, 
2337.00, 
2338.00, 
2339.00, 
2340.00, 
2341.00, 
2342.00, 
2343.00, 
2344.00, 
2345.00, 
2346.00, 
2347.00, 
2348.00, 
2349.00, 
2350.00, 
2351.00, 
2352.00, 
2353.00, 
2354.00, 
2355.00, 
2356.00, 
2357.00, 
2358.00, 
2359.00, 
2360.00, 
2361.00, 
2362.00, 
2363.00, 
2364.00, 
2365.00, 
2366.00, 
2367.00, 
2368.00, 
2369.00, 
2370.00, 
2371.00, 
2372.00, 
2373.00, 
2374.00, 
2375.00, 
2376.00, 
2377.00, 
2378.00, 
2379.00, 
2380.00, 
2381.00, 
2382.00, 
2383.00, 
2384.00, 
2385.00, 
2386.00, 
2387.00, 
2388.00, 
2389.00, 
2390.00, 
2391.00, 
2392.00, 
2393.00, 
2394.00, 
2395.00, 
2396.00, 
2397.00, 
2398.00, 
2399.00, 
2400.00, 
2401.00, 
2402.00, 
2403.00, 
2404.00, 
2405.00, 
2406.00, 
2407.00, 
2408.00, 
2409.00, 
2410.00, 
2411.00, 
2412.00, 
2413.00, 
2414.00, 
2415.00, 
2416.00, 
2417.00, 
2418.00, 
2419.00, 
2420.00, 
2421.00, 
2422.00, 
2423.00, 
2424.00, 
2425.00, 
2426.00, 
2427.00, 
2428.00, 
2429.00, 
2430.00, 
2431.00, 
2432.00, 
2433.00, 
2434.00, 
2435.00, 
2436.00, 
2437.00, 
2438.00, 
2439.00, 
2440.00, 
2441.00, 
2442.00, 
2443.00, 
2444.00, 
2445.00, 
2446.00, 
2447.00, 
2448.00, 
2449.00, 
2450.00, 
2451.00, 
2452.00, 
2453.00, 
2454.00, 
2455.00, 
2456.00, 
2457.00, 
2458.00, 
2459.00, 
2460.00, 
2461.00, 
2462.00, 
2463.00, 
2464.00, 
2465.00, 
2466.00, 
2467.00, 
2468.00, 
2469.00, 
2470.00, 
2471.00, 
2472.00, 
2473.00, 
2474.00, 
2475.00, 
2476.00, 
2477.00, 
2478.00, 
2479.00, 
2480.00, 
2481.00, 
2482.00, 
2483.00, 
2484.00, 
2485.00, 
2486.00, 
2487.00, 
2488.00, 
2489.00, 
2490.00, 
2491.00, 
2492.00, 
2493.00, 
2494.00, 
2495.00, 
2496.00, 
2497.00, 
2498.00, 
2499.00, 
2500.00, 
2501.00, 
2502.00, 
2503.00, 
2504.00, 
2505.00, 
2506.00, 
2507.00, 
2508.00, 
2509.00, 
2510.00, 
2511.00, 
2512.00, 
2513.00, 
2514.00, 
2515.00, 
2516.00, 
2517.00, 
2518.00, 
2519.00, 
2520.00, 
2521.00, 
2522.00, 
2523.00, 
2524.00, 
2525.00, 
2526.00, 
2527.00, 
2528.00, 
2529.00, 
2530.00, 
2531.00, 
2532.00, 
2533.00, 
2534.00, 
2535.00, 
2536.00, 
2537.00, 
2538.00, 
2539.00, 
2540.00, 
2541.00, 
2542.00, 
2543.00, 
2544.00, 
2545.00, 
2546.00, 
2547.00, 
2548.00, 
2549.00, 
2550.00, 
2551.00, 
2552.00, 
2553.00, 
2554.00, 
2555.00, 
2556.00, 
2557.00, 
2558.00, 
2559.00, 
2560.00, 
2561.00, 
2562.00, 
2563.00, 
2564.00, 
2565.00, 
2566.00, 
2567.00, 
2568.00, 
2569.00, 
2570.00, 
2571.00, 
2572.00, 
2573.00, 
2574.00, 
2575.00, 
2576.00, 
2577.00, 
2578.00, 
2579.00, 
2580.00, 
2581.00, 
2582.00, 
2583.00, 
2584.00, 
2585.00, 
2586.00, 
2587.00, 
2588.00, 
2589.00, 
2590.00, 
2591.00, 
2592.00, 
2593.00, 
2594.00, 
2595.00, 
2596.00, 
2597.00, 
2598.00, 
2599.00, 
2600.00, 
