"1cP1 - RawData"
"Wavelength nm.","T%"
200.00,0.000
201.00,0.004
202.00,0.002
203.00,0.001
204.00,0.004
205.00,0.004
206.00,0.001
207.00,0.001
208.00,0.003
209.00,0.001
210.00,0.001
211.00,0.003
212.00,-0.000
213.00,0.001
214.00,0.000
215.00,0.002
216.00,0.005
217.00,0.001
218.00,0.001
219.00,0.001
220.00,-0.000
221.00,0.001
222.00,0.002
223.00,0.000
224.00,-0.002
225.00,0.002
226.00,-0.001
227.00,0.000
228.00,0.002
229.00,0.000
230.00,0.002
231.00,-0.000
232.00,0.002
233.00,-0.001
234.00,-0.000
235.00,0.002
236.00,0.000
237.00,0.001
238.00,-0.000
239.00,-0.001
240.00,0.000
241.00,-0.000
242.00,0.001
243.00,-0.001
244.00,0.001
245.00,0.000
246.00,0.000
247.00,0.001
248.00,0.001
249.00,0.001
250.00,0.000
251.00,0.001
252.00,0.002
253.00,0.000
254.00,0.001
255.00,-0.000
256.00,0.002
257.00,-0.000
258.00,0.001
259.00,0.002
260.00,0.001
261.00,0.000
262.00,0.000
263.00,0.002
264.00,0.001
265.00,-0.000
266.00,-0.001
267.00,-0.001
268.00,0.001
269.00,-0.001
270.00,0.001
271.00,0.001
272.00,-0.001
273.00,-0.000
274.00,0.000
275.00,0.001
276.00,-0.000
277.00,0.002
278.00,0.002
279.00,0.002
280.00,-0.000
281.00,-0.000
282.00,-0.001
283.00,0.000
284.00,-0.001
285.00,-0.001
286.00,-0.001
287.00,0.000
288.00,0.002
289.00,-0.000
290.00,0.000
291.00,0.001
292.00,-0.000
293.00,-0.001
294.00,0.000
295.00,0.001
296.00,0.000
297.00,0.001
298.00,0.001
299.00,0.000
300.00,0.001
301.00,0.001
302.00,0.001
303.00,0.003
304.00,0.000
305.00,0.002
306.00,0.002
307.00,0.004
308.00,0.006
309.00,0.010
310.00,0.018
311.00,0.030
312.00,0.047
313.00,0.070
314.00,0.108
315.00,0.157
316.00,0.225
317.00,0.323
318.00,0.432
319.00,0.585
320.00,0.780
321.00,1.026
322.00,1.251
323.00,1.650
324.00,2.035
325.00,2.453
326.00,2.916
327.00,3.479
328.00,3.960
329.00,4.661
330.00,5.332
331.00,6.062
332.00,6.810
333.00,7.631
334.00,8.378
335.00,9.229
336.00,10.061
337.00,10.927
338.00,11.794
339.00,12.565
340.00,13.400
341.00,14.276
342.00,15.021
343.00,15.814
344.00,16.528
345.00,17.310
346.00,17.972
347.00,18.567
348.00,19.196
349.00,19.826
350.00,20.352
351.00,20.886
352.00,21.346
353.00,21.800
354.00,22.253
355.00,22.676
356.00,23.082
357.00,23.336
358.00,23.703
359.00,24.062
360.00,24.411
361.00,24.681
362.00,24.929
363.00,25.132
364.00,25.309
365.00,25.443
366.00,25.587
367.00,25.762
368.00,25.823
369.00,25.956
370.00,26.063
371.00,26.085
372.00,26.057
373.00,26.065
374.00,26.081
375.00,26.073
376.00,25.965
377.00,25.893
378.00,25.793
379.00,25.711
380.00,25.701
381.00,25.712
382.00,25.732
383.00,25.781
384.00,25.863
385.00,25.949
386.00,25.980
387.00,26.119
388.00,26.236
389.00,26.236
390.00,26.348
391.00,26.456
392.00,26.437
393.00,26.567
394.00,26.494
395.00,26.645
396.00,26.659
397.00,26.682
398.00,26.728
399.00,26.734
400.00,26.735
401.00,26.737
402.00,26.753
403.00,26.753
404.00,26.762
405.00,26.729
406.00,26.733
407.00,26.704
408.00,26.740
409.00,26.638
410.00,26.548
411.00,26.546
412.00,26.487
413.00,26.539
414.00,26.449
415.00,26.457
416.00,26.552
417.00,26.535
418.00,26.580
419.00,26.630
420.00,26.687
421.00,26.674
422.00,26.692
423.00,26.741
424.00,26.788
425.00,26.821
426.00,26.816
427.00,26.901
428.00,26.926
429.00,26.933
430.00,27.010
431.00,27.021
432.00,27.060
433.00,27.125
434.00,27.165
435.00,27.244
436.00,27.276
437.00,27.309
438.00,27.411
439.00,27.428
440.00,27.513
441.00,27.583
442.00,27.662
443.00,27.734
444.00,27.829
445.00,27.895
446.00,27.993
447.00,28.054
448.00,28.161
449.00,28.292
450.00,28.339
451.00,28.427
452.00,28.507
453.00,28.639
454.00,28.772
455.00,28.840
456.00,28.985
457.00,29.096
458.00,29.147
459.00,29.301
460.00,29.445
461.00,29.569
462.00,29.644
463.00,29.815
464.00,29.909
465.00,30.018
466.00,30.149
467.00,30.270
468.00,30.393
469.00,30.453
470.00,30.486
471.00,30.609
472.00,30.723
473.00,30.776
474.00,30.881
475.00,30.996
476.00,31.075
477.00,31.161
478.00,31.259
479.00,31.515
480.00,31.582
481.00,31.656
482.00,31.843
483.00,31.935
484.00,32.113
485.00,32.245
486.00,32.395
487.00,32.517
488.00,32.651
489.00,32.810
490.00,32.941
491.00,33.018
492.00,33.254
493.00,33.411
494.00,33.354
495.00,33.496
496.00,33.611
497.00,33.726
498.00,33.865
499.00,33.998
500.00,34.150
501.00,34.241
502.00,34.389
503.00,34.483
504.00,34.518
505.00,34.613
506.00,34.730
507.00,34.818
508.00,34.948
509.00,35.083
510.00,35.224
511.00,35.301
512.00,35.447
513.00,35.614
514.00,35.730
515.00,35.777
516.00,35.908
517.00,35.965
518.00,36.088
519.00,36.136
520.00,36.158
521.00,36.311
522.00,36.361
523.00,36.366
524.00,36.517
525.00,36.615
526.00,36.700
527.00,36.742
528.00,36.849
529.00,37.008
530.00,37.135
531.00,37.238
532.00,37.345
533.00,37.452
534.00,37.516
535.00,37.586
536.00,37.656
537.00,37.771
538.00,37.759
539.00,37.820
540.00,37.911
541.00,37.962
542.00,37.976
543.00,38.061
544.00,38.168
545.00,38.170
546.00,38.244
547.00,38.368
548.00,38.491
549.00,38.498
550.00,38.567
551.00,38.726
552.00,38.752
553.00,38.760
554.00,38.875
555.00,38.905
556.00,39.017
557.00,39.040
558.00,39.080
559.00,39.150
560.00,39.234
561.00,39.301
562.00,39.363
563.00,39.362
564.00,39.416
565.00,39.440
566.00,39.446
567.00,39.505
568.00,39.542
569.00,39.585
570.00,39.612
571.00,39.676
572.00,39.711
573.00,39.677
574.00,39.717
575.00,39.702
576.00,39.718
577.00,39.752
578.00,39.884
579.00,39.936
580.00,39.910
581.00,40.109
582.00,40.133
583.00,40.185
584.00,40.263
585.00,40.345
586.00,40.360
587.00,40.444
588.00,40.445
589.00,40.390
590.00,40.485
591.00,40.462
592.00,40.442
593.00,40.509
594.00,40.594
595.00,40.757
596.00,40.707
597.00,40.637
598.00,40.739
599.00,40.883
600.00,40.980
601.00,40.962
602.00,40.991
603.00,41.051
604.00,41.054
605.00,41.091
606.00,41.129
607.00,41.144
608.00,41.288
609.00,41.404
610.00,41.229
611.00,41.291
612.00,41.378
613.00,41.385
614.00,41.372
615.00,41.527
616.00,41.595
617.00,41.542
618.00,41.470
619.00,41.644
620.00,41.637
621.00,41.703
622.00,41.802
623.00,41.775
624.00,41.780
625.00,41.954
626.00,41.949
627.00,42.014
628.00,41.986
629.00,42.064
630.00,42.041
631.00,42.124
632.00,42.202
633.00,42.331
634.00,42.402
635.00,42.442
636.00,42.496
637.00,42.542
638.00,42.580
639.00,42.695
640.00,42.671
641.00,42.665
642.00,42.719
643.00,42.799
644.00,42.806
645.00,42.909
646.00,42.964
647.00,43.101
648.00,43.126
649.00,43.110
650.00,43.188
651.00,43.214
652.00,43.362
653.00,43.292
654.00,43.312
655.00,43.480
656.00,43.736
657.00,43.535
658.00,43.739
659.00,43.885
660.00,44.001
661.00,43.836
662.00,43.836
663.00,44.011
664.00,44.288
665.00,44.348
666.00,44.221
667.00,44.299
668.00,44.346
669.00,44.530
670.00,44.643
671.00,44.614
672.00,44.532
673.00,44.420
674.00,44.900
675.00,45.246
676.00,45.012
677.00,45.165
678.00,44.920
679.00,45.131
680.00,45.241
681.00,45.340
682.00,45.318
683.00,45.362
684.00,45.516
685.00,45.476
686.00,45.369
687.00,45.471
688.00,45.610
689.00,45.656
690.00,45.907
691.00,46.111
692.00,45.789
693.00,45.857
694.00,45.977
695.00,46.048
696.00,46.204
697.00,46.268
698.00,46.264
699.00,46.486
700.00,46.498
701.00,46.347
702.00,46.442
703.00,46.764
704.00,46.699
705.00,46.738
706.00,46.820
707.00,46.686
708.00,46.581
709.00,46.896
710.00,47.321
711.00,47.011
712.00,46.935
713.00,47.024
714.00,47.113
715.00,47.115
716.00,47.036
717.00,47.196
718.00,47.436
719.00,47.300
720.00,47.350
721.00,51.921
722.00,51.961
723.00,51.890
724.00,51.938
725.00,51.851
726.00,51.885
727.00,51.852
728.00,51.972
729.00,51.854
730.00,51.936
731.00,51.899
732.00,51.964
733.00,52.001
734.00,51.945
735.00,51.953
736.00,51.954
737.00,51.945
738.00,52.121
739.00,51.973
740.00,51.971
741.00,52.028
742.00,52.062
743.00,51.997
744.00,51.983
745.00,52.040
746.00,51.948
747.00,51.962
748.00,51.912
749.00,51.880
750.00,51.861
751.00,51.836
752.00,51.885
753.00,51.835
754.00,51.906
755.00,51.920
756.00,51.879
757.00,51.841
758.00,51.921
759.00,51.854
760.00,51.923
761.00,51.877
762.00,51.809
763.00,51.875
764.00,51.848
765.00,51.894
766.00,51.834
767.00,51.815
768.00,51.853
769.00,51.865
770.00,51.826
771.00,51.849
772.00,51.828
773.00,51.843
774.00,51.852
775.00,51.902
776.00,51.784
777.00,51.821
778.00,51.820
779.00,51.809
780.00,51.788
781.00,51.772
782.00,51.706
783.00,51.651
784.00,51.706
785.00,51.634
786.00,51.685
787.00,51.698
788.00,51.733
789.00,51.582
790.00,51.565
791.00,51.659
792.00,51.542
793.00,51.509
794.00,51.620
795.00,51.535
796.00,51.536
797.00,51.361
798.00,51.431
799.00,51.373
800.00,51.297
801.00,51.377
802.00,51.361
803.00,51.340
804.00,51.267
805.00,51.328
806.00,51.254
807.00,51.163
808.00,51.192
809.00,51.246
810.00,51.172
811.00,51.193
812.00,51.201
813.00,51.066
814.00,51.133
815.00,51.092
816.00,51.077
817.00,51.150
818.00,50.938
819.00,51.034
820.00,50.904
821.00,50.979
822.00,50.962
823.00,50.928
824.00,50.976
825.00,50.820
826.00,50.843
827.00,50.962
828.00,50.858
829.00,50.763
830.00,50.792
831.00,53.132
832.00,53.135
833.00,53.044
834.00,53.059
835.00,53.017
836.00,53.012
837.00,52.978
838.00,52.973
839.00,52.969
840.00,52.920
841.00,52.886
842.00,52.909
843.00,52.879
844.00,52.799
845.00,52.806
846.00,52.798
847.00,52.780
848.00,52.744
849.00,52.710
850.00,52.640
851.00,52.593
852.00,52.623
853.00,52.580
854.00,52.517
855.00,52.482
856.00,52.475
857.00,52.475
858.00,52.406
859.00,52.389
860.00,52.395
861.00,52.398
862.00,52.282
863.00,52.323
864.00,52.267
865.00,52.294
866.00,52.257
867.00,52.291
868.00,52.243
869.00,52.242
870.00,52.219
871.00,52.212
872.00,52.193
873.00,52.229
874.00,52.146
875.00,52.169
876.00,52.195
877.00,52.150
878.00,52.139
879.00,52.088
880.00,52.090
881.00,52.048
882.00,52.048
883.00,52.023
884.00,52.037
885.00,51.987
886.00,51.915
887.00,52.069
888.00,51.918
889.00,51.882
890.00,51.883
891.00,51.849
892.00,51.832
893.00,51.798
894.00,51.807
895.00,51.756
896.00,51.761
897.00,51.714
898.00,51.689
899.00,51.696
900.00,51.667
901.00,51.690
902.00,51.694
903.00,51.618
904.00,51.629
905.00,51.628
906.00,51.590
907.00,51.582
908.00,51.510
909.00,51.522
910.00,51.479
911.00,51.471
912.00,51.470
913.00,51.406
914.00,51.398
915.00,51.368
916.00,51.340
917.00,51.308
918.00,51.314
919.00,51.283
920.00,51.234
921.00,51.270
922.00,51.253
923.00,51.208
924.00,51.200
925.00,51.189
926.00,51.120
927.00,51.176
928.00,51.119
929.00,51.140
930.00,51.095
931.00,51.094
932.00,51.037
933.00,51.054
934.00,51.002
935.00,51.003
936.00,50.950
937.00,50.923
938.00,50.938
939.00,50.955
940.00,50.901
941.00,50.903
942.00,51.001
943.00,50.853
944.00,50.816
945.00,50.824
946.00,50.793
947.00,50.777
948.00,50.752
949.00,50.734
950.00,50.703
951.00,50.684
952.00,50.669
953.00,50.626
954.00,50.620
955.00,50.561
956.00,50.554
957.00,50.514
958.00,50.554
959.00,50.419
960.00,50.475
961.00,50.465
962.00,50.465
963.00,50.424
964.00,50.416
965.00,50.405
966.00,50.393
967.00,50.377
968.00,50.347
969.00,50.400
970.00,50.344
971.00,50.365
972.00,50.339
973.00,50.375
974.00,50.394
975.00,50.347
976.00,50.370
977.00,50.351
978.00,50.383
979.00,50.337
980.00,50.373
981.00,50.377
982.00,50.327
983.00,50.359
984.00,50.331
985.00,50.352
986.00,50.302
987.00,50.348
988.00,50.302
989.00,50.284
990.00,50.271
991.00,50.251
992.00,50.261
993.00,50.237
994.00,50.232
995.00,50.223
996.00,50.209
997.00,50.210
998.00,50.181
999.00,50.190
1000.00,50.151
1001.00,50.134
1002.00,50.111
1003.00,50.121
1004.00,50.102
1005.00,50.076
1006.00,50.112
1007.00,50.072
1008.00,50.064
1009.00,50.044
1010.00,50.047
1011.00,50.039
1012.00,50.000
1013.00,50.011
1014.00,49.952
1015.00,49.986
1016.00,49.929
1017.00,49.935
1018.00,49.915
1019.00,49.877
1020.00,49.892
1021.00,49.868
1022.00,49.878
1023.00,49.813
1024.00,49.828
1025.00,49.816
1026.00,49.800
1027.00,49.780
1028.00,49.812
1029.00,49.764
1030.00,49.727
1031.00,49.746
1032.00,49.697
1033.00,49.689
1034.00,49.667
1035.00,49.628
1036.00,49.606
1037.00,49.592
1038.00,49.590
1039.00,49.552
1040.00,49.555
1041.00,49.531
1042.00,49.525
1043.00,49.508
1044.00,49.518
1045.00,49.503
1046.00,49.511
1047.00,49.510
1048.00,49.537
1049.00,49.562
1050.00,49.539
1051.00,49.579
1052.00,49.569
1053.00,49.567
1054.00,49.567
1055.00,49.591
1056.00,49.607
1057.00,49.612
1058.00,49.595
1059.00,49.607
1060.00,49.597
1061.00,49.590
1062.00,49.581
1063.00,49.610
1064.00,49.613
1065.00,49.548
1066.00,49.545
1067.00,49.542
1068.00,49.578
1069.00,49.523
1070.00,49.509
1071.00,49.495
1072.00,49.521
1073.00,49.496
1074.00,49.492
1075.00,49.469
1076.00,49.482
1077.00,49.445
1078.00,49.441
1079.00,49.445
1080.00,49.415
1081.00,49.410
1082.00,49.393
1083.00,49.389
1084.00,49.380
1085.00,49.391
1086.00,49.383
1087.00,49.405
1088.00,49.369
1089.00,49.371
1090.00,49.373
1091.00,49.374
1092.00,49.367
1093.00,49.338
1094.00,49.339
1095.00,49.308
1096.00,49.286
1097.00,49.298
1098.00,49.290
1099.00,49.279
1100.00,49.268
1101.00,49.272
1102.00,49.241
1103.00,49.244
1104.00,49.238
1105.00,49.219
1106.00,49.208
1107.00,49.211
1108.00,49.207
1109.00,49.219
1110.00,49.214
1111.00,49.195
1112.00,49.176
1113.00,49.170
1114.00,49.170
1115.00,49.173
1116.00,49.151
1117.00,49.126
1118.00,49.122
1119.00,49.110
1120.00,49.116
1121.00,49.128
1122.00,49.140
1123.00,49.093
1124.00,49.071
1125.00,49.082
1126.00,49.078
1127.00,49.088
1128.00,49.069
1129.00,49.055
1130.00,49.037
1131.00,49.049
1132.00,49.040
1133.00,49.038
1134.00,49.033
1135.00,49.012
1136.00,49.021
1137.00,49.036
1138.00,49.020
1139.00,49.032
1140.00,49.009
1141.00,49.007
1142.00,49.001
1143.00,49.015
1144.00,48.984
1145.00,48.989
1146.00,48.970
1147.00,48.953
1148.00,48.957
1149.00,48.978
1150.00,48.965
1151.00,48.957
1152.00,48.934
1153.00,48.964
1154.00,48.948
1155.00,48.965
1156.00,48.951
1157.00,48.959
1158.00,48.962
1159.00,48.943
1160.00,48.949
1161.00,48.954
1162.00,48.942
1163.00,48.939
1164.00,48.950
1165.00,48.937
1166.00,48.926
1167.00,48.919
1168.00,48.931
1169.00,48.923
1170.00,48.952
1171.00,48.945
1172.00,48.942
1173.00,48.932
1174.00,48.946
1175.00,48.948
1176.00,48.931
1177.00,48.923
1178.00,48.941
1179.00,48.943
1180.00,48.928
1181.00,48.940
1182.00,48.918
1183.00,48.922
1184.00,48.917
1185.00,48.921
1186.00,48.914
1187.00,48.912
1188.00,48.910
1189.00,48.915
1190.00,48.909
1191.00,48.910
1192.00,48.924
1193.00,48.918
1194.00,48.913
1195.00,48.885
1196.00,48.919
1197.00,48.927
1198.00,48.899
1199.00,48.902
1200.00,48.920
1201.00,48.939
1202.00,48.918
1203.00,48.910
1204.00,48.908
1205.00,48.926
1206.00,48.917
1207.00,48.925
1208.00,48.910
1209.00,48.916
1210.00,48.922
1211.00,48.917
1212.00,48.919
1213.00,48.885
1214.00,48.910
1215.00,48.885
1216.00,48.898
1217.00,48.915
1218.00,48.896
1219.00,48.925
1220.00,48.907
1221.00,48.924
1222.00,48.905
1223.00,48.911
1224.00,48.913
1225.00,48.893
1226.00,48.907
1227.00,48.899
1228.00,48.927
1229.00,48.916
1230.00,48.951
1231.00,48.946
1232.00,48.967
1233.00,48.980
1234.00,48.976
1235.00,48.986
1236.00,48.982
1237.00,48.989
1238.00,48.985
1239.00,48.995
1240.00,48.981
1241.00,48.987
1242.00,48.971
1243.00,48.997
1244.00,48.985
1245.00,49.022
1246.00,49.038
1247.00,49.027
1248.00,49.026
1249.00,49.042
1250.00,49.063
1251.00,49.050
1252.00,49.076
1253.00,49.051
1254.00,49.076
1255.00,49.071
1256.00,49.028
1257.00,49.028
1258.00,49.056
1259.00,49.071
1260.00,49.076
1261.00,49.081
1262.00,49.095
1263.00,49.078
1264.00,49.077
1265.00,49.087
1266.00,49.088
1267.00,49.107
1268.00,49.121
1269.00,49.107
1270.00,49.118
1271.00,49.119
1272.00,49.126
1273.00,49.142
1274.00,49.141
1275.00,49.149
1276.00,49.152
1277.00,49.163
1278.00,49.168
1279.00,49.160
1280.00,49.165
1281.00,49.185
1282.00,49.199
1283.00,49.190
1284.00,49.192
1285.00,49.193
1286.00,49.194
1287.00,49.192
1288.00,49.199
1289.00,49.188
1290.00,49.234
1291.00,49.223
1292.00,49.229
1293.00,49.229
1294.00,49.245
1295.00,49.258
1296.00,49.259
1297.00,49.266
1298.00,49.301
1299.00,49.282
1300.00,49.298
1301.00,49.302
1302.00,49.321
1303.00,49.309
1304.00,49.304
1305.00,49.335
1306.00,49.342
1307.00,49.353
1308.00,49.344
1309.00,49.353
1310.00,49.353
1311.00,49.345
1312.00,49.357
1313.00,49.362
1314.00,49.375
1315.00,49.401
1316.00,49.393
1317.00,49.422
1318.00,49.419
1319.00,49.418
1320.00,49.428
1321.00,49.617
1322.00,49.591
1323.00,49.573
1324.00,49.571
1325.00,49.581
1326.00,49.595
1327.00,49.568
1328.00,49.580
1329.00,49.585
1330.00,49.586
1331.00,49.584
1332.00,49.583
1333.00,49.605
1334.00,49.614
1335.00,49.638
1336.00,49.681
1337.00,49.706
1338.00,49.762
1339.00,49.820
1340.00,49.864
1341.00,49.926
1342.00,49.997
1343.00,50.044
1344.00,50.110
1345.00,50.153
1346.00,50.201
1347.00,50.214
1348.00,50.241
1349.00,50.267
1350.00,50.268
1351.00,50.298
1352.00,50.318
1353.00,50.309
1354.00,50.306
1355.00,50.256
1356.00,50.324
1357.00,50.313
1358.00,50.387
1359.00,50.419
1360.00,50.376
1361.00,50.337
1362.00,50.269
1363.00,50.462
1364.00,50.443
1365.00,50.389
1366.00,50.475
1367.00,50.395
1368.00,50.314
1369.00,50.422
1370.00,50.383
1371.00,50.297
1372.00,50.358
1373.00,50.373
1374.00,50.372
1375.00,50.357
1376.00,50.346
1377.00,50.364
1378.00,50.398
1379.00,50.383
1380.00,50.373
1381.00,50.357
1382.00,50.356
1383.00,50.404
1384.00,50.325
1385.00,50.323
1386.00,50.372
1387.00,50.381
1388.00,50.323
1389.00,50.329
1390.00,50.381
1391.00,50.353
1392.00,50.346
1393.00,50.314
1394.00,50.379
1395.00,50.336
1396.00,50.287
1397.00,50.296
1398.00,50.405
1399.00,50.388
1400.00,50.305
1401.00,50.323
1402.00,50.426
1403.00,50.368
1404.00,50.372
1405.00,50.420
1406.00,50.404
1407.00,50.418
1408.00,50.445
1409.00,50.387
1410.00,50.435
1411.00,50.443
1412.00,50.518
1413.00,50.406
1414.00,50.446
1415.00,50.443
1416.00,50.495
1417.00,50.528
1418.00,50.466
1419.00,50.490
1420.00,50.512
1421.00,50.603
1422.00,50.572
1423.00,50.582
1424.00,50.604
1425.00,50.623
1426.00,50.622
1427.00,50.673
1428.00,50.671
1429.00,50.642
1430.00,50.671
1431.00,50.704
1432.00,50.709
1433.00,50.729
1434.00,50.713
1435.00,50.782
1436.00,50.783
1437.00,50.771
1438.00,50.812
1439.00,50.835
1440.00,50.855
1441.00,50.849
1442.00,50.872
1443.00,50.921
1444.00,50.979
1445.00,50.923
1446.00,50.932
1447.00,50.961
1448.00,51.000
1449.00,50.986
1450.00,50.990
1451.00,51.027
1452.00,51.061
1453.00,51.053
1454.00,51.084
1455.00,51.109
1456.00,51.128
1457.00,51.131
1458.00,51.162
1459.00,51.159
1460.00,51.185
1461.00,51.201
1462.00,51.244
1463.00,51.236
1464.00,51.241
1465.00,51.268
1466.00,51.265
1467.00,51.279
1468.00,51.373
1469.00,51.332
1470.00,51.340
1471.00,51.359
1472.00,51.377
1473.00,51.384
1474.00,51.412
1475.00,51.434
1476.00,51.461
1477.00,51.437
1478.00,51.467
1479.00,51.479
1480.00,51.501
1481.00,51.485
1482.00,51.532
1483.00,51.547
1484.00,51.567
1485.00,51.576
1486.00,51.583
1487.00,51.623
1488.00,51.631
1489.00,51.617
1490.00,51.647
1491.00,51.660
1492.00,51.684
1493.00,51.652
1494.00,51.694
1495.00,51.693
1496.00,51.709
1497.00,51.697
1498.00,51.719
1499.00,51.730
1500.00,51.748
1501.00, 
1502.00, 
1503.00, 
1504.00, 
1505.00, 
1506.00, 
1507.00, 
1508.00, 
1509.00, 
1510.00, 
1511.00, 
1512.00, 
1513.00, 
1514.00, 
1515.00, 
1516.00, 
1517.00, 
1518.00, 
1519.00, 
1520.00, 
1521.00, 
1522.00, 
1523.00, 
1524.00, 
1525.00, 
1526.00, 
1527.00, 
1528.00, 
1529.00, 
1530.00, 
1531.00, 
1532.00, 
1533.00, 
1534.00, 
1535.00, 
1536.00, 
1537.00, 
1538.00, 
1539.00, 
1540.00, 
1541.00, 
1542.00, 
1543.00, 
1544.00, 
1545.00, 
1546.00, 
1547.00, 
1548.00, 
1549.00, 
1550.00, 
1551.00, 
1552.00, 
1553.00, 
1554.00, 
1555.00, 
1556.00, 
1557.00, 
1558.00, 
1559.00, 
1560.00, 
1561.00, 
1562.00, 
1563.00, 
1564.00, 
1565.00, 
1566.00, 
1567.00, 
1568.00, 
1569.00, 
1570.00, 
1571.00, 
1572.00, 
1573.00, 
1574.00, 
1575.00, 
1576.00, 
1577.00, 
1578.00, 
1579.00, 
1580.00, 
1581.00, 
1582.00, 
1583.00, 
1584.00, 
1585.00, 
1586.00, 
1587.00, 
1588.00, 
1589.00, 
1590.00, 
1591.00, 
1592.00, 
1593.00, 
1594.00, 
1595.00, 
1596.00, 
1597.00, 
1598.00, 
1599.00, 
1600.00, 
1601.00, 
1602.00, 
1603.00, 
1604.00, 
1605.00, 
1606.00, 
1607.00, 
1608.00, 
1609.00, 
1610.00, 
1611.00, 
1612.00, 
1613.00, 
1614.00, 
1615.00, 
1616.00, 
1617.00, 
1618.00, 
1619.00, 
1620.00, 
1621.00, 
1622.00, 
1623.00, 
1624.00, 
1625.00, 
1626.00, 
1627.00, 
1628.00, 
1629.00, 
1630.00, 
1631.00, 
1632.00, 
1633.00, 
1634.00, 
1635.00, 
1636.00, 
1637.00, 
1638.00, 
1639.00, 
1640.00, 
1641.00, 
1642.00, 
1643.00, 
1644.00, 
1645.00, 
1646.00, 
1647.00, 
1648.00, 
1649.00, 
1650.00, 
1651.00, 
1652.00, 
1653.00, 
1654.00, 
1655.00, 
1656.00, 
1657.00, 
1658.00, 
1659.00, 
1660.00, 
1661.00, 
1662.00, 
1663.00, 
1664.00, 
1665.00, 
1666.00, 
1667.00, 
1668.00, 
1669.00, 
1670.00, 
1671.00, 
1672.00, 
1673.00, 
1674.00, 
1675.00, 
1676.00, 
1677.00, 
1678.00, 
1679.00, 
1680.00, 
1681.00, 
1682.00, 
1683.00, 
1684.00, 
1685.00, 
1686.00, 
1687.00, 
1688.00, 
1689.00, 
1690.00, 
1691.00, 
1692.00, 
1693.00, 
1694.00, 
1695.00, 
1696.00, 
1697.00, 
1698.00, 
1699.00, 
1700.00, 
1701.00, 
1702.00, 
1703.00, 
1704.00, 
1705.00, 
1706.00, 
1707.00, 
1708.00, 
1709.00, 
1710.00, 
1711.00, 
1712.00, 
1713.00, 
1714.00, 
1715.00, 
1716.00, 
1717.00, 
1718.00, 
1719.00, 
1720.00, 
1721.00, 
1722.00, 
1723.00, 
1724.00, 
1725.00, 
1726.00, 
1727.00, 
1728.00, 
1729.00, 
1730.00, 
1731.00, 
1732.00, 
1733.00, 
1734.00, 
1735.00, 
1736.00, 
1737.00, 
1738.00, 
1739.00, 
1740.00, 
1741.00, 
1742.00, 
1743.00, 
1744.00, 
1745.00, 
1746.00, 
1747.00, 
1748.00, 
1749.00, 
1750.00, 
1751.00, 
1752.00, 
1753.00, 
1754.00, 
1755.00, 
1756.00, 
1757.00, 
1758.00, 
1759.00, 
1760.00, 
1761.00, 
1762.00, 
1763.00, 
1764.00, 
1765.00, 
1766.00, 
1767.00, 
1768.00, 
1769.00, 
1770.00, 
1771.00, 
1772.00, 
1773.00, 
1774.00, 
1775.00, 
1776.00, 
1777.00, 
1778.00, 
1779.00, 
1780.00, 
1781.00, 
1782.00, 
1783.00, 
1784.00, 
1785.00, 
1786.00, 
1787.00, 
1788.00, 
1789.00, 
1790.00, 
1791.00, 
1792.00, 
1793.00, 
1794.00, 
1795.00, 
1796.00, 
1797.00, 
1798.00, 
1799.00, 
1800.00, 
1801.00, 
1802.00, 
1803.00, 
1804.00, 
1805.00, 
1806.00, 
1807.00, 
1808.00, 
1809.00, 
1810.00, 
1811.00, 
1812.00, 
1813.00, 
1814.00, 
1815.00, 
1816.00, 
1817.00, 
1818.00, 
1819.00, 
1820.00, 
1821.00, 
1822.00, 
1823.00, 
1824.00, 
1825.00, 
1826.00, 
1827.00, 
1828.00, 
1829.00, 
1830.00, 
1831.00, 
1832.00, 
1833.00, 
1834.00, 
1835.00, 
1836.00, 
1837.00, 
1838.00, 
1839.00, 
1840.00, 
1841.00, 
1842.00, 
1843.00, 
1844.00, 
1845.00, 
1846.00, 
1847.00, 
1848.00, 
1849.00, 
1850.00, 
1851.00, 
1852.00, 
1853.00, 
1854.00, 
1855.00, 
1856.00, 
1857.00, 
1858.00, 
1859.00, 
1860.00, 
1861.00, 
1862.00, 
1863.00, 
1864.00, 
1865.00, 
1866.00, 
1867.00, 
1868.00, 
1869.00, 
1870.00, 
1871.00, 
1872.00, 
1873.00, 
1874.00, 
1875.00, 
1876.00, 
1877.00, 
1878.00, 
1879.00, 
1880.00, 
1881.00, 
1882.00, 
1883.00, 
1884.00, 
1885.00, 
1886.00, 
1887.00, 
1888.00, 
1889.00, 
1890.00, 
1891.00, 
1892.00, 
1893.00, 
1894.00, 
1895.00, 
1896.00, 
1897.00, 
1898.00, 
1899.00, 
1900.00, 
1901.00, 
1902.00, 
1903.00, 
1904.00, 
1905.00, 
1906.00, 
1907.00, 
1908.00, 
1909.00, 
1910.00, 
1911.00, 
1912.00, 
1913.00, 
1914.00, 
1915.00, 
1916.00, 
1917.00, 
1918.00, 
1919.00, 
1920.00, 
1921.00, 
1922.00, 
1923.00, 
1924.00, 
1925.00, 
1926.00, 
1927.00, 
1928.00, 
1929.00, 
1930.00, 
1931.00, 
1932.00, 
1933.00, 
1934.00, 
1935.00, 
1936.00, 
1937.00, 
1938.00, 
1939.00, 
1940.00, 
1941.00, 
1942.00, 
1943.00, 
1944.00, 
1945.00, 
1946.00, 
1947.00, 
1948.00, 
1949.00, 
1950.00, 
1951.00, 
1952.00, 
1953.00, 
1954.00, 
1955.00, 
1956.00, 
1957.00, 
1958.00, 
1959.00, 
1960.00, 
1961.00, 
1962.00, 
1963.00, 
1964.00, 
1965.00, 
1966.00, 
1967.00, 
1968.00, 
1969.00, 
1970.00, 
1971.00, 
1972.00, 
1973.00, 
1974.00, 
1975.00, 
1976.00, 
1977.00, 
1978.00, 
1979.00, 
1980.00, 
1981.00, 
1982.00, 
1983.00, 
1984.00, 
1985.00, 
1986.00, 
1987.00, 
1988.00, 
1989.00, 
1990.00, 
1991.00, 
1992.00, 
1993.00, 
1994.00, 
1995.00, 
1996.00, 
1997.00, 
1998.00, 
1999.00, 
2000.00, 
2001.00, 
2002.00, 
2003.00, 
2004.00, 
2005.00, 
2006.00, 
2007.00, 
2008.00, 
2009.00, 
2010.00, 
2011.00, 
2012.00, 
2013.00, 
2014.00, 
2015.00, 
2016.00, 
2017.00, 
2018.00, 
2019.00, 
2020.00, 
2021.00, 
2022.00, 
2023.00, 
2024.00, 
2025.00, 
2026.00, 
2027.00, 
2028.00, 
2029.00, 
2030.00, 
2031.00, 
2032.00, 
2033.00, 
2034.00, 
2035.00, 
2036.00, 
2037.00, 
2038.00, 
2039.00, 
2040.00, 
2041.00, 
2042.00, 
2043.00, 
2044.00, 
2045.00, 
2046.00, 
2047.00, 
2048.00, 
2049.00, 
2050.00, 
2051.00, 
2052.00, 
2053.00, 
2054.00, 
2055.00, 
2056.00, 
2057.00, 
2058.00, 
2059.00, 
2060.00, 
2061.00, 
2062.00, 
2063.00, 
2064.00, 
2065.00, 
2066.00, 
2067.00, 
2068.00, 
2069.00, 
2070.00, 
2071.00, 
2072.00, 
2073.00, 
2074.00, 
2075.00, 
2076.00, 
2077.00, 
2078.00, 
2079.00, 
2080.00, 
2081.00, 
2082.00, 
2083.00, 
2084.00, 
2085.00, 
2086.00, 
2087.00, 
2088.00, 
2089.00, 
2090.00, 
2091.00, 
2092.00, 
2093.00, 
2094.00, 
2095.00, 
2096.00, 
2097.00, 
2098.00, 
2099.00, 
2100.00, 
2101.00, 
2102.00, 
2103.00, 
2104.00, 
2105.00, 
2106.00, 
2107.00, 
2108.00, 
2109.00, 
2110.00, 
2111.00, 
2112.00, 
2113.00, 
2114.00, 
2115.00, 
2116.00, 
2117.00, 
2118.00, 
2119.00, 
2120.00, 
2121.00, 
2122.00, 
2123.00, 
2124.00, 
2125.00, 
2126.00, 
2127.00, 
2128.00, 
2129.00, 
2130.00, 
2131.00, 
2132.00, 
2133.00, 
2134.00, 
2135.00, 
2136.00, 
2137.00, 
2138.00, 
2139.00, 
2140.00, 
2141.00, 
2142.00, 
2143.00, 
2144.00, 
2145.00, 
2146.00, 
2147.00, 
2148.00, 
2149.00, 
2150.00, 
2151.00, 
2152.00, 
2153.00, 
2154.00, 
2155.00, 
2156.00, 
2157.00, 
2158.00, 
2159.00, 
2160.00, 
2161.00, 
2162.00, 
2163.00, 
2164.00, 
2165.00, 
2166.00, 
2167.00, 
2168.00, 
2169.00, 
2170.00, 
2171.00, 
2172.00, 
2173.00, 
2174.00, 
2175.00, 
2176.00, 
2177.00, 
2178.00, 
2179.00, 
2180.00, 
2181.00, 
2182.00, 
2183.00, 
2184.00, 
2185.00, 
2186.00, 
2187.00, 
2188.00, 
2189.00, 
2190.00, 
2191.00, 
2192.00, 
2193.00, 
2194.00, 
2195.00, 
2196.00, 
2197.00, 
2198.00, 
2199.00, 
2200.00, 
2201.00, 
2202.00, 
2203.00, 
2204.00, 
2205.00, 
2206.00, 
2207.00, 
2208.00, 
2209.00, 
2210.00, 
2211.00, 
2212.00, 
2213.00, 
2214.00, 
2215.00, 
2216.00, 
2217.00, 
2218.00, 
2219.00, 
2220.00, 
2221.00, 
2222.00, 
2223.00, 
2224.00, 
2225.00, 
2226.00, 
2227.00, 
2228.00, 
2229.00, 
2230.00, 
2231.00, 
2232.00, 
2233.00, 
2234.00, 
2235.00, 
2236.00, 
2237.00, 
2238.00, 
2239.00, 
2240.00, 
2241.00, 
2242.00, 
2243.00, 
2244.00, 
2245.00, 
2246.00, 
2247.00, 
2248.00, 
2249.00, 
2250.00, 
2251.00, 
2252.00, 
2253.00, 
2254.00, 
2255.00, 
2256.00, 
2257.00, 
2258.00, 
2259.00, 
2260.00, 
2261.00, 
2262.00, 
2263.00, 
2264.00, 
2265.00, 
2266.00, 
2267.00, 
2268.00, 
2269.00, 
2270.00, 
2271.00, 
2272.00, 
2273.00, 
2274.00, 
2275.00, 
2276.00, 
2277.00, 
2278.00, 
2279.00, 
2280.00, 
2281.00, 
2282.00, 
2283.00, 
2284.00, 
2285.00, 
2286.00, 
2287.00, 
2288.00, 
2289.00, 
2290.00, 
2291.00, 
2292.00, 
2293.00, 
2294.00, 
2295.00, 
2296.00, 
2297.00, 
2298.00, 
2299.00, 
2300.00, 
2301.00, 
2302.00, 
2303.00, 
2304.00, 
2305.00, 
2306.00, 
2307.00, 
2308.00, 
2309.00, 
2310.00, 
2311.00, 
2312.00, 
2313.00, 
2314.00, 
2315.00, 
2316.00, 
2317.00, 
2318.00, 
2319.00, 
2320.00, 
2321.00, 
2322.00, 
2323.00, 
2324.00, 
2325.00, 
2326.00, 
2327.00, 
2328.00, 
2329.00, 
2330.00, 
2331.00, 
2332.00, 
2333.00, 
2334.00, 
2335.00, 
2336.00, 
2337.00, 
2338.00, 
2339.00, 
2340.00, 
2341.00, 
2342.00, 
2343.00, 
2344.00, 
2345.00, 
2346.00, 
2347.00, 
2348.00, 
2349.00, 
2350.00, 
2351.00, 
2352.00, 
2353.00, 
2354.00, 
2355.00, 
2356.00, 
2357.00, 
2358.00, 
2359.00, 
2360.00, 
2361.00, 
2362.00, 
2363.00, 
2364.00, 
2365.00, 
2366.00, 
2367.00, 
2368.00, 
2369.00, 
2370.00, 
2371.00, 
2372.00, 
2373.00, 
2374.00, 
2375.00, 
2376.00, 
2377.00, 
2378.00, 
2379.00, 
2380.00, 
2381.00, 
2382.00, 
2383.00, 
2384.00, 
2385.00, 
2386.00, 
2387.00, 
2388.00, 
2389.00, 
2390.00, 
2391.00, 
2392.00, 
2393.00, 
2394.00, 
2395.00, 
2396.00, 
2397.00, 
2398.00, 
2399.00, 
2400.00, 
2401.00, 
2402.00, 
2403.00, 
2404.00, 
2405.00, 
2406.00, 
2407.00, 
2408.00, 
2409.00, 
2410.00, 
2411.00, 
2412.00, 
2413.00, 
2414.00, 
2415.00, 
2416.00, 
2417.00, 
2418.00, 
2419.00, 
2420.00, 
2421.00, 
2422.00, 
2423.00, 
2424.00, 
2425.00, 
2426.00, 
2427.00, 
2428.00, 
2429.00, 
2430.00, 
2431.00, 
2432.00, 
2433.00, 
2434.00, 
2435.00, 
2436.00, 
2437.00, 
2438.00, 
2439.00, 
2440.00, 
2441.00, 
2442.00, 
2443.00, 
2444.00, 
2445.00, 
2446.00, 
2447.00, 
2448.00, 
2449.00, 
2450.00, 
2451.00, 
2452.00, 
2453.00, 
2454.00, 
2455.00, 
2456.00, 
2457.00, 
2458.00, 
2459.00, 
2460.00, 
2461.00, 
2462.00, 
2463.00, 
2464.00, 
2465.00, 
2466.00, 
2467.00, 
2468.00, 
2469.00, 
2470.00, 
2471.00, 
2472.00, 
2473.00, 
2474.00, 
2475.00, 
2476.00, 
2477.00, 
2478.00, 
2479.00, 
2480.00, 
2481.00, 
2482.00, 
2483.00, 
2484.00, 
2485.00, 
2486.00, 
2487.00, 
2488.00, 
2489.00, 
2490.00, 
2491.00, 
2492.00, 
2493.00, 
2494.00, 
2495.00, 
2496.00, 
2497.00, 
2498.00, 
2499.00, 
2500.00, 
2501.00, 
2502.00, 
2503.00, 
2504.00, 
2505.00, 
2506.00, 
2507.00, 
2508.00, 
2509.00, 
2510.00, 
2511.00, 
2512.00, 
2513.00, 
2514.00, 
2515.00, 
2516.00, 
2517.00, 
2518.00, 
2519.00, 
2520.00, 
2521.00, 
2522.00, 
2523.00, 
2524.00, 
2525.00, 
2526.00, 
2527.00, 
2528.00, 
2529.00, 
2530.00, 
2531.00, 
2532.00, 
2533.00, 
2534.00, 
2535.00, 
2536.00, 
2537.00, 
2538.00, 
2539.00, 
2540.00, 
2541.00, 
2542.00, 
2543.00, 
2544.00, 
2545.00, 
2546.00, 
2547.00, 
2548.00, 
2549.00, 
2550.00, 
2551.00, 
2552.00, 
2553.00, 
2554.00, 
2555.00, 
2556.00, 
2557.00, 
2558.00, 
2559.00, 
2560.00, 
2561.00, 
2562.00, 
2563.00, 
2564.00, 
2565.00, 
2566.00, 
2567.00, 
2568.00, 
2569.00, 
2570.00, 
2571.00, 
2572.00, 
2573.00, 
2574.00, 
2575.00, 
2576.00, 
2577.00, 
2578.00, 
2579.00, 
2580.00, 
2581.00, 
2582.00, 
2583.00, 
2584.00, 
2585.00, 
2586.00, 
2587.00, 
2588.00, 
2589.00, 
2590.00, 
2591.00, 
2592.00, 
2593.00, 
2594.00, 
2595.00, 
2596.00, 
2597.00, 
2598.00, 
2599.00, 
2600.00, 
