"1cP4 - RawData"
"Wavelength nm.","T%"
200.00,-0.000
201.00,-0.001
202.00,0.001
203.00,0.001
204.00,0.000
205.00,0.003
206.00,-0.000
207.00,0.001
208.00,0.002
209.00,0.001
210.00,0.001
211.00,0.000
212.00,0.001
213.00,0.002
214.00,0.002
215.00,-0.000
216.00,0.000
217.00,0.002
218.00,0.001
219.00,0.001
220.00,0.001
221.00,0.002
222.00,0.001
223.00,0.001
224.00,0.001
225.00,0.001
226.00,0.002
227.00,0.001
228.00,0.000
229.00,0.002
230.00,0.002
231.00,0.001
232.00,0.002
233.00,0.001
234.00,0.002
235.00,0.001
236.00,0.001
237.00,0.000
238.00,0.002
239.00,-0.000
240.00,0.001
241.00,0.001
242.00,0.000
243.00,0.001
244.00,0.001
245.00,-0.000
246.00,-0.000
247.00,-0.002
248.00,0.000
249.00,-0.001
250.00,0.002
251.00,-0.000
252.00,-0.000
253.00,0.001
254.00,0.003
255.00,0.001
256.00,-0.002
257.00,0.002
258.00,0.001
259.00,-0.001
260.00,-0.001
261.00,0.001
262.00,0.001
263.00,-0.001
264.00,0.002
265.00,-0.003
266.00,-0.002
267.00,-0.001
268.00,-0.000
269.00,0.000
270.00,0.000
271.00,0.000
272.00,0.000
273.00,0.001
274.00,-0.000
275.00,0.000
276.00,-0.000
277.00,-0.000
278.00,0.000
279.00,-0.002
280.00,0.000
281.00,0.001
282.00,0.001
283.00,-0.000
284.00,-0.000
285.00,0.000
286.00,-0.000
287.00,0.000
288.00,0.000
289.00,0.001
290.00,0.001
291.00,0.001
292.00,-0.001
293.00,0.000
294.00,0.000
295.00,0.002
296.00,-0.000
297.00,-0.000
298.00,-0.000
299.00,0.001
300.00,0.002
301.00,0.000
302.00,-0.000
303.00,0.000
304.00,0.001
305.00,0.001
306.00,0.003
307.00,0.004
308.00,0.005
309.00,0.013
310.00,0.019
311.00,0.027
312.00,0.043
313.00,0.072
314.00,0.101
315.00,0.151
316.00,0.219
317.00,0.311
318.00,0.425
319.00,0.577
320.00,0.758
321.00,0.980
322.00,1.252
323.00,1.580
324.00,1.942
325.00,2.340
326.00,2.766
327.00,3.284
328.00,3.841
329.00,4.422
330.00,5.082
331.00,5.739
332.00,6.437
333.00,7.238
334.00,7.943
335.00,8.736
336.00,9.536
337.00,10.346
338.00,11.151
339.00,11.880
340.00,12.673
341.00,13.449
342.00,14.164
343.00,14.874
344.00,15.540
345.00,16.292
346.00,16.869
347.00,17.460
348.00,18.045
349.00,18.611
350.00,19.109
351.00,19.608
352.00,20.037
353.00,20.456
354.00,20.847
355.00,21.210
356.00,21.596
357.00,21.848
358.00,22.176
359.00,22.535
360.00,22.790
361.00,23.058
362.00,23.238
363.00,23.430
364.00,23.498
365.00,23.710
366.00,23.854
367.00,23.927
368.00,24.051
369.00,24.119
370.00,24.201
371.00,24.246
372.00,24.199
373.00,24.174
374.00,24.218
375.00,24.172
376.00,24.084
377.00,24.028
378.00,23.905
379.00,23.805
380.00,23.792
381.00,23.786
382.00,23.810
383.00,23.859
384.00,23.914
385.00,23.975
386.00,24.003
387.00,24.145
388.00,24.235
389.00,24.258
390.00,24.359
391.00,24.429
392.00,24.471
393.00,24.472
394.00,24.511
395.00,24.596
396.00,24.566
397.00,24.590
398.00,24.633
399.00,24.600
400.00,24.617
401.00,24.630
402.00,24.654
403.00,24.601
404.00,24.572
405.00,24.636
406.00,24.569
407.00,24.586
408.00,24.597
409.00,24.508
410.00,24.449
411.00,24.431
412.00,24.413
413.00,24.472
414.00,24.384
415.00,24.420
416.00,24.497
417.00,24.465
418.00,24.475
419.00,24.561
420.00,24.630
421.00,24.617
422.00,24.646
423.00,24.668
424.00,24.731
425.00,24.783
426.00,24.763
427.00,24.877
428.00,24.896
429.00,24.915
430.00,24.967
431.00,25.041
432.00,25.067
433.00,25.097
434.00,25.173
435.00,25.234
436.00,25.303
437.00,25.352
438.00,25.430
439.00,25.486
440.00,25.561
441.00,25.656
442.00,25.749
443.00,25.822
444.00,25.951
445.00,25.990
446.00,26.108
447.00,26.156
448.00,26.294
449.00,26.353
450.00,26.501
451.00,26.598
452.00,26.714
453.00,26.864
454.00,26.928
455.00,27.011
456.00,27.179
457.00,27.300
458.00,27.376
459.00,27.533
460.00,27.687
461.00,27.784
462.00,27.902
463.00,27.984
464.00,28.190
465.00,28.257
466.00,28.435
467.00,28.548
468.00,28.651
469.00,28.763
470.00,28.812
471.00,28.901
472.00,29.082
473.00,29.127
474.00,29.245
475.00,29.373
476.00,29.480
477.00,29.611
478.00,29.662
479.00,29.934
480.00,30.004
481.00,30.125
482.00,30.280
483.00,30.418
484.00,30.595
485.00,30.759
486.00,30.897
487.00,31.038
488.00,31.159
489.00,31.349
490.00,31.491
491.00,31.632
492.00,31.834
493.00,32.000
494.00,31.953
495.00,32.112
496.00,32.221
497.00,32.317
498.00,32.468
499.00,32.621
500.00,32.766
501.00,32.879
502.00,33.012
503.00,33.101
504.00,33.135
505.00,33.290
506.00,33.413
507.00,33.478
508.00,33.645
509.00,33.773
510.00,33.892
511.00,33.957
512.00,34.119
513.00,34.307
514.00,34.418
515.00,34.517
516.00,34.613
517.00,34.690
518.00,34.846
519.00,34.880
520.00,34.883
521.00,34.996
522.00,35.148
523.00,35.174
524.00,35.277
525.00,35.364
526.00,35.470
527.00,35.484
528.00,35.538
529.00,35.771
530.00,35.898
531.00,35.964
532.00,36.055
533.00,36.158
534.00,36.278
535.00,36.337
536.00,36.413
537.00,36.486
538.00,36.546
539.00,36.573
540.00,36.675
541.00,36.711
542.00,36.753
543.00,36.810
544.00,36.908
545.00,36.933
546.00,36.976
547.00,37.102
548.00,37.152
549.00,37.229
550.00,37.333
551.00,37.400
552.00,37.473
553.00,37.501
554.00,37.542
555.00,37.612
556.00,37.722
557.00,37.694
558.00,37.712
559.00,37.842
560.00,37.907
561.00,38.013
562.00,38.092
563.00,38.114
564.00,38.129
565.00,38.148
566.00,38.180
567.00,38.212
568.00,38.250
569.00,38.391
570.00,38.374
571.00,38.404
572.00,38.410
573.00,38.426
574.00,38.462
575.00,38.446
576.00,38.452
577.00,38.487
578.00,38.600
579.00,38.648
580.00,38.664
581.00,38.834
582.00,38.869
583.00,38.918
584.00,39.026
585.00,39.045
586.00,39.041
587.00,39.148
588.00,39.153
589.00,39.112
590.00,39.262
591.00,39.254
592.00,39.193
593.00,39.224
594.00,39.322
595.00,39.425
596.00,39.460
597.00,39.523
598.00,39.610
599.00,39.576
600.00,39.654
601.00,39.636
602.00,39.667
603.00,39.709
604.00,39.798
605.00,39.839
606.00,39.832
607.00,39.864
608.00,40.013
609.00,40.098
610.00,39.920
611.00,40.043
612.00,40.100
613.00,40.101
614.00,40.132
615.00,40.267
616.00,40.346
617.00,40.387
618.00,40.285
619.00,40.388
620.00,40.428
621.00,40.481
622.00,40.595
623.00,40.629
624.00,40.670
625.00,40.720
626.00,40.717
627.00,40.842
628.00,40.811
629.00,40.895
630.00,40.875
631.00,40.925
632.00,41.002
633.00,41.189
634.00,41.215
635.00,41.198
636.00,41.199
637.00,41.494
638.00,41.534
639.00,41.563
640.00,41.640
641.00,41.579
642.00,41.704
643.00,41.762
644.00,41.866
645.00,41.937
646.00,42.023
647.00,42.108
648.00,42.133
649.00,42.125
650.00,42.254
651.00,42.417
652.00,42.465
653.00,42.411
654.00,42.459
655.00,42.721
656.00,42.957
657.00,42.716
658.00,42.911
659.00,42.911
660.00,43.161
661.00,43.052
662.00,43.075
663.00,43.189
664.00,43.532
665.00,43.555
666.00,43.513
667.00,43.631
668.00,43.445
669.00,43.772
670.00,44.085
671.00,43.966
672.00,43.945
673.00,44.057
674.00,44.187
675.00,44.105
676.00,44.403
677.00,44.650
678.00,44.404
679.00,44.582
680.00,44.667
681.00,44.783
682.00,44.768
683.00,44.767
684.00,45.010
685.00,45.046
686.00,44.977
687.00,45.104
688.00,45.099
689.00,45.159
690.00,45.430
691.00,45.675
692.00,45.460
693.00,45.538
694.00,45.701
695.00,45.848
696.00,45.830
697.00,45.837
698.00,45.866
699.00,46.169
700.00,46.251
701.00,46.096
702.00,46.307
703.00,46.494
704.00,46.400
705.00,46.403
706.00,46.460
707.00,46.309
708.00,46.449
709.00,47.068
710.00,47.193
711.00,46.772
712.00,46.742
713.00,46.852
714.00,46.970
715.00,46.950
716.00,47.020
717.00,47.174
718.00,47.312
719.00,47.198
720.00,47.354
721.00,51.858
722.00,51.800
723.00,51.725
724.00,51.881
725.00,51.779
726.00,51.878
727.00,51.814
728.00,51.859
729.00,51.835
730.00,51.958
731.00,51.942
732.00,51.914
733.00,52.023
734.00,51.954
735.00,52.070
736.00,51.996
737.00,51.981
738.00,52.218
739.00,52.090
740.00,52.139
741.00,52.165
742.00,52.159
743.00,52.161
744.00,52.157
745.00,52.148
746.00,52.196
747.00,52.195
748.00,52.129
749.00,52.099
750.00,52.111
751.00,52.083
752.00,52.135
753.00,52.059
754.00,52.175
755.00,52.144
756.00,52.139
757.00,52.136
758.00,52.144
759.00,52.073
760.00,52.086
761.00,52.182
762.00,52.105
763.00,52.236
764.00,52.116
765.00,52.115
766.00,52.180
767.00,52.138
768.00,52.134
769.00,52.139
770.00,52.140
771.00,52.150
772.00,52.189
773.00,52.140
774.00,52.172
775.00,52.251
776.00,52.147
777.00,52.176
778.00,52.219
779.00,52.254
780.00,52.111
781.00,52.110
782.00,52.063
783.00,52.087
784.00,52.095
785.00,52.078
786.00,52.129
787.00,52.109
788.00,52.080
789.00,52.058
790.00,51.987
791.00,52.040
792.00,51.923
793.00,51.941
794.00,51.951
795.00,51.952
796.00,51.983
797.00,51.818
798.00,51.967
799.00,51.858
800.00,51.794
801.00,51.875
802.00,51.836
803.00,51.819
804.00,51.753
805.00,51.809
806.00,51.718
807.00,51.720
808.00,51.766
809.00,51.679
810.00,51.689
811.00,51.725
812.00,51.753
813.00,51.527
814.00,51.603
815.00,51.550
816.00,51.588
817.00,51.620
818.00,51.488
819.00,51.532
820.00,51.424
821.00,51.521
822.00,51.513
823.00,51.445
824.00,51.505
825.00,51.328
826.00,51.329
827.00,51.455
828.00,51.428
829.00,51.323
830.00,51.324
831.00,53.673
832.00,53.642
833.00,53.604
834.00,53.599
835.00,53.556
836.00,53.568
837.00,53.529
838.00,53.464
839.00,53.589
840.00,53.453
841.00,53.460
842.00,53.416
843.00,53.422
844.00,53.388
845.00,53.349
846.00,53.361
847.00,53.337
848.00,53.279
849.00,53.267
850.00,53.231
851.00,53.197
852.00,53.181
853.00,53.279
854.00,53.115
855.00,53.055
856.00,53.062
857.00,53.069
858.00,53.009
859.00,52.987
860.00,53.005
861.00,52.979
862.00,52.896
863.00,52.914
864.00,52.871
865.00,52.909
866.00,52.864
867.00,52.867
868.00,53.032
869.00,52.863
870.00,52.850
871.00,52.842
872.00,52.791
873.00,52.840
874.00,52.740
875.00,52.758
876.00,52.794
877.00,52.769
878.00,52.721
879.00,52.732
880.00,52.721
881.00,52.693
882.00,52.694
883.00,52.751
884.00,52.600
885.00,52.615
886.00,52.610
887.00,52.572
888.00,52.557
889.00,52.547
890.00,52.554
891.00,52.502
892.00,52.444
893.00,52.570
894.00,52.463
895.00,52.393
896.00,52.374
897.00,52.366
898.00,52.343
899.00,52.340
900.00,52.302
901.00,52.336
902.00,52.359
903.00,52.319
904.00,52.273
905.00,52.284
906.00,52.237
907.00,52.238
908.00,52.170
909.00,52.188
910.00,52.143
911.00,52.119
912.00,52.118
913.00,52.084
914.00,52.081
915.00,52.065
916.00,52.023
917.00,52.008
918.00,51.988
919.00,51.972
920.00,51.917
921.00,51.950
922.00,51.881
923.00,51.930
924.00,51.875
925.00,51.870
926.00,51.861
927.00,51.811
928.00,51.775
929.00,51.806
930.00,51.779
931.00,51.750
932.00,51.704
933.00,51.717
934.00,51.679
935.00,51.666
936.00,51.632
937.00,51.594
938.00,51.602
939.00,51.626
940.00,51.571
941.00,51.552
942.00,51.533
943.00,51.516
944.00,51.493
945.00,51.497
946.00,51.485
947.00,51.435
948.00,51.427
949.00,51.397
950.00,51.387
951.00,51.362
952.00,51.342
953.00,51.296
954.00,51.291
955.00,51.216
956.00,51.213
957.00,51.187
958.00,51.214
959.00,51.094
960.00,51.148
961.00,51.138
962.00,51.135
963.00,51.103
964.00,51.095
965.00,51.100
966.00,51.076
967.00,51.061
968.00,51.037
969.00,51.078
970.00,51.036
971.00,51.035
972.00,51.006
973.00,51.057
974.00,51.067
975.00,51.012
976.00,51.045
977.00,51.028
978.00,51.062
979.00,51.007
980.00,51.040
981.00,51.042
982.00,50.977
983.00,51.009
984.00,51.031
985.00,51.007
986.00,50.973
987.00,51.007
988.00,50.972
989.00,50.969
990.00,50.953
991.00,50.950
992.00,50.957
993.00,50.914
994.00,50.923
995.00,50.885
996.00,50.862
997.00,50.901
998.00,50.859
999.00,50.874
1000.00,50.817
1001.00,50.826
1002.00,50.822
1003.00,50.811
1004.00,50.775
1005.00,50.762
1006.00,50.793
1007.00,50.741
1008.00,50.737
1009.00,50.708
1010.00,50.715
1011.00,50.706
1012.00,50.673
1013.00,50.681
1014.00,50.639
1015.00,50.671
1016.00,50.629
1017.00,50.628
1018.00,50.605
1019.00,50.568
1020.00,50.574
1021.00,50.556
1022.00,50.566
1023.00,50.506
1024.00,50.513
1025.00,50.494
1026.00,50.479
1027.00,50.456
1028.00,50.437
1029.00,50.432
1030.00,50.388
1031.00,50.419
1032.00,50.382
1033.00,50.375
1034.00,50.343
1035.00,50.304
1036.00,50.284
1037.00,50.269
1038.00,50.266
1039.00,50.228
1040.00,50.224
1041.00,50.180
1042.00,50.193
1043.00,50.177
1044.00,50.199
1045.00,50.189
1046.00,50.174
1047.00,50.198
1048.00,50.197
1049.00,50.203
1050.00,50.217
1051.00,50.251
1052.00,50.247
1053.00,50.268
1054.00,50.278
1055.00,50.290
1056.00,50.290
1057.00,50.296
1058.00,50.268
1059.00,50.260
1060.00,50.274
1061.00,50.262
1062.00,50.248
1063.00,50.259
1064.00,50.263
1065.00,50.237
1066.00,50.223
1067.00,50.222
1068.00,50.255
1069.00,50.202
1070.00,50.174
1071.00,50.159
1072.00,50.183
1073.00,50.165
1074.00,50.165
1075.00,50.165
1076.00,50.148
1077.00,50.115
1078.00,50.110
1079.00,50.116
1080.00,50.114
1081.00,50.109
1082.00,50.108
1083.00,50.106
1084.00,50.097
1085.00,50.106
1086.00,50.091
1087.00,50.099
1088.00,50.062
1089.00,50.045
1090.00,50.040
1091.00,50.045
1092.00,50.038
1093.00,50.019
1094.00,50.006
1095.00,49.994
1096.00,49.964
1097.00,49.973
1098.00,49.968
1099.00,49.962
1100.00,49.959
1101.00,49.962
1102.00,49.950
1103.00,49.938
1104.00,49.926
1105.00,49.916
1106.00,49.898
1107.00,49.877
1108.00,49.870
1109.00,49.876
1110.00,49.869
1111.00,49.873
1112.00,49.867
1113.00,49.868
1114.00,49.847
1115.00,49.864
1116.00,49.846
1117.00,49.818
1118.00,49.817
1119.00,49.810
1120.00,49.811
1121.00,49.810
1122.00,49.802
1123.00,49.800
1124.00,49.774
1125.00,49.778
1126.00,49.767
1127.00,49.768
1128.00,49.750
1129.00,49.737
1130.00,49.737
1131.00,49.747
1132.00,49.730
1133.00,49.701
1134.00,49.714
1135.00,49.686
1136.00,49.689
1137.00,49.720
1138.00,49.701
1139.00,49.718
1140.00,49.702
1141.00,49.720
1142.00,49.709
1143.00,49.715
1144.00,49.698
1145.00,49.710
1146.00,49.706
1147.00,49.687
1148.00,49.688
1149.00,49.699
1150.00,49.688
1151.00,49.670
1152.00,49.656
1153.00,49.694
1154.00,49.671
1155.00,49.675
1156.00,49.663
1157.00,49.665
1158.00,49.657
1159.00,49.654
1160.00,49.656
1161.00,49.658
1162.00,49.647
1163.00,49.653
1164.00,49.662
1165.00,49.652
1166.00,49.648
1167.00,49.627
1168.00,49.633
1169.00,49.613
1170.00,49.620
1171.00,49.604
1172.00,49.616
1173.00,49.602
1174.00,49.619
1175.00,49.608
1176.00,49.608
1177.00,49.606
1178.00,49.617
1179.00,49.631
1180.00,49.608
1181.00,49.637
1182.00,49.624
1183.00,49.623
1184.00,49.617
1185.00,49.628
1186.00,49.614
1187.00,49.624
1188.00,49.621
1189.00,49.614
1190.00,49.594
1191.00,49.594
1192.00,49.612
1193.00,49.602
1194.00,49.595
1195.00,49.587
1196.00,49.628
1197.00,49.624
1198.00,49.613
1199.00,49.614
1200.00,49.636
1201.00,49.642
1202.00,49.608
1203.00,49.616
1204.00,49.611
1205.00,49.632
1206.00,49.619
1207.00,49.644
1208.00,49.625
1209.00,49.624
1210.00,49.636
1211.00,49.639
1212.00,49.653
1213.00,49.611
1214.00,49.627
1215.00,49.611
1216.00,49.621
1217.00,49.629
1218.00,49.616
1219.00,49.636
1220.00,49.620
1221.00,49.641
1222.00,49.617
1223.00,49.638
1224.00,49.635
1225.00,49.624
1226.00,49.650
1227.00,49.622
1228.00,49.656
1229.00,49.652
1230.00,49.682
1231.00,49.667
1232.00,49.682
1233.00,49.680
1234.00,49.682
1235.00,49.681
1236.00,49.671
1237.00,49.683
1238.00,49.676
1239.00,49.683
1240.00,49.671
1241.00,49.694
1242.00,49.691
1243.00,49.707
1244.00,49.698
1245.00,49.710
1246.00,49.714
1247.00,49.709
1248.00,49.701
1249.00,49.716
1250.00,49.731
1251.00,49.721
1252.00,49.727
1253.00,49.722
1254.00,49.783
1255.00,49.757
1256.00,49.736
1257.00,49.760
1258.00,49.773
1259.00,49.783
1260.00,49.814
1261.00,49.800
1262.00,49.791
1263.00,49.799
1264.00,49.808
1265.00,49.821
1266.00,49.811
1267.00,49.821
1268.00,49.826
1269.00,49.827
1270.00,49.844
1271.00,49.835
1272.00,49.838
1273.00,49.852
1274.00,49.875
1275.00,49.892
1276.00,49.859
1277.00,49.870
1278.00,49.882
1279.00,49.878
1280.00,49.866
1281.00,49.879
1282.00,49.900
1283.00,49.888
1284.00,49.914
1285.00,49.915
1286.00,49.914
1287.00,49.918
1288.00,49.930
1289.00,49.927
1290.00,49.968
1291.00,49.957
1292.00,49.958
1293.00,49.960
1294.00,49.977
1295.00,49.993
1296.00,50.004
1297.00,49.999
1298.00,50.034
1299.00,50.008
1300.00,50.031
1301.00,50.028
1302.00,50.037
1303.00,50.033
1304.00,50.018
1305.00,50.060
1306.00,50.071
1307.00,50.077
1308.00,50.062
1309.00,50.075
1310.00,50.073
1311.00,50.061
1312.00,50.075
1313.00,50.095
1314.00,50.121
1315.00,50.132
1316.00,50.127
1317.00,50.164
1318.00,50.161
1319.00,50.160
1320.00,50.169
1321.00,50.321
1322.00,50.316
1323.00,50.300
1324.00,50.281
1325.00,50.273
1326.00,50.277
1327.00,50.275
1328.00,50.293
1329.00,50.312
1330.00,50.317
1331.00,50.347
1332.00,50.371
1333.00,50.300
1334.00,50.365
1335.00,50.379
1336.00,50.413
1337.00,50.425
1338.00,50.492
1339.00,50.552
1340.00,50.607
1341.00,50.676
1342.00,50.742
1343.00,50.777
1344.00,50.837
1345.00,50.892
1346.00,50.925
1347.00,50.938
1348.00,50.979
1349.00,50.985
1350.00,51.007
1351.00,51.018
1352.00,51.026
1353.00,51.008
1354.00,51.036
1355.00,50.992
1356.00,51.065
1357.00,51.045
1358.00,51.102
1359.00,51.098
1360.00,51.154
1361.00,51.186
1362.00,50.976
1363.00,51.156
1364.00,51.131
1365.00,51.104
1366.00,51.185
1367.00,51.119
1368.00,51.036
1369.00,51.149
1370.00,51.088
1371.00,51.034
1372.00,51.068
1373.00,51.103
1374.00,51.099
1375.00,51.085
1376.00,51.074
1377.00,51.111
1378.00,51.117
1379.00,51.185
1380.00,51.216
1381.00,51.093
1382.00,51.165
1383.00,51.139
1384.00,51.087
1385.00,51.045
1386.00,51.107
1387.00,51.100
1388.00,51.066
1389.00,51.063
1390.00,51.123
1391.00,51.090
1392.00,51.078
1393.00,51.153
1394.00,51.146
1395.00,51.058
1396.00,51.028
1397.00,50.990
1398.00,51.139
1399.00,51.122
1400.00,51.052
1401.00,51.053
1402.00,51.189
1403.00,51.084
1404.00,51.110
1405.00,51.158
1406.00,51.143
1407.00,51.144
1408.00,51.166
1409.00,51.111
1410.00,51.171
1411.00,51.130
1412.00,51.238
1413.00,51.139
1414.00,51.147
1415.00,51.187
1416.00,51.203
1417.00,51.244
1418.00,51.209
1419.00,51.253
1420.00,51.256
1421.00,51.306
1422.00,51.307
1423.00,51.301
1424.00,51.319
1425.00,51.359
1426.00,51.330
1427.00,51.388
1428.00,51.393
1429.00,51.390
1430.00,51.406
1431.00,51.445
1432.00,51.459
1433.00,51.490
1434.00,51.465
1435.00,51.546
1436.00,51.543
1437.00,51.530
1438.00,51.567
1439.00,51.590
1440.00,51.604
1441.00,51.586
1442.00,51.596
1443.00,51.634
1444.00,51.721
1445.00,51.664
1446.00,51.694
1447.00,51.719
1448.00,51.772
1449.00,51.781
1450.00,51.783
1451.00,51.782
1452.00,51.819
1453.00,51.828
1454.00,51.845
1455.00,51.861
1456.00,51.885
1457.00,51.876
1458.00,51.910
1459.00,51.912
1460.00,51.953
1461.00,51.947
1462.00,51.975
1463.00,51.987
1464.00,52.002
1465.00,52.026
1466.00,52.021
1467.00,52.034
1468.00,52.119
1469.00,52.084
1470.00,52.119
1471.00,52.158
1472.00,52.137
1473.00,52.152
1474.00,52.183
1475.00,52.192
1476.00,52.209
1477.00,52.172
1478.00,52.220
1479.00,52.249
1480.00,52.254
1481.00,52.252
1482.00,52.293
1483.00,52.313
1484.00,52.323
1485.00,52.341
1486.00,52.340
1487.00,52.382
1488.00,52.395
1489.00,52.379
1490.00,52.414
1491.00,52.421
1492.00,52.445
1493.00,52.414
1494.00,52.462
1495.00,52.455
1496.00,52.485
1497.00,52.468
1498.00,52.499
1499.00,52.524
1500.00,52.544
1501.00, 
1502.00, 
1503.00, 
1504.00, 
1505.00, 
1506.00, 
1507.00, 
1508.00, 
1509.00, 
1510.00, 
1511.00, 
1512.00, 
1513.00, 
1514.00, 
1515.00, 
1516.00, 
1517.00, 
1518.00, 
1519.00, 
1520.00, 
1521.00, 
1522.00, 
1523.00, 
1524.00, 
1525.00, 
1526.00, 
1527.00, 
1528.00, 
1529.00, 
1530.00, 
1531.00, 
1532.00, 
1533.00, 
1534.00, 
1535.00, 
1536.00, 
1537.00, 
1538.00, 
1539.00, 
1540.00, 
1541.00, 
1542.00, 
1543.00, 
1544.00, 
1545.00, 
1546.00, 
1547.00, 
1548.00, 
1549.00, 
1550.00, 
1551.00, 
1552.00, 
1553.00, 
1554.00, 
1555.00, 
1556.00, 
1557.00, 
1558.00, 
1559.00, 
1560.00, 
1561.00, 
1562.00, 
1563.00, 
1564.00, 
1565.00, 
1566.00, 
1567.00, 
1568.00, 
1569.00, 
1570.00, 
1571.00, 
1572.00, 
1573.00, 
1574.00, 
1575.00, 
1576.00, 
1577.00, 
1578.00, 
1579.00, 
1580.00, 
1581.00, 
1582.00, 
1583.00, 
1584.00, 
1585.00, 
1586.00, 
1587.00, 
1588.00, 
1589.00, 
1590.00, 
1591.00, 
1592.00, 
1593.00, 
1594.00, 
1595.00, 
1596.00, 
1597.00, 
1598.00, 
1599.00, 
1600.00, 
1601.00, 
1602.00, 
1603.00, 
1604.00, 
1605.00, 
1606.00, 
1607.00, 
1608.00, 
1609.00, 
1610.00, 
1611.00, 
1612.00, 
1613.00, 
1614.00, 
1615.00, 
1616.00, 
1617.00, 
1618.00, 
1619.00, 
1620.00, 
1621.00, 
1622.00, 
1623.00, 
1624.00, 
1625.00, 
1626.00, 
1627.00, 
1628.00, 
1629.00, 
1630.00, 
1631.00, 
1632.00, 
1633.00, 
1634.00, 
1635.00, 
1636.00, 
1637.00, 
1638.00, 
1639.00, 
1640.00, 
1641.00, 
1642.00, 
1643.00, 
1644.00, 
1645.00, 
1646.00, 
1647.00, 
1648.00, 
1649.00, 
1650.00, 
1651.00, 
1652.00, 
1653.00, 
1654.00, 
1655.00, 
1656.00, 
1657.00, 
1658.00, 
1659.00, 
1660.00, 
1661.00, 
1662.00, 
1663.00, 
1664.00, 
1665.00, 
1666.00, 
1667.00, 
1668.00, 
1669.00, 
1670.00, 
1671.00, 
1672.00, 
1673.00, 
1674.00, 
1675.00, 
1676.00, 
1677.00, 
1678.00, 
1679.00, 
1680.00, 
1681.00, 
1682.00, 
1683.00, 
1684.00, 
1685.00, 
1686.00, 
1687.00, 
1688.00, 
1689.00, 
1690.00, 
1691.00, 
1692.00, 
1693.00, 
1694.00, 
1695.00, 
1696.00, 
1697.00, 
1698.00, 
1699.00, 
1700.00, 
1701.00, 
1702.00, 
1703.00, 
1704.00, 
1705.00, 
1706.00, 
1707.00, 
1708.00, 
1709.00, 
1710.00, 
1711.00, 
1712.00, 
1713.00, 
1714.00, 
1715.00, 
1716.00, 
1717.00, 
1718.00, 
1719.00, 
1720.00, 
1721.00, 
1722.00, 
1723.00, 
1724.00, 
1725.00, 
1726.00, 
1727.00, 
1728.00, 
1729.00, 
1730.00, 
1731.00, 
1732.00, 
1733.00, 
1734.00, 
1735.00, 
1736.00, 
1737.00, 
1738.00, 
1739.00, 
1740.00, 
1741.00, 
1742.00, 
1743.00, 
1744.00, 
1745.00, 
1746.00, 
1747.00, 
1748.00, 
1749.00, 
1750.00, 
1751.00, 
1752.00, 
1753.00, 
1754.00, 
1755.00, 
1756.00, 
1757.00, 
1758.00, 
1759.00, 
1760.00, 
1761.00, 
1762.00, 
1763.00, 
1764.00, 
1765.00, 
1766.00, 
1767.00, 
1768.00, 
1769.00, 
1770.00, 
1771.00, 
1772.00, 
1773.00, 
1774.00, 
1775.00, 
1776.00, 
1777.00, 
1778.00, 
1779.00, 
1780.00, 
1781.00, 
1782.00, 
1783.00, 
1784.00, 
1785.00, 
1786.00, 
1787.00, 
1788.00, 
1789.00, 
1790.00, 
1791.00, 
1792.00, 
1793.00, 
1794.00, 
1795.00, 
1796.00, 
1797.00, 
1798.00, 
1799.00, 
1800.00, 
1801.00, 
1802.00, 
1803.00, 
1804.00, 
1805.00, 
1806.00, 
1807.00, 
1808.00, 
1809.00, 
1810.00, 
1811.00, 
1812.00, 
1813.00, 
1814.00, 
1815.00, 
1816.00, 
1817.00, 
1818.00, 
1819.00, 
1820.00, 
1821.00, 
1822.00, 
1823.00, 
1824.00, 
1825.00, 
1826.00, 
1827.00, 
1828.00, 
1829.00, 
1830.00, 
1831.00, 
1832.00, 
1833.00, 
1834.00, 
1835.00, 
1836.00, 
1837.00, 
1838.00, 
1839.00, 
1840.00, 
1841.00, 
1842.00, 
1843.00, 
1844.00, 
1845.00, 
1846.00, 
1847.00, 
1848.00, 
1849.00, 
1850.00, 
1851.00, 
1852.00, 
1853.00, 
1854.00, 
1855.00, 
1856.00, 
1857.00, 
1858.00, 
1859.00, 
1860.00, 
1861.00, 
1862.00, 
1863.00, 
1864.00, 
1865.00, 
1866.00, 
1867.00, 
1868.00, 
1869.00, 
1870.00, 
1871.00, 
1872.00, 
1873.00, 
1874.00, 
1875.00, 
1876.00, 
1877.00, 
1878.00, 
1879.00, 
1880.00, 
1881.00, 
1882.00, 
1883.00, 
1884.00, 
1885.00, 
1886.00, 
1887.00, 
1888.00, 
1889.00, 
1890.00, 
1891.00, 
1892.00, 
1893.00, 
1894.00, 
1895.00, 
1896.00, 
1897.00, 
1898.00, 
1899.00, 
1900.00, 
1901.00, 
1902.00, 
1903.00, 
1904.00, 
1905.00, 
1906.00, 
1907.00, 
1908.00, 
1909.00, 
1910.00, 
1911.00, 
1912.00, 
1913.00, 
1914.00, 
1915.00, 
1916.00, 
1917.00, 
1918.00, 
1919.00, 
1920.00, 
1921.00, 
1922.00, 
1923.00, 
1924.00, 
1925.00, 
1926.00, 
1927.00, 
1928.00, 
1929.00, 
1930.00, 
1931.00, 
1932.00, 
1933.00, 
1934.00, 
1935.00, 
1936.00, 
1937.00, 
1938.00, 
1939.00, 
1940.00, 
1941.00, 
1942.00, 
1943.00, 
1944.00, 
1945.00, 
1946.00, 
1947.00, 
1948.00, 
1949.00, 
1950.00, 
1951.00, 
1952.00, 
1953.00, 
1954.00, 
1955.00, 
1956.00, 
1957.00, 
1958.00, 
1959.00, 
1960.00, 
1961.00, 
1962.00, 
1963.00, 
1964.00, 
1965.00, 
1966.00, 
1967.00, 
1968.00, 
1969.00, 
1970.00, 
1971.00, 
1972.00, 
1973.00, 
1974.00, 
1975.00, 
1976.00, 
1977.00, 
1978.00, 
1979.00, 
1980.00, 
1981.00, 
1982.00, 
1983.00, 
1984.00, 
1985.00, 
1986.00, 
1987.00, 
1988.00, 
1989.00, 
1990.00, 
1991.00, 
1992.00, 
1993.00, 
1994.00, 
1995.00, 
1996.00, 
1997.00, 
1998.00, 
1999.00, 
2000.00, 
2001.00, 
2002.00, 
2003.00, 
2004.00, 
2005.00, 
2006.00, 
2007.00, 
2008.00, 
2009.00, 
2010.00, 
2011.00, 
2012.00, 
2013.00, 
2014.00, 
2015.00, 
2016.00, 
2017.00, 
2018.00, 
2019.00, 
2020.00, 
2021.00, 
2022.00, 
2023.00, 
2024.00, 
2025.00, 
2026.00, 
2027.00, 
2028.00, 
2029.00, 
2030.00, 
2031.00, 
2032.00, 
2033.00, 
2034.00, 
2035.00, 
2036.00, 
2037.00, 
2038.00, 
2039.00, 
2040.00, 
2041.00, 
2042.00, 
2043.00, 
2044.00, 
2045.00, 
2046.00, 
2047.00, 
2048.00, 
2049.00, 
2050.00, 
2051.00, 
2052.00, 
2053.00, 
2054.00, 
2055.00, 
2056.00, 
2057.00, 
2058.00, 
2059.00, 
2060.00, 
2061.00, 
2062.00, 
2063.00, 
2064.00, 
2065.00, 
2066.00, 
2067.00, 
2068.00, 
2069.00, 
2070.00, 
2071.00, 
2072.00, 
2073.00, 
2074.00, 
2075.00, 
2076.00, 
2077.00, 
2078.00, 
2079.00, 
2080.00, 
2081.00, 
2082.00, 
2083.00, 
2084.00, 
2085.00, 
2086.00, 
2087.00, 
2088.00, 
2089.00, 
2090.00, 
2091.00, 
2092.00, 
2093.00, 
2094.00, 
2095.00, 
2096.00, 
2097.00, 
2098.00, 
2099.00, 
2100.00, 
2101.00, 
2102.00, 
2103.00, 
2104.00, 
2105.00, 
2106.00, 
2107.00, 
2108.00, 
2109.00, 
2110.00, 
2111.00, 
2112.00, 
2113.00, 
2114.00, 
2115.00, 
2116.00, 
2117.00, 
2118.00, 
2119.00, 
2120.00, 
2121.00, 
2122.00, 
2123.00, 
2124.00, 
2125.00, 
2126.00, 
2127.00, 
2128.00, 
2129.00, 
2130.00, 
2131.00, 
2132.00, 
2133.00, 
2134.00, 
2135.00, 
2136.00, 
2137.00, 
2138.00, 
2139.00, 
2140.00, 
2141.00, 
2142.00, 
2143.00, 
2144.00, 
2145.00, 
2146.00, 
2147.00, 
2148.00, 
2149.00, 
2150.00, 
2151.00, 
2152.00, 
2153.00, 
2154.00, 
2155.00, 
2156.00, 
2157.00, 
2158.00, 
2159.00, 
2160.00, 
2161.00, 
2162.00, 
2163.00, 
2164.00, 
2165.00, 
2166.00, 
2167.00, 
2168.00, 
2169.00, 
2170.00, 
2171.00, 
2172.00, 
2173.00, 
2174.00, 
2175.00, 
2176.00, 
2177.00, 
2178.00, 
2179.00, 
2180.00, 
2181.00, 
2182.00, 
2183.00, 
2184.00, 
2185.00, 
2186.00, 
2187.00, 
2188.00, 
2189.00, 
2190.00, 
2191.00, 
2192.00, 
2193.00, 
2194.00, 
2195.00, 
2196.00, 
2197.00, 
2198.00, 
2199.00, 
2200.00, 
2201.00, 
2202.00, 
2203.00, 
2204.00, 
2205.00, 
2206.00, 
2207.00, 
2208.00, 
2209.00, 
2210.00, 
2211.00, 
2212.00, 
2213.00, 
2214.00, 
2215.00, 
2216.00, 
2217.00, 
2218.00, 
2219.00, 
2220.00, 
2221.00, 
2222.00, 
2223.00, 
2224.00, 
2225.00, 
2226.00, 
2227.00, 
2228.00, 
2229.00, 
2230.00, 
2231.00, 
2232.00, 
2233.00, 
2234.00, 
2235.00, 
2236.00, 
2237.00, 
2238.00, 
2239.00, 
2240.00, 
2241.00, 
2242.00, 
2243.00, 
2244.00, 
2245.00, 
2246.00, 
2247.00, 
2248.00, 
2249.00, 
2250.00, 
2251.00, 
2252.00, 
2253.00, 
2254.00, 
2255.00, 
2256.00, 
2257.00, 
2258.00, 
2259.00, 
2260.00, 
2261.00, 
2262.00, 
2263.00, 
2264.00, 
2265.00, 
2266.00, 
2267.00, 
2268.00, 
2269.00, 
2270.00, 
2271.00, 
2272.00, 
2273.00, 
2274.00, 
2275.00, 
2276.00, 
2277.00, 
2278.00, 
2279.00, 
2280.00, 
2281.00, 
2282.00, 
2283.00, 
2284.00, 
2285.00, 
2286.00, 
2287.00, 
2288.00, 
2289.00, 
2290.00, 
2291.00, 
2292.00, 
2293.00, 
2294.00, 
2295.00, 
2296.00, 
2297.00, 
2298.00, 
2299.00, 
2300.00, 
2301.00, 
2302.00, 
2303.00, 
2304.00, 
2305.00, 
2306.00, 
2307.00, 
2308.00, 
2309.00, 
2310.00, 
2311.00, 
2312.00, 
2313.00, 
2314.00, 
2315.00, 
2316.00, 
2317.00, 
2318.00, 
2319.00, 
2320.00, 
2321.00, 
2322.00, 
2323.00, 
2324.00, 
2325.00, 
2326.00, 
2327.00, 
2328.00, 
2329.00, 
2330.00, 
2331.00, 
2332.00, 
2333.00, 
2334.00, 
2335.00, 
2336.00, 
2337.00, 
2338.00, 
2339.00, 
2340.00, 
2341.00, 
2342.00, 
2343.00, 
2344.00, 
2345.00, 
2346.00, 
2347.00, 
2348.00, 
2349.00, 
2350.00, 
2351.00, 
2352.00, 
2353.00, 
2354.00, 
2355.00, 
2356.00, 
2357.00, 
2358.00, 
2359.00, 
2360.00, 
2361.00, 
2362.00, 
2363.00, 
2364.00, 
2365.00, 
2366.00, 
2367.00, 
2368.00, 
2369.00, 
2370.00, 
2371.00, 
2372.00, 
2373.00, 
2374.00, 
2375.00, 
2376.00, 
2377.00, 
2378.00, 
2379.00, 
2380.00, 
2381.00, 
2382.00, 
2383.00, 
2384.00, 
2385.00, 
2386.00, 
2387.00, 
2388.00, 
2389.00, 
2390.00, 
2391.00, 
2392.00, 
2393.00, 
2394.00, 
2395.00, 
2396.00, 
2397.00, 
2398.00, 
2399.00, 
2400.00, 
2401.00, 
2402.00, 
2403.00, 
2404.00, 
2405.00, 
2406.00, 
2407.00, 
2408.00, 
2409.00, 
2410.00, 
2411.00, 
2412.00, 
2413.00, 
2414.00, 
2415.00, 
2416.00, 
2417.00, 
2418.00, 
2419.00, 
2420.00, 
2421.00, 
2422.00, 
2423.00, 
2424.00, 
2425.00, 
2426.00, 
2427.00, 
2428.00, 
2429.00, 
2430.00, 
2431.00, 
2432.00, 
2433.00, 
2434.00, 
2435.00, 
2436.00, 
2437.00, 
2438.00, 
2439.00, 
2440.00, 
2441.00, 
2442.00, 
2443.00, 
2444.00, 
2445.00, 
2446.00, 
2447.00, 
2448.00, 
2449.00, 
2450.00, 
2451.00, 
2452.00, 
2453.00, 
2454.00, 
2455.00, 
2456.00, 
2457.00, 
2458.00, 
2459.00, 
2460.00, 
2461.00, 
2462.00, 
2463.00, 
2464.00, 
2465.00, 
2466.00, 
2467.00, 
2468.00, 
2469.00, 
2470.00, 
2471.00, 
2472.00, 
2473.00, 
2474.00, 
2475.00, 
2476.00, 
2477.00, 
2478.00, 
2479.00, 
2480.00, 
2481.00, 
2482.00, 
2483.00, 
2484.00, 
2485.00, 
2486.00, 
2487.00, 
2488.00, 
2489.00, 
2490.00, 
2491.00, 
2492.00, 
2493.00, 
2494.00, 
2495.00, 
2496.00, 
2497.00, 
2498.00, 
2499.00, 
2500.00, 
2501.00, 
2502.00, 
2503.00, 
2504.00, 
2505.00, 
2506.00, 
2507.00, 
2508.00, 
2509.00, 
2510.00, 
2511.00, 
2512.00, 
2513.00, 
2514.00, 
2515.00, 
2516.00, 
2517.00, 
2518.00, 
2519.00, 
2520.00, 
2521.00, 
2522.00, 
2523.00, 
2524.00, 
2525.00, 
2526.00, 
2527.00, 
2528.00, 
2529.00, 
2530.00, 
2531.00, 
2532.00, 
2533.00, 
2534.00, 
2535.00, 
2536.00, 
2537.00, 
2538.00, 
2539.00, 
2540.00, 
2541.00, 
2542.00, 
2543.00, 
2544.00, 
2545.00, 
2546.00, 
2547.00, 
2548.00, 
2549.00, 
2550.00, 
2551.00, 
2552.00, 
2553.00, 
2554.00, 
2555.00, 
2556.00, 
2557.00, 
2558.00, 
2559.00, 
2560.00, 
2561.00, 
2562.00, 
2563.00, 
2564.00, 
2565.00, 
2566.00, 
2567.00, 
2568.00, 
2569.00, 
2570.00, 
2571.00, 
2572.00, 
2573.00, 
2574.00, 
2575.00, 
2576.00, 
2577.00, 
2578.00, 
2579.00, 
2580.00, 
2581.00, 
2582.00, 
2583.00, 
2584.00, 
2585.00, 
2586.00, 
2587.00, 
2588.00, 
2589.00, 
2590.00, 
2591.00, 
2592.00, 
2593.00, 
2594.00, 
2595.00, 
2596.00, 
2597.00, 
2598.00, 
2599.00, 
2600.00, 
