"2cP1 - RawData"
"Wavelength nm.","T%"
200.00,0.006
201.00,-0.001
202.00,0.002
203.00,0.002
204.00,0.001
205.00,0.000
206.00,0.003
207.00,-0.001
208.00,0.000
209.00,-0.001
210.00,0.004
211.00,0.002
212.00,-0.000
213.00,0.001
214.00,-0.000
215.00,0.002
216.00,-0.001
217.00,-0.001
218.00,0.001
219.00,0.002
220.00,0.000
221.00,-0.002
222.00,0.001
223.00,-0.001
224.00,0.002
225.00,-0.001
226.00,0.002
227.00,0.002
228.00,0.002
229.00,0.001
230.00,0.001
231.00,-0.000
232.00,0.000
233.00,0.000
234.00,0.000
235.00,0.001
236.00,-0.000
237.00,0.001
238.00,0.001
239.00,-0.000
240.00,0.001
241.00,0.001
242.00,0.001
243.00,0.000
244.00,0.000
245.00,0.001
246.00,-0.000
247.00,-0.000
248.00,0.001
249.00,0.000
250.00,-0.000
251.00,-0.001
252.00,-0.001
253.00,-0.001
254.00,0.001
255.00,-0.000
256.00,0.002
257.00,0.001
258.00,0.001
259.00,-0.000
260.00,-0.001
261.00,-0.000
262.00,-0.000
263.00,-0.000
264.00,0.002
265.00,-0.001
266.00,0.000
267.00,0.002
268.00,-0.001
269.00,-0.001
270.00,-0.000
271.00,0.000
272.00,-0.000
273.00,-0.000
274.00,0.000
275.00,-0.000
276.00,0.001
277.00,-0.001
278.00,-0.000
279.00,-0.001
280.00,-0.001
281.00,0.000
282.00,0.000
283.00,0.000
284.00,0.001
285.00,-0.001
286.00,0.001
287.00,-0.001
288.00,-0.001
289.00,-0.000
290.00,0.000
291.00,-0.001
292.00,0.000
293.00,0.001
294.00,0.001
295.00,-0.001
296.00,-0.001
297.00,0.001
298.00,0.001
299.00,0.002
300.00,0.002
301.00,0.004
302.00,0.004
303.00,0.007
304.00,0.011
305.00,0.018
306.00,0.031
307.00,0.043
308.00,0.073
309.00,0.110
310.00,0.159
311.00,0.212
312.00,0.291
313.00,0.390
314.00,0.516
315.00,0.681
316.00,0.869
317.00,1.095
318.00,1.356
319.00,1.683
320.00,2.040
321.00,2.433
322.00,2.884
323.00,3.399
324.00,3.941
325.00,4.493
326.00,5.097
327.00,5.747
328.00,6.414
329.00,7.103
330.00,7.810
331.00,8.567
332.00,9.311
333.00,10.085
334.00,10.813
335.00,11.615
336.00,12.308
337.00,13.164
338.00,13.923
339.00,14.604
340.00,15.323
341.00,15.979
342.00,16.664
343.00,17.327
344.00,17.906
345.00,18.538
346.00,19.035
347.00,19.602
348.00,20.092
349.00,20.565
350.00,21.020
351.00,21.422
352.00,21.830
353.00,22.192
354.00,22.525
355.00,22.893
356.00,23.230
357.00,23.463
358.00,23.745
359.00,23.981
360.00,24.228
361.00,24.306
362.00,24.660
363.00,24.885
364.00,25.065
365.00,25.167
366.00,25.322
367.00,25.421
368.00,25.525
369.00,25.616
370.00,25.681
371.00,25.748
372.00,25.783
373.00,25.740
374.00,25.808
375.00,25.784
376.00,25.790
377.00,25.746
378.00,25.682
379.00,25.677
380.00,25.638
381.00,25.659
382.00,25.643
383.00,25.688
384.00,25.770
385.00,25.794
386.00,25.808
387.00,25.890
388.00,25.938
389.00,25.962
390.00,26.040
391.00,26.124
392.00,26.123
393.00,26.183
394.00,26.233
395.00,26.224
396.00,26.227
397.00,26.277
398.00,26.281
399.00,26.289
400.00,26.272
401.00,26.300
402.00,26.317
403.00,26.337
404.00,26.307
405.00,26.330
406.00,26.290
407.00,26.295
408.00,26.274
409.00,26.250
410.00,26.202
411.00,26.150
412.00,26.151
413.00,26.196
414.00,26.157
415.00,26.197
416.00,26.195
417.00,26.211
418.00,26.229
419.00,26.263
420.00,26.270
421.00,26.392
422.00,26.408
423.00,26.412
424.00,26.467
425.00,26.494
426.00,26.493
427.00,26.555
428.00,26.621
429.00,26.621
430.00,26.652
431.00,26.728
432.00,26.763
433.00,26.816
434.00,26.869
435.00,26.964
436.00,26.977
437.00,27.011
438.00,27.098
439.00,27.152
440.00,27.242
441.00,27.270
442.00,27.398
443.00,27.482
444.00,27.543
445.00,27.618
446.00,27.656
447.00,27.795
448.00,27.861
449.00,27.970
450.00,28.081
451.00,28.141
452.00,28.243
453.00,28.371
454.00,28.478
455.00,28.558
456.00,28.685
457.00,28.792
458.00,28.858
459.00,28.980
460.00,29.083
461.00,29.197
462.00,29.306
463.00,29.412
464.00,29.548
465.00,29.657
466.00,29.727
467.00,29.825
468.00,29.939
469.00,30.061
470.00,30.077
471.00,30.266
472.00,30.377
473.00,30.416
474.00,30.506
475.00,30.602
476.00,30.621
477.00,30.781
478.00,30.980
479.00,31.161
480.00,31.272
481.00,31.381
482.00,31.527
483.00,31.637
484.00,31.800
485.00,31.945
486.00,32.045
487.00,32.191
488.00,32.285
489.00,32.487
490.00,32.577
491.00,32.679
492.00,32.809
493.00,32.998
494.00,32.982
495.00,33.136
496.00,33.235
497.00,33.351
498.00,33.513
499.00,33.642
500.00,33.702
501.00,33.888
502.00,33.973
503.00,34.026
504.00,34.214
505.00,34.328
506.00,34.490
507.00,34.558
508.00,34.665
509.00,34.743
510.00,34.882
511.00,34.981
512.00,35.123
513.00,35.222
514.00,35.360
515.00,35.454
516.00,35.536
517.00,35.623
518.00,35.743
519.00,35.809
520.00,35.914
521.00,35.977
522.00,36.057
523.00,36.134
524.00,36.187
525.00,36.306
526.00,36.386
527.00,36.445
528.00,36.510
529.00,36.577
530.00,36.702
531.00,36.870
532.00,36.944
533.00,37.013
534.00,37.130
535.00,37.197
536.00,37.279
537.00,37.364
538.00,37.460
539.00,37.504
540.00,37.602
541.00,37.622
542.00,37.661
543.00,37.805
544.00,37.846
545.00,37.885
546.00,37.940
547.00,38.028
548.00,38.139
549.00,38.166
550.00,38.265
551.00,38.340
552.00,38.442
553.00,38.530
554.00,38.580
555.00,38.604
556.00,38.689
557.00,38.718
558.00,38.767
559.00,38.761
560.00,38.911
561.00,38.923
562.00,38.947
563.00,39.065
564.00,39.103
565.00,39.110
566.00,39.127
567.00,39.193
568.00,39.202
569.00,39.225
570.00,39.257
571.00,39.325
572.00,39.319
573.00,39.435
574.00,39.442
575.00,39.467
576.00,39.436
577.00,39.494
578.00,39.556
579.00,39.730
580.00,39.794
581.00,39.892
582.00,39.954
583.00,40.001
584.00,40.148
585.00,40.150
586.00,40.213
587.00,40.270
588.00,40.294
589.00,40.336
590.00,40.378
591.00,40.386
592.00,40.332
593.00,40.370
594.00,40.552
595.00,40.598
596.00,40.613
597.00,40.711
598.00,40.801
599.00,40.744
600.00,40.827
601.00,40.906
602.00,40.909
603.00,41.000
604.00,41.048
605.00,40.997
606.00,41.060
607.00,41.027
608.00,41.142
609.00,41.219
610.00,41.243
611.00,41.261
612.00,41.381
613.00,41.416
614.00,41.361
615.00,41.497
616.00,41.558
617.00,41.584
618.00,41.630
619.00,41.642
620.00,41.723
621.00,41.705
622.00,41.794
623.00,41.819
624.00,41.852
625.00,41.960
626.00,41.995
627.00,42.011
628.00,42.076
629.00,42.194
630.00,42.161
631.00,42.183
632.00,42.194
633.00,42.301
634.00,42.406
635.00,42.498
636.00,42.564
637.00,42.665
638.00,42.660
639.00,42.763
640.00,42.775
641.00,42.806
642.00,42.851
643.00,42.946
644.00,42.997
645.00,43.022
646.00,43.078
647.00,43.191
648.00,43.242
649.00,43.335
650.00,43.387
651.00,43.405
652.00,43.489
653.00,43.541
654.00,43.560
655.00,43.634
656.00,43.749
657.00,43.757
658.00,43.899
659.00,44.140
660.00,44.324
661.00,43.883
662.00,44.147
663.00,44.253
664.00,44.495
665.00,44.394
666.00,44.467
667.00,44.597
668.00,44.655
669.00,44.653
670.00,44.828
671.00,44.843
672.00,44.748
673.00,44.948
674.00,45.032
675.00,45.092
676.00,45.231
677.00,45.268
678.00,45.278
679.00,45.340
680.00,45.357
681.00,45.407
682.00,45.557
683.00,45.584
684.00,45.715
685.00,45.713
686.00,45.748
687.00,45.654
688.00,45.794
689.00,45.992
690.00,46.172
691.00,46.204
692.00,46.267
693.00,46.258
694.00,46.303
695.00,46.453
696.00,46.435
697.00,46.557
698.00,46.656
699.00,46.725
700.00,46.881
701.00,46.690
702.00,46.803
703.00,47.046
704.00,46.967
705.00,47.094
706.00,47.247
707.00,47.214
708.00,47.033
709.00,47.186
710.00,47.454
711.00,47.273
712.00,47.326
713.00,47.306
714.00,47.333
715.00,47.415
716.00,47.407
717.00,47.686
718.00,47.749
719.00,47.711
720.00,47.755
721.00,52.022
722.00,52.031
723.00,51.874
724.00,51.871
725.00,51.856
726.00,51.957
727.00,51.857
728.00,52.013
729.00,51.928
730.00,52.014
731.00,51.924
732.00,51.954
733.00,51.993
734.00,51.960
735.00,52.010
736.00,52.042
737.00,52.001
738.00,52.185
739.00,52.043
740.00,52.061
741.00,52.116
742.00,52.105
743.00,52.127
744.00,52.044
745.00,52.113
746.00,52.090
747.00,52.062
748.00,51.989
749.00,51.891
750.00,52.005
751.00,51.988
752.00,52.016
753.00,51.967
754.00,52.047
755.00,52.025
756.00,52.000
757.00,51.951
758.00,52.024
759.00,52.014
760.00,52.005
761.00,52.003
762.00,51.927
763.00,52.016
764.00,51.966
765.00,52.014
766.00,52.007
767.00,51.957
768.00,52.081
769.00,52.043
770.00,52.024
771.00,52.025
772.00,52.035
773.00,51.950
774.00,51.994
775.00,52.082
776.00,52.035
777.00,51.996
778.00,52.087
779.00,52.000
780.00,52.000
781.00,51.950
782.00,51.867
783.00,51.883
784.00,51.923
785.00,51.916
786.00,51.949
787.00,51.962
788.00,51.979
789.00,51.878
790.00,51.867
791.00,51.883
792.00,51.826
793.00,51.765
794.00,51.794
795.00,51.725
796.00,51.837
797.00,51.714
798.00,51.708
799.00,51.774
800.00,51.619
801.00,51.692
802.00,51.706
803.00,51.641
804.00,51.631
805.00,51.569
806.00,51.554
807.00,51.555
808.00,51.606
809.00,51.489
810.00,51.510
811.00,51.474
812.00,51.590
813.00,51.417
814.00,51.483
815.00,51.464
816.00,51.376
817.00,51.370
818.00,51.270
819.00,51.382
820.00,51.197
821.00,51.284
822.00,51.316
823.00,51.316
824.00,51.252
825.00,51.189
826.00,51.209
827.00,51.376
828.00,51.214
829.00,51.133
830.00,51.133
831.00,53.707
832.00,53.708
833.00,53.656
834.00,53.686
835.00,53.603
836.00,53.612
837.00,53.577
838.00,53.579
839.00,53.531
840.00,53.512
841.00,53.499
842.00,53.456
843.00,53.460
844.00,53.456
845.00,53.375
846.00,53.398
847.00,53.402
848.00,53.356
849.00,53.322
850.00,53.292
851.00,53.268
852.00,53.238
853.00,53.180
854.00,53.141
855.00,53.111
856.00,53.099
857.00,53.054
858.00,53.032
859.00,53.004
860.00,52.998
861.00,52.969
862.00,52.915
863.00,52.929
864.00,52.918
865.00,52.913
866.00,52.869
867.00,52.894
868.00,52.888
869.00,52.858
870.00,52.833
871.00,52.824
872.00,52.798
873.00,52.824
874.00,52.713
875.00,52.754
876.00,52.739
877.00,52.762
878.00,52.723
879.00,52.728
880.00,52.711
881.00,52.677
882.00,52.694
883.00,52.661
884.00,52.627
885.00,52.603
886.00,52.598
887.00,52.553
888.00,52.551
889.00,52.526
890.00,52.504
891.00,52.485
892.00,52.469
893.00,52.428
894.00,52.441
895.00,52.382
896.00,52.373
897.00,52.354
898.00,52.346
899.00,52.321
900.00,52.331
901.00,52.324
902.00,52.315
903.00,52.268
904.00,52.261
905.00,52.252
906.00,52.207
907.00,52.207
908.00,52.187
909.00,52.162
910.00,52.123
911.00,52.124
912.00,52.128
913.00,52.070
914.00,52.072
915.00,52.039
916.00,52.016
917.00,51.981
918.00,51.977
919.00,51.939
920.00,51.911
921.00,51.929
922.00,51.900
923.00,51.853
924.00,51.868
925.00,51.815
926.00,51.813
927.00,51.798
928.00,51.757
929.00,51.776
930.00,51.736
931.00,51.732
932.00,51.703
933.00,51.702
934.00,51.683
935.00,51.623
936.00,51.716
937.00,51.602
938.00,51.590
939.00,51.593
940.00,51.565
941.00,51.544
942.00,51.522
943.00,51.510
944.00,51.473
945.00,51.467
946.00,51.453
947.00,51.434
948.00,51.400
949.00,51.387
950.00,51.353
951.00,51.353
952.00,51.307
953.00,51.280
954.00,51.283
955.00,51.220
956.00,51.207
957.00,51.175
958.00,51.214
959.00,51.096
960.00,51.136
961.00,51.104
962.00,51.129
963.00,51.084
964.00,51.071
965.00,51.055
966.00,51.046
967.00,51.043
968.00,51.016
969.00,51.045
970.00,51.015
971.00,51.032
972.00,50.994
973.00,51.029
974.00,51.039
975.00,50.999
976.00,51.031
977.00,51.000
978.00,51.030
979.00,51.011
980.00,51.021
981.00,50.984
982.00,50.947
983.00,51.017
984.00,50.994
985.00,51.011
986.00,50.970
987.00,50.986
988.00,50.974
989.00,50.950
990.00,50.934
991.00,50.916
992.00,50.931
993.00,50.894
994.00,50.871
995.00,50.871
996.00,50.860
997.00,50.852
998.00,50.833
999.00,50.848
1000.00,50.784
1001.00,50.817
1002.00,50.803
1003.00,50.776
1004.00,50.756
1005.00,50.734
1006.00,50.762
1007.00,50.722
1008.00,50.714
1009.00,50.697
1010.00,50.678
1011.00,50.668
1012.00,50.648
1013.00,50.666
1014.00,50.621
1015.00,50.631
1016.00,50.581
1017.00,50.594
1018.00,50.565
1019.00,50.533
1020.00,50.535
1021.00,50.519
1022.00,50.518
1023.00,50.460
1024.00,50.467
1025.00,50.450
1026.00,50.449
1027.00,50.423
1028.00,50.413
1029.00,50.410
1030.00,50.372
1031.00,50.387
1032.00,50.341
1033.00,50.343
1034.00,50.321
1035.00,50.285
1036.00,50.262
1037.00,50.244
1038.00,50.228
1039.00,50.190
1040.00,50.200
1041.00,50.149
1042.00,50.161
1043.00,50.124
1044.00,50.150
1045.00,50.140
1046.00,50.125
1047.00,50.127
1048.00,50.146
1049.00,50.154
1050.00,50.177
1051.00,50.196
1052.00,50.209
1053.00,50.220
1054.00,50.207
1055.00,50.219
1056.00,50.225
1057.00,50.225
1058.00,50.226
1059.00,50.216
1060.00,50.203
1061.00,50.200
1062.00,50.182
1063.00,50.196
1064.00,50.181
1065.00,50.173
1066.00,50.158
1067.00,50.157
1068.00,50.173
1069.00,50.134
1070.00,50.120
1071.00,50.100
1072.00,50.134
1073.00,50.126
1074.00,50.098
1075.00,50.081
1076.00,50.069
1077.00,50.051
1078.00,50.057
1079.00,50.032
1080.00,50.032
1081.00,50.006
1082.00,50.003
1083.00,50.008
1084.00,49.988
1085.00,49.977
1086.00,49.974
1087.00,49.979
1088.00,49.961
1089.00,49.949
1090.00,49.943
1091.00,49.931
1092.00,49.923
1093.00,49.895
1094.00,49.898
1095.00,49.880
1096.00,49.868
1097.00,49.872
1098.00,49.862
1099.00,49.843
1100.00,49.839
1101.00,49.829
1102.00,49.814
1103.00,49.816
1104.00,49.798
1105.00,49.785
1106.00,49.779
1107.00,49.769
1108.00,49.768
1109.00,49.748
1110.00,49.755
1111.00,49.747
1112.00,49.726
1113.00,49.715
1114.00,49.724
1115.00,49.708
1116.00,49.698
1117.00,49.681
1118.00,49.692
1119.00,49.678
1120.00,49.674
1121.00,49.666
1122.00,49.657
1123.00,49.643
1124.00,49.645
1125.00,49.634
1126.00,49.624
1127.00,49.629
1128.00,49.624
1129.00,49.611
1130.00,49.598
1131.00,49.587
1132.00,49.573
1133.00,49.565
1134.00,49.565
1135.00,49.554
1136.00,49.546
1137.00,49.538
1138.00,49.548
1139.00,49.548
1140.00,49.527
1141.00,49.530
1142.00,49.518
1143.00,49.523
1144.00,49.520
1145.00,49.510
1146.00,49.514
1147.00,49.487
1148.00,49.486
1149.00,49.509
1150.00,49.494
1151.00,49.483
1152.00,49.461
1153.00,49.484
1154.00,49.472
1155.00,49.478
1156.00,49.452
1157.00,49.456
1158.00,49.457
1159.00,49.450
1160.00,49.458
1161.00,49.455
1162.00,49.437
1163.00,49.446
1164.00,49.446
1165.00,49.432
1166.00,49.423
1167.00,49.426
1168.00,49.428
1169.00,49.416
1170.00,49.425
1171.00,49.403
1172.00,49.413
1173.00,49.399
1174.00,49.419
1175.00,49.404
1176.00,49.396
1177.00,49.395
1178.00,49.393
1179.00,49.409
1180.00,49.398
1181.00,49.407
1182.00,49.405
1183.00,49.390
1184.00,49.383
1185.00,49.404
1186.00,49.380
1187.00,49.394
1188.00,49.382
1189.00,49.371
1190.00,49.364
1191.00,49.361
1192.00,49.367
1193.00,49.371
1194.00,49.390
1195.00,49.371
1196.00,49.382
1197.00,49.371
1198.00,49.358
1199.00,49.366
1200.00,49.362
1201.00,49.368
1202.00,49.351
1203.00,49.345
1204.00,49.340
1205.00,49.353
1206.00,49.342
1207.00,49.359
1208.00,49.325
1209.00,49.326
1210.00,49.361
1211.00,49.351
1212.00,49.339
1213.00,49.313
1214.00,49.333
1215.00,49.326
1216.00,49.329
1217.00,49.332
1218.00,49.323
1219.00,49.332
1220.00,49.328
1221.00,49.347
1222.00,49.327
1223.00,49.346
1224.00,49.344
1225.00,49.333
1226.00,49.350
1227.00,49.319
1228.00,49.336
1229.00,49.341
1230.00,49.384
1231.00,49.361
1232.00,49.374
1233.00,49.363
1234.00,49.372
1235.00,49.361
1236.00,49.363
1237.00,49.349
1238.00,49.362
1239.00,49.362
1240.00,49.375
1241.00,49.382
1242.00,49.359
1243.00,49.392
1244.00,49.369
1245.00,49.384
1246.00,49.396
1247.00,49.383
1248.00,49.378
1249.00,49.384
1250.00,49.391
1251.00,49.396
1252.00,49.398
1253.00,49.390
1254.00,49.420
1255.00,49.428
1256.00,49.413
1257.00,49.366
1258.00,49.409
1259.00,49.415
1260.00,49.433
1261.00,49.428
1262.00,49.423
1263.00,49.411
1264.00,49.416
1265.00,49.437
1266.00,49.430
1267.00,49.434
1268.00,49.453
1269.00,49.431
1270.00,49.460
1271.00,49.464
1272.00,49.457
1273.00,49.470
1274.00,49.458
1275.00,49.465
1276.00,49.474
1277.00,49.462
1278.00,49.475
1279.00,49.466
1280.00,49.476
1281.00,49.496
1282.00,49.509
1283.00,49.490
1284.00,49.494
1285.00,49.485
1286.00,49.507
1287.00,49.501
1288.00,49.497
1289.00,49.491
1290.00,49.517
1291.00,49.524
1292.00,49.533
1293.00,49.517
1294.00,49.532
1295.00,49.542
1296.00,49.544
1297.00,49.550
1298.00,49.565
1299.00,49.540
1300.00,49.553
1301.00,49.575
1302.00,49.570
1303.00,49.585
1304.00,49.576
1305.00,49.595
1306.00,49.599
1307.00,49.607
1308.00,49.585
1309.00,49.599
1310.00,49.593
1311.00,49.591
1312.00,49.598
1313.00,49.591
1314.00,49.624
1315.00,49.631
1316.00,49.627
1317.00,49.659
1318.00,49.630
1319.00,49.638
1320.00,49.674
1321.00,49.805
1322.00,49.837
1323.00,49.824
1324.00,49.802
1325.00,49.794
1326.00,49.836
1327.00,49.811
1328.00,49.810
1329.00,49.822
1330.00,49.861
1331.00,49.802
1332.00,49.807
1333.00,49.832
1334.00,49.863
1335.00,49.859
1336.00,49.901
1337.00,49.924
1338.00,49.985
1339.00,50.048
1340.00,50.103
1341.00,50.154
1342.00,50.235
1343.00,50.269
1344.00,50.322
1345.00,50.378
1346.00,50.413
1347.00,50.438
1348.00,50.456
1349.00,50.457
1350.00,50.479
1351.00,50.501
1352.00,50.477
1353.00,50.510
1354.00,50.515
1355.00,50.481
1356.00,50.546
1357.00,50.526
1358.00,50.533
1359.00,50.568
1360.00,50.641
1361.00,50.514
1362.00,50.477
1363.00,50.549
1364.00,50.530
1365.00,50.576
1366.00,50.586
1367.00,50.523
1368.00,50.506
1369.00,50.573
1370.00,50.522
1371.00,50.468
1372.00,50.510
1373.00,50.515
1374.00,50.512
1375.00,50.527
1376.00,50.525
1377.00,50.513
1378.00,50.572
1379.00,50.489
1380.00,50.512
1381.00,50.485
1382.00,50.453
1383.00,50.497
1384.00,50.437
1385.00,50.458
1386.00,50.500
1387.00,50.436
1388.00,50.442
1389.00,50.440
1390.00,50.557
1391.00,50.434
1392.00,50.505
1393.00,50.531
1394.00,50.481
1395.00,50.455
1396.00,50.428
1397.00,50.507
1398.00,50.527
1399.00,50.463
1400.00,50.414
1401.00,50.512
1402.00,50.551
1403.00,50.445
1404.00,50.488
1405.00,50.520
1406.00,50.514
1407.00,50.524
1408.00,50.555
1409.00,50.488
1410.00,50.533
1411.00,50.548
1412.00,50.585
1413.00,50.539
1414.00,50.534
1415.00,50.554
1416.00,50.654
1417.00,50.617
1418.00,50.550
1419.00,50.561
1420.00,50.594
1421.00,50.645
1422.00,50.644
1423.00,50.619
1424.00,50.670
1425.00,50.667
1426.00,50.671
1427.00,50.706
1428.00,50.716
1429.00,50.721
1430.00,50.748
1431.00,50.744
1432.00,50.760
1433.00,50.788
1434.00,50.768
1435.00,50.837
1436.00,50.824
1437.00,50.804
1438.00,50.845
1439.00,50.873
1440.00,50.873
1441.00,50.886
1442.00,50.888
1443.00,50.931
1444.00,50.932
1445.00,50.919
1446.00,50.956
1447.00,50.985
1448.00,50.999
1449.00,51.030
1450.00,51.008
1451.00,51.024
1452.00,51.054
1453.00,51.020
1454.00,51.055
1455.00,51.082
1456.00,51.097
1457.00,51.104
1458.00,51.129
1459.00,51.132
1460.00,51.158
1461.00,51.168
1462.00,51.182
1463.00,51.207
1464.00,51.199
1465.00,51.226
1466.00,51.228
1467.00,51.231
1468.00,51.290
1469.00,51.285
1470.00,51.271
1471.00,51.301
1472.00,51.312
1473.00,51.312
1474.00,51.351
1475.00,51.350
1476.00,51.373
1477.00,51.375
1478.00,51.372
1479.00,51.401
1480.00,51.393
1481.00,51.403
1482.00,51.445
1483.00,51.453
1484.00,51.449
1485.00,51.486
1486.00,51.464
1487.00,51.501
1488.00,51.494
1489.00,51.493
1490.00,51.529
1491.00,51.527
1492.00,51.537
1493.00,51.540
1494.00,51.554
1495.00,51.568
1496.00,51.571
1497.00,51.575
1498.00,51.578
1499.00,51.602
1500.00,51.617
1501.00, 
1502.00, 
1503.00, 
1504.00, 
1505.00, 
1506.00, 
1507.00, 
1508.00, 
1509.00, 
1510.00, 
1511.00, 
1512.00, 
1513.00, 
1514.00, 
1515.00, 
1516.00, 
1517.00, 
1518.00, 
1519.00, 
1520.00, 
1521.00, 
1522.00, 
1523.00, 
1524.00, 
1525.00, 
1526.00, 
1527.00, 
1528.00, 
1529.00, 
1530.00, 
1531.00, 
1532.00, 
1533.00, 
1534.00, 
1535.00, 
1536.00, 
1537.00, 
1538.00, 
1539.00, 
1540.00, 
1541.00, 
1542.00, 
1543.00, 
1544.00, 
1545.00, 
1546.00, 
1547.00, 
1548.00, 
1549.00, 
1550.00, 
1551.00, 
1552.00, 
1553.00, 
1554.00, 
1555.00, 
1556.00, 
1557.00, 
1558.00, 
1559.00, 
1560.00, 
1561.00, 
1562.00, 
1563.00, 
1564.00, 
1565.00, 
1566.00, 
1567.00, 
1568.00, 
1569.00, 
1570.00, 
1571.00, 
1572.00, 
1573.00, 
1574.00, 
1575.00, 
1576.00, 
1577.00, 
1578.00, 
1579.00, 
1580.00, 
1581.00, 
1582.00, 
1583.00, 
1584.00, 
1585.00, 
1586.00, 
1587.00, 
1588.00, 
1589.00, 
1590.00, 
1591.00, 
1592.00, 
1593.00, 
1594.00, 
1595.00, 
1596.00, 
1597.00, 
1598.00, 
1599.00, 
1600.00, 
1601.00, 
1602.00, 
1603.00, 
1604.00, 
1605.00, 
1606.00, 
1607.00, 
1608.00, 
1609.00, 
1610.00, 
1611.00, 
1612.00, 
1613.00, 
1614.00, 
1615.00, 
1616.00, 
1617.00, 
1618.00, 
1619.00, 
1620.00, 
1621.00, 
1622.00, 
1623.00, 
1624.00, 
1625.00, 
1626.00, 
1627.00, 
1628.00, 
1629.00, 
1630.00, 
1631.00, 
1632.00, 
1633.00, 
1634.00, 
1635.00, 
1636.00, 
1637.00, 
1638.00, 
1639.00, 
1640.00, 
1641.00, 
1642.00, 
1643.00, 
1644.00, 
1645.00, 
1646.00, 
1647.00, 
1648.00, 
1649.00, 
1650.00, 
1651.00, 
1652.00, 
1653.00, 
1654.00, 
1655.00, 
1656.00, 
1657.00, 
1658.00, 
1659.00, 
1660.00, 
1661.00, 
1662.00, 
1663.00, 
1664.00, 
1665.00, 
1666.00, 
1667.00, 
1668.00, 
1669.00, 
1670.00, 
1671.00, 
1672.00, 
1673.00, 
1674.00, 
1675.00, 
1676.00, 
1677.00, 
1678.00, 
1679.00, 
1680.00, 
1681.00, 
1682.00, 
1683.00, 
1684.00, 
1685.00, 
1686.00, 
1687.00, 
1688.00, 
1689.00, 
1690.00, 
1691.00, 
1692.00, 
1693.00, 
1694.00, 
1695.00, 
1696.00, 
1697.00, 
1698.00, 
1699.00, 
1700.00, 
1701.00, 
1702.00, 
1703.00, 
1704.00, 
1705.00, 
1706.00, 
1707.00, 
1708.00, 
1709.00, 
1710.00, 
1711.00, 
1712.00, 
1713.00, 
1714.00, 
1715.00, 
1716.00, 
1717.00, 
1718.00, 
1719.00, 
1720.00, 
1721.00, 
1722.00, 
1723.00, 
1724.00, 
1725.00, 
1726.00, 
1727.00, 
1728.00, 
1729.00, 
1730.00, 
1731.00, 
1732.00, 
1733.00, 
1734.00, 
1735.00, 
1736.00, 
1737.00, 
1738.00, 
1739.00, 
1740.00, 
1741.00, 
1742.00, 
1743.00, 
1744.00, 
1745.00, 
1746.00, 
1747.00, 
1748.00, 
1749.00, 
1750.00, 
1751.00, 
1752.00, 
1753.00, 
1754.00, 
1755.00, 
1756.00, 
1757.00, 
1758.00, 
1759.00, 
1760.00, 
1761.00, 
1762.00, 
1763.00, 
1764.00, 
1765.00, 
1766.00, 
1767.00, 
1768.00, 
1769.00, 
1770.00, 
1771.00, 
1772.00, 
1773.00, 
1774.00, 
1775.00, 
1776.00, 
1777.00, 
1778.00, 
1779.00, 
1780.00, 
1781.00, 
1782.00, 
1783.00, 
1784.00, 
1785.00, 
1786.00, 
1787.00, 
1788.00, 
1789.00, 
1790.00, 
1791.00, 
1792.00, 
1793.00, 
1794.00, 
1795.00, 
1796.00, 
1797.00, 
1798.00, 
1799.00, 
1800.00, 
1801.00, 
1802.00, 
1803.00, 
1804.00, 
1805.00, 
1806.00, 
1807.00, 
1808.00, 
1809.00, 
1810.00, 
1811.00, 
1812.00, 
1813.00, 
1814.00, 
1815.00, 
1816.00, 
1817.00, 
1818.00, 
1819.00, 
1820.00, 
1821.00, 
1822.00, 
1823.00, 
1824.00, 
1825.00, 
1826.00, 
1827.00, 
1828.00, 
1829.00, 
1830.00, 
1831.00, 
1832.00, 
1833.00, 
1834.00, 
1835.00, 
1836.00, 
1837.00, 
1838.00, 
1839.00, 
1840.00, 
1841.00, 
1842.00, 
1843.00, 
1844.00, 
1845.00, 
1846.00, 
1847.00, 
1848.00, 
1849.00, 
1850.00, 
1851.00, 
1852.00, 
1853.00, 
1854.00, 
1855.00, 
1856.00, 
1857.00, 
1858.00, 
1859.00, 
1860.00, 
1861.00, 
1862.00, 
1863.00, 
1864.00, 
1865.00, 
1866.00, 
1867.00, 
1868.00, 
1869.00, 
1870.00, 
1871.00, 
1872.00, 
1873.00, 
1874.00, 
1875.00, 
1876.00, 
1877.00, 
1878.00, 
1879.00, 
1880.00, 
1881.00, 
1882.00, 
1883.00, 
1884.00, 
1885.00, 
1886.00, 
1887.00, 
1888.00, 
1889.00, 
1890.00, 
1891.00, 
1892.00, 
1893.00, 
1894.00, 
1895.00, 
1896.00, 
1897.00, 
1898.00, 
1899.00, 
1900.00, 
1901.00, 
1902.00, 
1903.00, 
1904.00, 
1905.00, 
1906.00, 
1907.00, 
1908.00, 
1909.00, 
1910.00, 
1911.00, 
1912.00, 
1913.00, 
1914.00, 
1915.00, 
1916.00, 
1917.00, 
1918.00, 
1919.00, 
1920.00, 
1921.00, 
1922.00, 
1923.00, 
1924.00, 
1925.00, 
1926.00, 
1927.00, 
1928.00, 
1929.00, 
1930.00, 
1931.00, 
1932.00, 
1933.00, 
1934.00, 
1935.00, 
1936.00, 
1937.00, 
1938.00, 
1939.00, 
1940.00, 
1941.00, 
1942.00, 
1943.00, 
1944.00, 
1945.00, 
1946.00, 
1947.00, 
1948.00, 
1949.00, 
1950.00, 
1951.00, 
1952.00, 
1953.00, 
1954.00, 
1955.00, 
1956.00, 
1957.00, 
1958.00, 
1959.00, 
1960.00, 
1961.00, 
1962.00, 
1963.00, 
1964.00, 
1965.00, 
1966.00, 
1967.00, 
1968.00, 
1969.00, 
1970.00, 
1971.00, 
1972.00, 
1973.00, 
1974.00, 
1975.00, 
1976.00, 
1977.00, 
1978.00, 
1979.00, 
1980.00, 
1981.00, 
1982.00, 
1983.00, 
1984.00, 
1985.00, 
1986.00, 
1987.00, 
1988.00, 
1989.00, 
1990.00, 
1991.00, 
1992.00, 
1993.00, 
1994.00, 
1995.00, 
1996.00, 
1997.00, 
1998.00, 
1999.00, 
2000.00, 
2001.00, 
2002.00, 
2003.00, 
2004.00, 
2005.00, 
2006.00, 
2007.00, 
2008.00, 
2009.00, 
2010.00, 
2011.00, 
2012.00, 
2013.00, 
2014.00, 
2015.00, 
2016.00, 
2017.00, 
2018.00, 
2019.00, 
2020.00, 
2021.00, 
2022.00, 
2023.00, 
2024.00, 
2025.00, 
2026.00, 
2027.00, 
2028.00, 
2029.00, 
2030.00, 
2031.00, 
2032.00, 
2033.00, 
2034.00, 
2035.00, 
2036.00, 
2037.00, 
2038.00, 
2039.00, 
2040.00, 
2041.00, 
2042.00, 
2043.00, 
2044.00, 
2045.00, 
2046.00, 
2047.00, 
2048.00, 
2049.00, 
2050.00, 
2051.00, 
2052.00, 
2053.00, 
2054.00, 
2055.00, 
2056.00, 
2057.00, 
2058.00, 
2059.00, 
2060.00, 
2061.00, 
2062.00, 
2063.00, 
2064.00, 
2065.00, 
2066.00, 
2067.00, 
2068.00, 
2069.00, 
2070.00, 
2071.00, 
2072.00, 
2073.00, 
2074.00, 
2075.00, 
2076.00, 
2077.00, 
2078.00, 
2079.00, 
2080.00, 
2081.00, 
2082.00, 
2083.00, 
2084.00, 
2085.00, 
2086.00, 
2087.00, 
2088.00, 
2089.00, 
2090.00, 
2091.00, 
2092.00, 
2093.00, 
2094.00, 
2095.00, 
2096.00, 
2097.00, 
2098.00, 
2099.00, 
2100.00, 
2101.00, 
2102.00, 
2103.00, 
2104.00, 
2105.00, 
2106.00, 
2107.00, 
2108.00, 
2109.00, 
2110.00, 
2111.00, 
2112.00, 
2113.00, 
2114.00, 
2115.00, 
2116.00, 
2117.00, 
2118.00, 
2119.00, 
2120.00, 
2121.00, 
2122.00, 
2123.00, 
2124.00, 
2125.00, 
2126.00, 
2127.00, 
2128.00, 
2129.00, 
2130.00, 
2131.00, 
2132.00, 
2133.00, 
2134.00, 
2135.00, 
2136.00, 
2137.00, 
2138.00, 
2139.00, 
2140.00, 
2141.00, 
2142.00, 
2143.00, 
2144.00, 
2145.00, 
2146.00, 
2147.00, 
2148.00, 
2149.00, 
2150.00, 
2151.00, 
2152.00, 
2153.00, 
2154.00, 
2155.00, 
2156.00, 
2157.00, 
2158.00, 
2159.00, 
2160.00, 
2161.00, 
2162.00, 
2163.00, 
2164.00, 
2165.00, 
2166.00, 
2167.00, 
2168.00, 
2169.00, 
2170.00, 
2171.00, 
2172.00, 
2173.00, 
2174.00, 
2175.00, 
2176.00, 
2177.00, 
2178.00, 
2179.00, 
2180.00, 
2181.00, 
2182.00, 
2183.00, 
2184.00, 
2185.00, 
2186.00, 
2187.00, 
2188.00, 
2189.00, 
2190.00, 
2191.00, 
2192.00, 
2193.00, 
2194.00, 
2195.00, 
2196.00, 
2197.00, 
2198.00, 
2199.00, 
2200.00, 
2201.00, 
2202.00, 
2203.00, 
2204.00, 
2205.00, 
2206.00, 
2207.00, 
2208.00, 
2209.00, 
2210.00, 
2211.00, 
2212.00, 
2213.00, 
2214.00, 
2215.00, 
2216.00, 
2217.00, 
2218.00, 
2219.00, 
2220.00, 
2221.00, 
2222.00, 
2223.00, 
2224.00, 
2225.00, 
2226.00, 
2227.00, 
2228.00, 
2229.00, 
2230.00, 
2231.00, 
2232.00, 
2233.00, 
2234.00, 
2235.00, 
2236.00, 
2237.00, 
2238.00, 
2239.00, 
2240.00, 
2241.00, 
2242.00, 
2243.00, 
2244.00, 
2245.00, 
2246.00, 
2247.00, 
2248.00, 
2249.00, 
2250.00, 
2251.00, 
2252.00, 
2253.00, 
2254.00, 
2255.00, 
2256.00, 
2257.00, 
2258.00, 
2259.00, 
2260.00, 
2261.00, 
2262.00, 
2263.00, 
2264.00, 
2265.00, 
2266.00, 
2267.00, 
2268.00, 
2269.00, 
2270.00, 
2271.00, 
2272.00, 
2273.00, 
2274.00, 
2275.00, 
2276.00, 
2277.00, 
2278.00, 
2279.00, 
2280.00, 
2281.00, 
2282.00, 
2283.00, 
2284.00, 
2285.00, 
2286.00, 
2287.00, 
2288.00, 
2289.00, 
2290.00, 
2291.00, 
2292.00, 
2293.00, 
2294.00, 
2295.00, 
2296.00, 
2297.00, 
2298.00, 
2299.00, 
2300.00, 
2301.00, 
2302.00, 
2303.00, 
2304.00, 
2305.00, 
2306.00, 
2307.00, 
2308.00, 
2309.00, 
2310.00, 
2311.00, 
2312.00, 
2313.00, 
2314.00, 
2315.00, 
2316.00, 
2317.00, 
2318.00, 
2319.00, 
2320.00, 
2321.00, 
2322.00, 
2323.00, 
2324.00, 
2325.00, 
2326.00, 
2327.00, 
2328.00, 
2329.00, 
2330.00, 
2331.00, 
2332.00, 
2333.00, 
2334.00, 
2335.00, 
2336.00, 
2337.00, 
2338.00, 
2339.00, 
2340.00, 
2341.00, 
2342.00, 
2343.00, 
2344.00, 
2345.00, 
2346.00, 
2347.00, 
2348.00, 
2349.00, 
2350.00, 
2351.00, 
2352.00, 
2353.00, 
2354.00, 
2355.00, 
2356.00, 
2357.00, 
2358.00, 
2359.00, 
2360.00, 
2361.00, 
2362.00, 
2363.00, 
2364.00, 
2365.00, 
2366.00, 
2367.00, 
2368.00, 
2369.00, 
2370.00, 
2371.00, 
2372.00, 
2373.00, 
2374.00, 
2375.00, 
2376.00, 
2377.00, 
2378.00, 
2379.00, 
2380.00, 
2381.00, 
2382.00, 
2383.00, 
2384.00, 
2385.00, 
2386.00, 
2387.00, 
2388.00, 
2389.00, 
2390.00, 
2391.00, 
2392.00, 
2393.00, 
2394.00, 
2395.00, 
2396.00, 
2397.00, 
2398.00, 
2399.00, 
2400.00, 
2401.00, 
2402.00, 
2403.00, 
2404.00, 
2405.00, 
2406.00, 
2407.00, 
2408.00, 
2409.00, 
2410.00, 
2411.00, 
2412.00, 
2413.00, 
2414.00, 
2415.00, 
2416.00, 
2417.00, 
2418.00, 
2419.00, 
2420.00, 
2421.00, 
2422.00, 
2423.00, 
2424.00, 
2425.00, 
2426.00, 
2427.00, 
2428.00, 
2429.00, 
2430.00, 
2431.00, 
2432.00, 
2433.00, 
2434.00, 
2435.00, 
2436.00, 
2437.00, 
2438.00, 
2439.00, 
2440.00, 
2441.00, 
2442.00, 
2443.00, 
2444.00, 
2445.00, 
2446.00, 
2447.00, 
2448.00, 
2449.00, 
2450.00, 
2451.00, 
2452.00, 
2453.00, 
2454.00, 
2455.00, 
2456.00, 
2457.00, 
2458.00, 
2459.00, 
2460.00, 
2461.00, 
2462.00, 
2463.00, 
2464.00, 
2465.00, 
2466.00, 
2467.00, 
2468.00, 
2469.00, 
2470.00, 
2471.00, 
2472.00, 
2473.00, 
2474.00, 
2475.00, 
2476.00, 
2477.00, 
2478.00, 
2479.00, 
2480.00, 
2481.00, 
2482.00, 
2483.00, 
2484.00, 
2485.00, 
2486.00, 
2487.00, 
2488.00, 
2489.00, 
2490.00, 
2491.00, 
2492.00, 
2493.00, 
2494.00, 
2495.00, 
2496.00, 
2497.00, 
2498.00, 
2499.00, 
2500.00, 
2501.00, 
2502.00, 
2503.00, 
2504.00, 
2505.00, 
2506.00, 
2507.00, 
2508.00, 
2509.00, 
2510.00, 
2511.00, 
2512.00, 
2513.00, 
2514.00, 
2515.00, 
2516.00, 
2517.00, 
2518.00, 
2519.00, 
2520.00, 
2521.00, 
2522.00, 
2523.00, 
2524.00, 
2525.00, 
2526.00, 
2527.00, 
2528.00, 
2529.00, 
2530.00, 
2531.00, 
2532.00, 
2533.00, 
2534.00, 
2535.00, 
2536.00, 
2537.00, 
2538.00, 
2539.00, 
2540.00, 
2541.00, 
2542.00, 
2543.00, 
2544.00, 
2545.00, 
2546.00, 
2547.00, 
2548.00, 
2549.00, 
2550.00, 
2551.00, 
2552.00, 
2553.00, 
2554.00, 
2555.00, 
2556.00, 
2557.00, 
2558.00, 
2559.00, 
2560.00, 
2561.00, 
2562.00, 
2563.00, 
2564.00, 
2565.00, 
2566.00, 
2567.00, 
2568.00, 
2569.00, 
2570.00, 
2571.00, 
2572.00, 
2573.00, 
2574.00, 
2575.00, 
2576.00, 
2577.00, 
2578.00, 
2579.00, 
2580.00, 
2581.00, 
2582.00, 
2583.00, 
2584.00, 
2585.00, 
2586.00, 
2587.00, 
2588.00, 
2589.00, 
2590.00, 
2591.00, 
2592.00, 
2593.00, 
2594.00, 
2595.00, 
2596.00, 
2597.00, 
2598.00, 
2599.00, 
2600.00, 
