"2cP1 - RawData"
"Wavelength nm.","T%"
200.00,0.001
201.00,0.000
202.00,0.003
203.00,0.001
204.00,-0.003
205.00,0.001
206.00,-0.002
207.00,0.002
208.00,0.005
209.00,-0.000
210.00,0.000
211.00,0.002
212.00,-0.000
213.00,0.001
214.00,-0.001
215.00,0.001
216.00,0.005
217.00,0.005
218.00,0.001
219.00,-0.000
220.00,0.001
221.00,0.001
222.00,0.001
223.00,0.003
224.00,0.001
225.00,0.000
226.00,-0.000
227.00,-0.002
228.00,0.000
229.00,0.001
230.00,0.002
231.00,0.002
232.00,-0.001
233.00,0.002
234.00,0.001
235.00,0.001
236.00,0.002
237.00,-0.000
238.00,0.000
239.00,0.001
240.00,0.000
241.00,-0.000
242.00,0.001
243.00,0.003
244.00,-0.000
245.00,-0.001
246.00,0.001
247.00,0.002
248.00,0.001
249.00,0.001
250.00,-0.000
251.00,0.001
252.00,0.001
253.00,0.000
254.00,-0.000
255.00,0.001
256.00,0.000
257.00,-0.001
258.00,-0.001
259.00,-0.001
260.00,-0.000
261.00,0.001
262.00,-0.000
263.00,-0.000
264.00,0.002
265.00,-0.001
266.00,-0.000
267.00,0.001
268.00,0.000
269.00,-0.000
270.00,0.001
271.00,-0.001
272.00,-0.001
273.00,0.001
274.00,-0.000
275.00,0.001
276.00,-0.000
277.00,0.001
278.00,-0.000
279.00,-0.002
280.00,-0.001
281.00,-0.000
282.00,-0.000
283.00,0.002
284.00,0.001
285.00,0.001
286.00,0.002
287.00,0.001
288.00,0.001
289.00,0.002
290.00,-0.000
291.00,-0.001
292.00,0.002
293.00,-0.001
294.00,-0.001
295.00,-0.001
296.00,-0.001
297.00,0.001
298.00,0.001
299.00,0.002
300.00,0.002
301.00,0.004
302.00,0.003
303.00,0.005
304.00,0.009
305.00,0.017
306.00,0.026
307.00,0.038
308.00,0.061
309.00,0.099
310.00,0.133
311.00,0.185
312.00,0.248
313.00,0.335
314.00,0.444
315.00,0.579
316.00,0.723
317.00,0.930
318.00,1.142
319.00,1.420
320.00,1.720
321.00,2.070
322.00,2.441
323.00,2.887
324.00,3.327
325.00,3.799
326.00,4.289
327.00,4.849
328.00,5.441
329.00,6.000
330.00,6.609
331.00,7.234
332.00,7.857
333.00,8.522
334.00,9.144
335.00,9.805
336.00,10.436
337.00,11.080
338.00,11.700
339.00,12.270
340.00,12.926
341.00,13.475
342.00,14.042
343.00,14.584
344.00,15.117
345.00,15.531
346.00,16.005
347.00,16.490
348.00,16.870
349.00,17.270
350.00,17.611
351.00,17.960
352.00,18.293
353.00,18.593
354.00,18.879
355.00,19.140
356.00,19.409
357.00,19.639
358.00,19.883
359.00,20.049
360.00,20.235
361.00,20.400
362.00,20.575
363.00,20.717
364.00,20.838
365.00,20.917
366.00,21.050
367.00,21.124
368.00,21.198
369.00,21.214
370.00,21.308
371.00,21.334
372.00,21.339
373.00,21.315
374.00,21.336
375.00,21.311
376.00,21.328
377.00,21.282
378.00,21.232
379.00,21.181
380.00,21.178
381.00,21.129
382.00,21.137
383.00,21.152
384.00,21.161
385.00,21.216
386.00,21.211
387.00,21.267
388.00,21.310
389.00,21.321
390.00,21.351
391.00,21.380
392.00,21.391
393.00,21.421
394.00,21.450
395.00,21.453
396.00,21.411
397.00,21.462
398.00,21.456
399.00,21.435
400.00,21.464
401.00,21.442
402.00,21.469
403.00,21.436
404.00,21.423
405.00,21.379
406.00,21.429
407.00,21.401
408.00,21.365
409.00,21.349
410.00,21.295
411.00,21.288
412.00,21.282
413.00,21.304
414.00,21.327
415.00,21.408
416.00,21.343
417.00,21.316
418.00,21.352
419.00,21.362
420.00,21.379
421.00,21.444
422.00,21.500
423.00,21.511
424.00,21.516
425.00,21.549
426.00,21.597
427.00,21.653
428.00,21.688
429.00,21.717
430.00,21.742
431.00,21.785
432.00,21.847
433.00,21.909
434.00,21.934
435.00,22.002
436.00,22.085
437.00,22.127
438.00,22.198
439.00,22.260
440.00,22.326
441.00,22.406
442.00,22.487
443.00,22.517
444.00,22.622
445.00,22.717
446.00,22.808
447.00,22.905
448.00,22.973
449.00,23.089
450.00,23.205
451.00,23.285
452.00,23.378
453.00,23.523
454.00,23.594
455.00,23.725
456.00,23.823
457.00,23.924
458.00,24.007
459.00,24.111
460.00,24.269
461.00,24.359
462.00,24.497
463.00,24.601
464.00,24.758
465.00,24.849
466.00,24.950
467.00,25.095
468.00,25.194
469.00,25.312
470.00,25.403
471.00,25.523
472.00,25.665
473.00,25.725
474.00,25.810
475.00,25.941
476.00,26.061
477.00,26.176
478.00,26.272
479.00,26.407
480.00,26.541
481.00,26.742
482.00,26.896
483.00,27.033
484.00,27.173
485.00,27.333
486.00,27.483
487.00,27.627
488.00,27.743
489.00,27.921
490.00,28.048
491.00,28.164
492.00,28.373
493.00,28.471
494.00,28.524
495.00,28.665
496.00,28.782
497.00,28.890
498.00,29.056
499.00,29.191
500.00,29.213
501.00,29.448
502.00,29.574
503.00,29.688
504.00,29.783
505.00,29.876
506.00,30.062
507.00,30.255
508.00,30.334
509.00,30.435
510.00,30.555
511.00,30.682
512.00,30.808
513.00,30.954
514.00,31.054
515.00,31.179
516.00,31.279
517.00,31.368
518.00,31.528
519.00,31.570
520.00,31.731
521.00,31.768
522.00,31.889
523.00,31.941
524.00,32.043
525.00,32.164
526.00,32.237
527.00,32.328
528.00,32.382
529.00,32.508
530.00,32.603
531.00,32.799
532.00,32.884
533.00,32.980
534.00,33.041
535.00,33.146
536.00,33.266
537.00,33.294
538.00,33.416
539.00,33.475
540.00,33.539
541.00,33.631
542.00,33.724
543.00,33.788
544.00,33.832
545.00,33.930
546.00,33.988
547.00,34.046
548.00,34.154
549.00,34.193
550.00,34.258
551.00,34.385
552.00,34.472
553.00,34.546
554.00,34.644
555.00,34.724
556.00,34.761
557.00,34.818
558.00,34.857
559.00,34.931
560.00,34.998
561.00,35.050
562.00,35.138
563.00,35.169
564.00,35.198
565.00,35.254
566.00,35.287
567.00,35.346
568.00,35.375
569.00,35.457
570.00,35.466
571.00,35.547
572.00,35.564
573.00,35.644
574.00,35.685
575.00,35.749
576.00,35.747
577.00,35.832
578.00,35.903
579.00,35.957
580.00,36.032
581.00,36.142
582.00,36.209
583.00,36.283
584.00,36.389
585.00,36.390
586.00,36.448
587.00,36.512
588.00,36.612
589.00,36.635
590.00,36.614
591.00,36.707
592.00,36.708
593.00,36.722
594.00,36.752
595.00,36.792
596.00,36.853
597.00,37.007
598.00,37.052
599.00,37.126
600.00,37.177
601.00,37.220
602.00,37.262
603.00,37.351
604.00,37.369
605.00,37.420
606.00,37.498
607.00,37.483
608.00,37.611
609.00,37.602
610.00,37.637
611.00,37.672
612.00,37.663
613.00,37.783
614.00,37.821
615.00,37.877
616.00,37.974
617.00,38.023
618.00,38.083
619.00,38.115
620.00,38.148
621.00,38.237
622.00,38.347
623.00,38.351
624.00,38.351
625.00,38.458
626.00,38.506
627.00,38.590
628.00,38.705
629.00,38.731
630.00,38.769
631.00,38.818
632.00,38.888
633.00,38.962
634.00,39.050
635.00,39.159
636.00,39.240
637.00,39.317
638.00,39.377
639.00,39.487
640.00,39.482
641.00,39.564
642.00,39.624
643.00,39.727
644.00,39.777
645.00,39.876
646.00,39.987
647.00,39.953
648.00,40.064
649.00,40.187
650.00,40.172
651.00,40.364
652.00,40.360
653.00,40.467
654.00,40.603
655.00,40.631
656.00,40.743
657.00,40.880
658.00,40.881
659.00,41.116
660.00,41.096
661.00,41.144
662.00,41.310
663.00,41.394
664.00,41.476
665.00,41.557
666.00,41.729
667.00,41.835
668.00,41.738
669.00,41.944
670.00,42.066
671.00,42.128
672.00,42.137
673.00,42.356
674.00,42.412
675.00,42.447
676.00,42.716
677.00,42.652
678.00,42.657
679.00,42.836
680.00,42.920
681.00,42.938
682.00,43.101
683.00,43.212
684.00,43.333
685.00,43.382
686.00,43.442
687.00,43.583
688.00,43.604
689.00,43.665
690.00,43.717
691.00,43.861
692.00,44.046
693.00,44.056
694.00,44.137
695.00,44.241
696.00,44.347
697.00,44.466
698.00,44.611
699.00,44.715
700.00,44.639
701.00,44.737
702.00,44.956
703.00,44.985
704.00,45.076
705.00,45.053
706.00,45.214
707.00,45.240
708.00,45.204
709.00,45.509
710.00,45.592
711.00,45.436
712.00,45.546
713.00,45.686
714.00,45.713
715.00,45.822
716.00,45.833
717.00,45.972
718.00,45.908
719.00,46.129
720.00,46.054
721.00,50.148
722.00,50.260
723.00,50.268
724.00,50.293
725.00,50.196
726.00,50.334
727.00,50.356
728.00,50.361
729.00,50.391
730.00,50.440
731.00,50.463
732.00,50.520
733.00,50.498
734.00,50.567
735.00,50.576
736.00,50.646
737.00,50.692
738.00,50.725
739.00,50.728
740.00,50.750
741.00,50.852
742.00,50.785
743.00,50.863
744.00,50.816
745.00,50.872
746.00,50.827
747.00,50.932
748.00,50.837
749.00,50.861
750.00,50.849
751.00,50.838
752.00,50.929
753.00,50.825
754.00,50.889
755.00,50.944
756.00,50.926
757.00,50.886
758.00,50.920
759.00,50.962
760.00,51.037
761.00,51.005
762.00,50.987
763.00,51.074
764.00,51.081
765.00,51.060
766.00,51.046
767.00,51.148
768.00,51.102
769.00,51.132
770.00,51.165
771.00,51.137
772.00,51.192
773.00,51.179
774.00,51.216
775.00,51.166
776.00,51.171
777.00,51.176
778.00,51.254
779.00,51.270
780.00,51.208
781.00,51.256
782.00,51.233
783.00,51.194
784.00,51.235
785.00,51.216
786.00,51.199
787.00,51.222
788.00,51.161
789.00,51.210
790.00,51.099
791.00,51.181
792.00,51.235
793.00,51.100
794.00,51.197
795.00,51.134
796.00,51.169
797.00,51.080
798.00,51.080
799.00,51.111
800.00,51.061
801.00,51.096
802.00,51.069
803.00,51.102
804.00,51.034
805.00,51.091
806.00,51.098
807.00,51.048
808.00,50.971
809.00,51.024
810.00,51.014
811.00,50.978
812.00,51.029
813.00,50.860
814.00,50.965
815.00,50.949
816.00,50.944
817.00,50.920
818.00,50.886
819.00,50.812
820.00,50.795
821.00,50.894
822.00,50.864
823.00,50.786
824.00,50.777
825.00,50.972
826.00,50.819
827.00,50.814
828.00,50.761
829.00,50.740
830.00,50.914
831.00,53.314
832.00,53.285
833.00,53.271
834.00,53.226
835.00,53.196
836.00,53.204
837.00,53.178
838.00,53.107
839.00,53.135
840.00,53.087
841.00,53.080
842.00,53.095
843.00,53.072
844.00,53.070
845.00,53.047
846.00,53.033
847.00,53.036
848.00,52.968
849.00,52.947
850.00,52.896
851.00,52.856
852.00,52.845
853.00,52.800
854.00,52.803
855.00,52.736
856.00,52.771
857.00,52.718
858.00,52.717
859.00,52.649
860.00,52.647
861.00,52.632
862.00,52.584
863.00,52.616
864.00,52.574
865.00,52.595
866.00,52.559
867.00,52.550
868.00,52.547
869.00,52.539
870.00,52.491
871.00,52.536
872.00,52.507
873.00,52.477
874.00,52.486
875.00,52.489
876.00,52.495
877.00,52.486
878.00,52.414
879.00,52.607
880.00,52.421
881.00,52.404
882.00,52.429
883.00,52.386
884.00,52.335
885.00,52.335
886.00,52.310
887.00,52.278
888.00,52.277
889.00,52.238
890.00,52.246
891.00,52.222
892.00,52.231
893.00,52.072
894.00,52.195
895.00,52.133
896.00,52.118
897.00,52.108
898.00,52.085
899.00,52.051
900.00,52.071
901.00,52.050
902.00,52.048
903.00,52.031
904.00,52.033
905.00,51.994
906.00,51.986
907.00,51.957
908.00,51.930
909.00,51.931
910.00,51.886
911.00,51.898
912.00,51.885
913.00,51.843
914.00,51.810
915.00,51.786
916.00,51.859
917.00,51.699
918.00,51.772
919.00,51.748
920.00,51.697
921.00,51.685
922.00,51.679
923.00,51.641
924.00,51.622
925.00,51.599
926.00,51.596
927.00,51.587
928.00,51.543
929.00,51.552
930.00,51.525
931.00,51.507
932.00,51.477
933.00,51.467
934.00,51.461
935.00,51.434
936.00,51.414
937.00,51.418
938.00,51.391
939.00,51.389
940.00,51.352
941.00,51.343
942.00,51.298
943.00,51.309
944.00,51.264
945.00,51.242
946.00,51.262
947.00,51.243
948.00,51.210
949.00,51.180
950.00,51.187
951.00,51.156
952.00,51.115
953.00,51.083
954.00,51.069
955.00,51.030
956.00,51.019
957.00,50.982
958.00,50.993
959.00,50.948
960.00,50.937
961.00,50.920
962.00,50.933
963.00,50.882
964.00,50.868
965.00,50.861
966.00,50.861
967.00,50.839
968.00,50.832
969.00,50.862
970.00,50.803
971.00,50.859
972.00,50.813
973.00,50.829
974.00,50.850
975.00,50.812
976.00,50.849
977.00,50.813
978.00,50.853
979.00,50.803
980.00,50.840
981.00,50.852
982.00,50.809
983.00,50.812
984.00,50.793
985.00,50.811
986.00,50.801
987.00,50.793
988.00,50.769
989.00,50.759
990.00,50.771
991.00,50.732
992.00,50.751
993.00,50.738
994.00,50.715
995.00,50.709
996.00,50.686
997.00,50.680
998.00,50.648
999.00,50.663
1000.00,50.617
1001.00,50.637
1002.00,50.615
1003.00,50.599
1004.00,50.586
1005.00,50.549
1006.00,50.585
1007.00,50.552
1008.00,50.532
1009.00,50.528
1010.00,50.497
1011.00,50.521
1012.00,50.471
1013.00,50.474
1014.00,50.452
1015.00,50.455
1016.00,50.405
1017.00,50.406
1018.00,50.391
1019.00,50.353
1020.00,50.359
1021.00,50.345
1022.00,50.333
1023.00,50.293
1024.00,50.292
1025.00,50.288
1026.00,50.272
1027.00,50.246
1028.00,50.247
1029.00,50.233
1030.00,50.189
1031.00,50.210
1032.00,50.208
1033.00,50.166
1034.00,50.139
1035.00,50.108
1036.00,50.091
1037.00,50.072
1038.00,50.055
1039.00,50.027
1040.00,50.017
1041.00,49.977
1042.00,49.985
1043.00,49.937
1044.00,49.975
1045.00,49.965
1046.00,49.972
1047.00,49.999
1048.00,49.986
1049.00,49.992
1050.00,50.002
1051.00,50.016
1052.00,50.032
1053.00,50.036
1054.00,50.025
1055.00,50.041
1056.00,50.055
1057.00,50.058
1058.00,50.050
1059.00,50.045
1060.00,50.089
1061.00,50.050
1062.00,50.032
1063.00,50.031
1064.00,50.024
1065.00,50.018
1066.00,50.015
1067.00,49.989
1068.00,49.997
1069.00,49.962
1070.00,49.950
1071.00,49.921
1072.00,49.941
1073.00,49.918
1074.00,49.925
1075.00,49.912
1076.00,49.900
1077.00,49.888
1078.00,49.873
1079.00,49.864
1080.00,49.874
1081.00,49.850
1082.00,49.849
1083.00,49.825
1084.00,49.824
1085.00,49.808
1086.00,49.812
1087.00,49.821
1088.00,49.779
1089.00,49.751
1090.00,49.765
1091.00,49.779
1092.00,49.776
1093.00,49.783
1094.00,49.739
1095.00,49.736
1096.00,49.717
1097.00,49.704
1098.00,49.700
1099.00,49.680
1100.00,49.665
1101.00,49.649
1102.00,49.659
1103.00,49.658
1104.00,49.633
1105.00,49.629
1106.00,49.614
1107.00,49.602
1108.00,49.621
1109.00,49.589
1110.00,49.585
1111.00,49.578
1112.00,49.573
1113.00,49.566
1114.00,49.562
1115.00,49.549
1116.00,49.544
1117.00,49.520
1118.00,49.511
1119.00,49.513
1120.00,49.503
1121.00,49.501
1122.00,49.503
1123.00,49.485
1124.00,49.492
1125.00,49.460
1126.00,49.457
1127.00,49.464
1128.00,49.452
1129.00,49.422
1130.00,49.426
1131.00,49.420
1132.00,49.412
1133.00,49.416
1134.00,49.401
1135.00,49.388
1136.00,49.403
1137.00,49.382
1138.00,49.389
1139.00,49.386
1140.00,49.365
1141.00,49.366
1142.00,49.361
1143.00,49.365
1144.00,49.342
1145.00,49.332
1146.00,49.352
1147.00,49.329
1148.00,49.315
1149.00,49.332
1150.00,49.325
1151.00,49.320
1152.00,49.323
1153.00,49.305
1154.00,49.292
1155.00,49.304
1156.00,49.294
1157.00,49.307
1158.00,49.292
1159.00,49.270
1160.00,49.277
1161.00,49.283
1162.00,49.258
1163.00,49.269
1164.00,49.265
1165.00,49.260
1166.00,49.262
1167.00,49.254
1168.00,49.274
1169.00,49.261
1170.00,49.259
1171.00,49.248
1172.00,49.252
1173.00,49.234
1174.00,49.253
1175.00,49.239
1176.00,49.243
1177.00,49.233
1178.00,49.232
1179.00,49.240
1180.00,49.224
1181.00,49.232
1182.00,49.232
1183.00,49.221
1184.00,49.215
1185.00,49.239
1186.00,49.213
1187.00,49.224
1188.00,49.214
1189.00,49.211
1190.00,49.224
1191.00,49.207
1192.00,49.214
1193.00,49.203
1194.00,49.218
1195.00,49.174
1196.00,49.195
1197.00,49.194
1198.00,49.192
1199.00,49.204
1200.00,49.205
1201.00,49.203
1202.00,49.187
1203.00,49.193
1204.00,49.193
1205.00,49.199
1206.00,49.175
1207.00,49.191
1208.00,49.167
1209.00,49.166
1210.00,49.173
1211.00,49.163
1212.00,49.181
1213.00,49.150
1214.00,49.174
1215.00,49.167
1216.00,49.160
1217.00,49.168
1218.00,49.170
1219.00,49.185
1220.00,49.161
1221.00,49.174
1222.00,49.158
1223.00,49.186
1224.00,49.173
1225.00,49.155
1226.00,49.162
1227.00,49.142
1228.00,49.156
1229.00,49.168
1230.00,49.204
1231.00,49.186
1232.00,49.214
1233.00,49.201
1234.00,49.221
1235.00,49.204
1236.00,49.197
1237.00,49.200
1238.00,49.203
1239.00,49.191
1240.00,49.193
1241.00,49.197
1242.00,49.200
1243.00,49.213
1244.00,49.202
1245.00,49.239
1246.00,49.238
1247.00,49.216
1248.00,49.216
1249.00,49.217
1250.00,49.216
1251.00,49.222
1252.00,49.233
1253.00,49.218
1254.00,49.241
1255.00,49.241
1256.00,49.217
1257.00,49.201
1258.00,49.255
1259.00,49.249
1260.00,49.285
1261.00,49.281
1262.00,49.257
1263.00,49.248
1264.00,49.263
1265.00,49.271
1266.00,49.256
1267.00,49.278
1268.00,49.289
1269.00,49.262
1270.00,49.289
1271.00,49.289
1272.00,49.278
1273.00,49.293
1274.00,49.303
1275.00,49.313
1276.00,49.306
1277.00,49.298
1278.00,49.325
1279.00,49.312
1280.00,49.306
1281.00,49.329
1282.00,49.329
1283.00,49.311
1284.00,49.331
1285.00,49.319
1286.00,49.337
1287.00,49.321
1288.00,49.329
1289.00,49.339
1290.00,49.350
1291.00,49.343
1292.00,49.363
1293.00,49.355
1294.00,49.363
1295.00,49.378
1296.00,49.371
1297.00,49.379
1298.00,49.403
1299.00,49.372
1300.00,49.390
1301.00,49.398
1302.00,49.385
1303.00,49.414
1304.00,49.395
1305.00,49.413
1306.00,49.423
1307.00,49.437
1308.00,49.442
1309.00,49.443
1310.00,49.446
1311.00,49.452
1312.00,49.440
1313.00,49.431
1314.00,49.455
1315.00,49.450
1316.00,49.438
1317.00,49.479
1318.00,49.459
1319.00,49.463
1320.00,49.498
1321.00,49.648
1322.00,49.684
1323.00,49.664
1324.00,49.642
1325.00,49.641
1326.00,49.670
1327.00,49.650
1328.00,49.662
1329.00,49.664
1330.00,49.656
1331.00,49.663
1332.00,49.646
1333.00,49.666
1334.00,49.689
1335.00,49.689
1336.00,49.738
1337.00,49.761
1338.00,49.811
1339.00,49.868
1340.00,49.915
1341.00,49.973
1342.00,50.049
1343.00,50.096
1344.00,50.143
1345.00,50.198
1346.00,50.226
1347.00,50.268
1348.00,50.277
1349.00,50.304
1350.00,50.322
1351.00,50.326
1352.00,50.331
1353.00,50.376
1354.00,50.344
1355.00,50.321
1356.00,50.363
1357.00,50.339
1358.00,50.376
1359.00,50.397
1360.00,50.425
1361.00,50.304
1362.00,50.354
1363.00,50.438
1364.00,50.356
1365.00,50.360
1366.00,50.436
1367.00,50.381
1368.00,50.303
1369.00,50.370
1370.00,50.347
1371.00,50.304
1372.00,50.331
1373.00,50.326
1374.00,50.358
1375.00,50.343
1376.00,50.321
1377.00,50.312
1378.00,50.525
1379.00,50.298
1380.00,50.344
1381.00,50.356
1382.00,50.268
1383.00,50.327
1384.00,50.280
1385.00,50.246
1386.00,50.357
1387.00,50.277
1388.00,50.265
1389.00,50.283
1390.00,50.305
1391.00,50.281
1392.00,50.303
1393.00,50.315
1394.00,50.281
1395.00,50.223
1396.00,50.368
1397.00,50.365
1398.00,50.325
1399.00,50.295
1400.00,50.288
1401.00,50.292
1402.00,50.350
1403.00,50.328
1404.00,50.314
1405.00,50.339
1406.00,50.324
1407.00,50.352
1408.00,50.336
1409.00,50.338
1410.00,50.369
1411.00,50.368
1412.00,50.393
1413.00,50.323
1414.00,50.356
1415.00,50.393
1416.00,50.434
1417.00,50.428
1418.00,50.426
1419.00,50.404
1420.00,50.437
1421.00,50.476
1422.00,50.482
1423.00,50.468
1424.00,50.503
1425.00,50.513
1426.00,50.521
1427.00,50.539
1428.00,50.541
1429.00,50.563
1430.00,50.568
1431.00,50.574
1432.00,50.605
1433.00,50.618
1434.00,50.603
1435.00,50.667
1436.00,50.672
1437.00,50.661
1438.00,50.672
1439.00,50.701
1440.00,50.712
1441.00,50.726
1442.00,50.729
1443.00,50.776
1444.00,50.795
1445.00,50.753
1446.00,50.794
1447.00,50.821
1448.00,50.830
1449.00,50.848
1450.00,50.835
1451.00,50.866
1452.00,50.872
1453.00,50.888
1454.00,50.893
1455.00,50.921
1456.00,50.963
1457.00,50.949
1458.00,50.959
1459.00,50.972
1460.00,51.003
1461.00,51.000
1462.00,51.026
1463.00,51.055
1464.00,51.046
1465.00,51.069
1466.00,51.071
1467.00,51.079
1468.00,51.123
1469.00,51.124
1470.00,51.109
1471.00,51.147
1472.00,51.147
1473.00,51.160
1474.00,51.202
1475.00,51.180
1476.00,51.209
1477.00,51.201
1478.00,51.211
1479.00,51.240
1480.00,51.236
1481.00,51.224
1482.00,51.273
1483.00,51.280
1484.00,51.279
1485.00,51.319
1486.00,51.294
1487.00,51.339
1488.00,51.362
1489.00,51.320
1490.00,51.362
1491.00,51.360
1492.00,51.369
1493.00,51.382
1494.00,51.384
1495.00,51.391
1496.00,51.401
1497.00,51.398
1498.00,51.417
1499.00,51.432
1500.00,51.436
1501.00, 
1502.00, 
1503.00, 
1504.00, 
1505.00, 
1506.00, 
1507.00, 
1508.00, 
1509.00, 
1510.00, 
1511.00, 
1512.00, 
1513.00, 
1514.00, 
1515.00, 
1516.00, 
1517.00, 
1518.00, 
1519.00, 
1520.00, 
1521.00, 
1522.00, 
1523.00, 
1524.00, 
1525.00, 
1526.00, 
1527.00, 
1528.00, 
1529.00, 
1530.00, 
1531.00, 
1532.00, 
1533.00, 
1534.00, 
1535.00, 
1536.00, 
1537.00, 
1538.00, 
1539.00, 
1540.00, 
1541.00, 
1542.00, 
1543.00, 
1544.00, 
1545.00, 
1546.00, 
1547.00, 
1548.00, 
1549.00, 
1550.00, 
1551.00, 
1552.00, 
1553.00, 
1554.00, 
1555.00, 
1556.00, 
1557.00, 
1558.00, 
1559.00, 
1560.00, 
1561.00, 
1562.00, 
1563.00, 
1564.00, 
1565.00, 
1566.00, 
1567.00, 
1568.00, 
1569.00, 
1570.00, 
1571.00, 
1572.00, 
1573.00, 
1574.00, 
1575.00, 
1576.00, 
1577.00, 
1578.00, 
1579.00, 
1580.00, 
1581.00, 
1582.00, 
1583.00, 
1584.00, 
1585.00, 
1586.00, 
1587.00, 
1588.00, 
1589.00, 
1590.00, 
1591.00, 
1592.00, 
1593.00, 
1594.00, 
1595.00, 
1596.00, 
1597.00, 
1598.00, 
1599.00, 
1600.00, 
1601.00, 
1602.00, 
1603.00, 
1604.00, 
1605.00, 
1606.00, 
1607.00, 
1608.00, 
1609.00, 
1610.00, 
1611.00, 
1612.00, 
1613.00, 
1614.00, 
1615.00, 
1616.00, 
1617.00, 
1618.00, 
1619.00, 
1620.00, 
1621.00, 
1622.00, 
1623.00, 
1624.00, 
1625.00, 
1626.00, 
1627.00, 
1628.00, 
1629.00, 
1630.00, 
1631.00, 
1632.00, 
1633.00, 
1634.00, 
1635.00, 
1636.00, 
1637.00, 
1638.00, 
1639.00, 
1640.00, 
1641.00, 
1642.00, 
1643.00, 
1644.00, 
1645.00, 
1646.00, 
1647.00, 
1648.00, 
1649.00, 
1650.00, 
1651.00, 
1652.00, 
1653.00, 
1654.00, 
1655.00, 
1656.00, 
1657.00, 
1658.00, 
1659.00, 
1660.00, 
1661.00, 
1662.00, 
1663.00, 
1664.00, 
1665.00, 
1666.00, 
1667.00, 
1668.00, 
1669.00, 
1670.00, 
1671.00, 
1672.00, 
1673.00, 
1674.00, 
1675.00, 
1676.00, 
1677.00, 
1678.00, 
1679.00, 
1680.00, 
1681.00, 
1682.00, 
1683.00, 
1684.00, 
1685.00, 
1686.00, 
1687.00, 
1688.00, 
1689.00, 
1690.00, 
1691.00, 
1692.00, 
1693.00, 
1694.00, 
1695.00, 
1696.00, 
1697.00, 
1698.00, 
1699.00, 
1700.00, 
1701.00, 
1702.00, 
1703.00, 
1704.00, 
1705.00, 
1706.00, 
1707.00, 
1708.00, 
1709.00, 
1710.00, 
1711.00, 
1712.00, 
1713.00, 
1714.00, 
1715.00, 
1716.00, 
1717.00, 
1718.00, 
1719.00, 
1720.00, 
1721.00, 
1722.00, 
1723.00, 
1724.00, 
1725.00, 
1726.00, 
1727.00, 
1728.00, 
1729.00, 
1730.00, 
1731.00, 
1732.00, 
1733.00, 
1734.00, 
1735.00, 
1736.00, 
1737.00, 
1738.00, 
1739.00, 
1740.00, 
1741.00, 
1742.00, 
1743.00, 
1744.00, 
1745.00, 
1746.00, 
1747.00, 
1748.00, 
1749.00, 
1750.00, 
1751.00, 
1752.00, 
1753.00, 
1754.00, 
1755.00, 
1756.00, 
1757.00, 
1758.00, 
1759.00, 
1760.00, 
1761.00, 
1762.00, 
1763.00, 
1764.00, 
1765.00, 
1766.00, 
1767.00, 
1768.00, 
1769.00, 
1770.00, 
1771.00, 
1772.00, 
1773.00, 
1774.00, 
1775.00, 
1776.00, 
1777.00, 
1778.00, 
1779.00, 
1780.00, 
1781.00, 
1782.00, 
1783.00, 
1784.00, 
1785.00, 
1786.00, 
1787.00, 
1788.00, 
1789.00, 
1790.00, 
1791.00, 
1792.00, 
1793.00, 
1794.00, 
1795.00, 
1796.00, 
1797.00, 
1798.00, 
1799.00, 
1800.00, 
1801.00, 
1802.00, 
1803.00, 
1804.00, 
1805.00, 
1806.00, 
1807.00, 
1808.00, 
1809.00, 
1810.00, 
1811.00, 
1812.00, 
1813.00, 
1814.00, 
1815.00, 
1816.00, 
1817.00, 
1818.00, 
1819.00, 
1820.00, 
1821.00, 
1822.00, 
1823.00, 
1824.00, 
1825.00, 
1826.00, 
1827.00, 
1828.00, 
1829.00, 
1830.00, 
1831.00, 
1832.00, 
1833.00, 
1834.00, 
1835.00, 
1836.00, 
1837.00, 
1838.00, 
1839.00, 
1840.00, 
1841.00, 
1842.00, 
1843.00, 
1844.00, 
1845.00, 
1846.00, 
1847.00, 
1848.00, 
1849.00, 
1850.00, 
1851.00, 
1852.00, 
1853.00, 
1854.00, 
1855.00, 
1856.00, 
1857.00, 
1858.00, 
1859.00, 
1860.00, 
1861.00, 
1862.00, 
1863.00, 
1864.00, 
1865.00, 
1866.00, 
1867.00, 
1868.00, 
1869.00, 
1870.00, 
1871.00, 
1872.00, 
1873.00, 
1874.00, 
1875.00, 
1876.00, 
1877.00, 
1878.00, 
1879.00, 
1880.00, 
1881.00, 
1882.00, 
1883.00, 
1884.00, 
1885.00, 
1886.00, 
1887.00, 
1888.00, 
1889.00, 
1890.00, 
1891.00, 
1892.00, 
1893.00, 
1894.00, 
1895.00, 
1896.00, 
1897.00, 
1898.00, 
1899.00, 
1900.00, 
1901.00, 
1902.00, 
1903.00, 
1904.00, 
1905.00, 
1906.00, 
1907.00, 
1908.00, 
1909.00, 
1910.00, 
1911.00, 
1912.00, 
1913.00, 
1914.00, 
1915.00, 
1916.00, 
1917.00, 
1918.00, 
1919.00, 
1920.00, 
1921.00, 
1922.00, 
1923.00, 
1924.00, 
1925.00, 
1926.00, 
1927.00, 
1928.00, 
1929.00, 
1930.00, 
1931.00, 
1932.00, 
1933.00, 
1934.00, 
1935.00, 
1936.00, 
1937.00, 
1938.00, 
1939.00, 
1940.00, 
1941.00, 
1942.00, 
1943.00, 
1944.00, 
1945.00, 
1946.00, 
1947.00, 
1948.00, 
1949.00, 
1950.00, 
1951.00, 
1952.00, 
1953.00, 
1954.00, 
1955.00, 
1956.00, 
1957.00, 
1958.00, 
1959.00, 
1960.00, 
1961.00, 
1962.00, 
1963.00, 
1964.00, 
1965.00, 
1966.00, 
1967.00, 
1968.00, 
1969.00, 
1970.00, 
1971.00, 
1972.00, 
1973.00, 
1974.00, 
1975.00, 
1976.00, 
1977.00, 
1978.00, 
1979.00, 
1980.00, 
1981.00, 
1982.00, 
1983.00, 
1984.00, 
1985.00, 
1986.00, 
1987.00, 
1988.00, 
1989.00, 
1990.00, 
1991.00, 
1992.00, 
1993.00, 
1994.00, 
1995.00, 
1996.00, 
1997.00, 
1998.00, 
1999.00, 
2000.00, 
2001.00, 
2002.00, 
2003.00, 
2004.00, 
2005.00, 
2006.00, 
2007.00, 
2008.00, 
2009.00, 
2010.00, 
2011.00, 
2012.00, 
2013.00, 
2014.00, 
2015.00, 
2016.00, 
2017.00, 
2018.00, 
2019.00, 
2020.00, 
2021.00, 
2022.00, 
2023.00, 
2024.00, 
2025.00, 
2026.00, 
2027.00, 
2028.00, 
2029.00, 
2030.00, 
2031.00, 
2032.00, 
2033.00, 
2034.00, 
2035.00, 
2036.00, 
2037.00, 
2038.00, 
2039.00, 
2040.00, 
2041.00, 
2042.00, 
2043.00, 
2044.00, 
2045.00, 
2046.00, 
2047.00, 
2048.00, 
2049.00, 
2050.00, 
2051.00, 
2052.00, 
2053.00, 
2054.00, 
2055.00, 
2056.00, 
2057.00, 
2058.00, 
2059.00, 
2060.00, 
2061.00, 
2062.00, 
2063.00, 
2064.00, 
2065.00, 
2066.00, 
2067.00, 
2068.00, 
2069.00, 
2070.00, 
2071.00, 
2072.00, 
2073.00, 
2074.00, 
2075.00, 
2076.00, 
2077.00, 
2078.00, 
2079.00, 
2080.00, 
2081.00, 
2082.00, 
2083.00, 
2084.00, 
2085.00, 
2086.00, 
2087.00, 
2088.00, 
2089.00, 
2090.00, 
2091.00, 
2092.00, 
2093.00, 
2094.00, 
2095.00, 
2096.00, 
2097.00, 
2098.00, 
2099.00, 
2100.00, 
2101.00, 
2102.00, 
2103.00, 
2104.00, 
2105.00, 
2106.00, 
2107.00, 
2108.00, 
2109.00, 
2110.00, 
2111.00, 
2112.00, 
2113.00, 
2114.00, 
2115.00, 
2116.00, 
2117.00, 
2118.00, 
2119.00, 
2120.00, 
2121.00, 
2122.00, 
2123.00, 
2124.00, 
2125.00, 
2126.00, 
2127.00, 
2128.00, 
2129.00, 
2130.00, 
2131.00, 
2132.00, 
2133.00, 
2134.00, 
2135.00, 
2136.00, 
2137.00, 
2138.00, 
2139.00, 
2140.00, 
2141.00, 
2142.00, 
2143.00, 
2144.00, 
2145.00, 
2146.00, 
2147.00, 
2148.00, 
2149.00, 
2150.00, 
2151.00, 
2152.00, 
2153.00, 
2154.00, 
2155.00, 
2156.00, 
2157.00, 
2158.00, 
2159.00, 
2160.00, 
2161.00, 
2162.00, 
2163.00, 
2164.00, 
2165.00, 
2166.00, 
2167.00, 
2168.00, 
2169.00, 
2170.00, 
2171.00, 
2172.00, 
2173.00, 
2174.00, 
2175.00, 
2176.00, 
2177.00, 
2178.00, 
2179.00, 
2180.00, 
2181.00, 
2182.00, 
2183.00, 
2184.00, 
2185.00, 
2186.00, 
2187.00, 
2188.00, 
2189.00, 
2190.00, 
2191.00, 
2192.00, 
2193.00, 
2194.00, 
2195.00, 
2196.00, 
2197.00, 
2198.00, 
2199.00, 
2200.00, 
2201.00, 
2202.00, 
2203.00, 
2204.00, 
2205.00, 
2206.00, 
2207.00, 
2208.00, 
2209.00, 
2210.00, 
2211.00, 
2212.00, 
2213.00, 
2214.00, 
2215.00, 
2216.00, 
2217.00, 
2218.00, 
2219.00, 
2220.00, 
2221.00, 
2222.00, 
2223.00, 
2224.00, 
2225.00, 
2226.00, 
2227.00, 
2228.00, 
2229.00, 
2230.00, 
2231.00, 
2232.00, 
2233.00, 
2234.00, 
2235.00, 
2236.00, 
2237.00, 
2238.00, 
2239.00, 
2240.00, 
2241.00, 
2242.00, 
2243.00, 
2244.00, 
2245.00, 
2246.00, 
2247.00, 
2248.00, 
2249.00, 
2250.00, 
2251.00, 
2252.00, 
2253.00, 
2254.00, 
2255.00, 
2256.00, 
2257.00, 
2258.00, 
2259.00, 
2260.00, 
2261.00, 
2262.00, 
2263.00, 
2264.00, 
2265.00, 
2266.00, 
2267.00, 
2268.00, 
2269.00, 
2270.00, 
2271.00, 
2272.00, 
2273.00, 
2274.00, 
2275.00, 
2276.00, 
2277.00, 
2278.00, 
2279.00, 
2280.00, 
2281.00, 
2282.00, 
2283.00, 
2284.00, 
2285.00, 
2286.00, 
2287.00, 
2288.00, 
2289.00, 
2290.00, 
2291.00, 
2292.00, 
2293.00, 
2294.00, 
2295.00, 
2296.00, 
2297.00, 
2298.00, 
2299.00, 
2300.00, 
2301.00, 
2302.00, 
2303.00, 
2304.00, 
2305.00, 
2306.00, 
2307.00, 
2308.00, 
2309.00, 
2310.00, 
2311.00, 
2312.00, 
2313.00, 
2314.00, 
2315.00, 
2316.00, 
2317.00, 
2318.00, 
2319.00, 
2320.00, 
2321.00, 
2322.00, 
2323.00, 
2324.00, 
2325.00, 
2326.00, 
2327.00, 
2328.00, 
2329.00, 
2330.00, 
2331.00, 
2332.00, 
2333.00, 
2334.00, 
2335.00, 
2336.00, 
2337.00, 
2338.00, 
2339.00, 
2340.00, 
2341.00, 
2342.00, 
2343.00, 
2344.00, 
2345.00, 
2346.00, 
2347.00, 
2348.00, 
2349.00, 
2350.00, 
2351.00, 
2352.00, 
2353.00, 
2354.00, 
2355.00, 
2356.00, 
2357.00, 
2358.00, 
2359.00, 
2360.00, 
2361.00, 
2362.00, 
2363.00, 
2364.00, 
2365.00, 
2366.00, 
2367.00, 
2368.00, 
2369.00, 
2370.00, 
2371.00, 
2372.00, 
2373.00, 
2374.00, 
2375.00, 
2376.00, 
2377.00, 
2378.00, 
2379.00, 
2380.00, 
2381.00, 
2382.00, 
2383.00, 
2384.00, 
2385.00, 
2386.00, 
2387.00, 
2388.00, 
2389.00, 
2390.00, 
2391.00, 
2392.00, 
2393.00, 
2394.00, 
2395.00, 
2396.00, 
2397.00, 
2398.00, 
2399.00, 
2400.00, 
2401.00, 
2402.00, 
2403.00, 
2404.00, 
2405.00, 
2406.00, 
2407.00, 
2408.00, 
2409.00, 
2410.00, 
2411.00, 
2412.00, 
2413.00, 
2414.00, 
2415.00, 
2416.00, 
2417.00, 
2418.00, 
2419.00, 
2420.00, 
2421.00, 
2422.00, 
2423.00, 
2424.00, 
2425.00, 
2426.00, 
2427.00, 
2428.00, 
2429.00, 
2430.00, 
2431.00, 
2432.00, 
2433.00, 
2434.00, 
2435.00, 
2436.00, 
2437.00, 
2438.00, 
2439.00, 
2440.00, 
2441.00, 
2442.00, 
2443.00, 
2444.00, 
2445.00, 
2446.00, 
2447.00, 
2448.00, 
2449.00, 
2450.00, 
2451.00, 
2452.00, 
2453.00, 
2454.00, 
2455.00, 
2456.00, 
2457.00, 
2458.00, 
2459.00, 
2460.00, 
2461.00, 
2462.00, 
2463.00, 
2464.00, 
2465.00, 
2466.00, 
2467.00, 
2468.00, 
2469.00, 
2470.00, 
2471.00, 
2472.00, 
2473.00, 
2474.00, 
2475.00, 
2476.00, 
2477.00, 
2478.00, 
2479.00, 
2480.00, 
2481.00, 
2482.00, 
2483.00, 
2484.00, 
2485.00, 
2486.00, 
2487.00, 
2488.00, 
2489.00, 
2490.00, 
2491.00, 
2492.00, 
2493.00, 
2494.00, 
2495.00, 
2496.00, 
2497.00, 
2498.00, 
2499.00, 
2500.00, 
2501.00, 
2502.00, 
2503.00, 
2504.00, 
2505.00, 
2506.00, 
2507.00, 
2508.00, 
2509.00, 
2510.00, 
2511.00, 
2512.00, 
2513.00, 
2514.00, 
2515.00, 
2516.00, 
2517.00, 
2518.00, 
2519.00, 
2520.00, 
2521.00, 
2522.00, 
2523.00, 
2524.00, 
2525.00, 
2526.00, 
2527.00, 
2528.00, 
2529.00, 
2530.00, 
2531.00, 
2532.00, 
2533.00, 
2534.00, 
2535.00, 
2536.00, 
2537.00, 
2538.00, 
2539.00, 
2540.00, 
2541.00, 
2542.00, 
2543.00, 
2544.00, 
2545.00, 
2546.00, 
2547.00, 
2548.00, 
2549.00, 
2550.00, 
2551.00, 
2552.00, 
2553.00, 
2554.00, 
2555.00, 
2556.00, 
2557.00, 
2558.00, 
2559.00, 
2560.00, 
2561.00, 
2562.00, 
2563.00, 
2564.00, 
2565.00, 
2566.00, 
2567.00, 
2568.00, 
2569.00, 
2570.00, 
2571.00, 
2572.00, 
2573.00, 
2574.00, 
2575.00, 
2576.00, 
2577.00, 
2578.00, 
2579.00, 
2580.00, 
2581.00, 
2582.00, 
2583.00, 
2584.00, 
2585.00, 
2586.00, 
2587.00, 
2588.00, 
2589.00, 
2590.00, 
2591.00, 
2592.00, 
2593.00, 
2594.00, 
2595.00, 
2596.00, 
2597.00, 
2598.00, 
2599.00, 
2600.00, 
