"1cP1 - RawData"
"Wavelength nm.","T%"
200.00,0.000
201.00,0.001
202.00,0.002
203.00,0.002
204.00,0.000
205.00,0.001
206.00,-0.001
207.00,0.000
208.00,-0.002
209.00,0.001
210.00,0.001
211.00,0.002
212.00,-0.001
213.00,0.004
214.00,0.000
215.00,0.003
216.00,0.002
217.00,0.001
218.00,0.001
219.00,0.002
220.00,-0.003
221.00,0.002
222.00,0.001
223.00,-0.000
224.00,0.000
225.00,0.002
226.00,0.004
227.00,-0.003
228.00,-0.002
229.00,-0.001
230.00,0.001
231.00,-0.002
232.00,0.001
233.00,-0.000
234.00,0.001
235.00,-0.002
236.00,0.000
237.00,-0.001
238.00,0.002
239.00,0.001
240.00,0.000
241.00,0.000
242.00,0.000
243.00,-0.001
244.00,0.000
245.00,0.002
246.00,0.000
247.00,0.002
248.00,-0.001
249.00,0.000
250.00,0.001
251.00,0.000
252.00,0.000
253.00,-0.001
254.00,-0.001
255.00,0.000
256.00,0.001
257.00,0.002
258.00,0.000
259.00,0.000
260.00,0.001
261.00,-0.000
262.00,0.000
263.00,0.001
264.00,0.000
265.00,-0.001
266.00,0.001
267.00,-0.001
268.00,0.001
269.00,0.001
270.00,0.000
271.00,-0.000
272.00,0.000
273.00,0.001
274.00,-0.001
275.00,0.001
276.00,0.002
277.00,-0.000
278.00,0.000
279.00,-0.000
280.00,-0.001
281.00,0.002
282.00,0.001
283.00,-0.001
284.00,-0.002
285.00,0.001
286.00,0.001
287.00,0.001
288.00,0.003
289.00,-0.000
290.00,0.001
291.00,0.001
292.00,0.000
293.00,-0.001
294.00,-0.000
295.00,-0.000
296.00,-0.000
297.00,0.000
298.00,-0.000
299.00,0.002
300.00,0.000
301.00,-0.000
302.00,0.001
303.00,0.001
304.00,0.001
305.00,0.002
306.00,0.002
307.00,0.003
308.00,0.005
309.00,0.011
310.00,0.017
311.00,0.026
312.00,0.041
313.00,0.060
314.00,0.093
315.00,0.140
316.00,0.200
317.00,0.287
318.00,0.386
319.00,0.515
320.00,0.696
321.00,0.907
322.00,1.153
323.00,1.471
324.00,1.815
325.00,2.167
326.00,2.576
327.00,3.070
328.00,3.603
329.00,4.132
330.00,4.736
331.00,5.351
332.00,5.999
333.00,6.763
334.00,7.428
335.00,8.186
336.00,8.932
337.00,9.715
338.00,10.464
339.00,11.141
340.00,11.915
341.00,12.662
342.00,13.313
343.00,14.011
344.00,14.639
345.00,15.338
346.00,15.939
347.00,16.468
348.00,17.016
349.00,17.550
350.00,18.000
351.00,18.478
352.00,18.869
353.00,19.286
354.00,19.629
355.00,20.030
356.00,20.345
357.00,20.629
358.00,20.975
359.00,21.263
360.00,21.535
361.00,21.702
362.00,21.955
363.00,22.097
364.00,22.246
365.00,22.369
366.00,22.494
367.00,22.607
368.00,22.683
369.00,22.713
370.00,22.806
371.00,22.795
372.00,22.869
373.00,22.771
374.00,22.814
375.00,22.801
376.00,22.703
377.00,22.622
378.00,22.534
379.00,22.475
380.00,22.460
381.00,22.434
382.00,22.435
383.00,22.448
384.00,22.524
385.00,22.628
386.00,22.627
387.00,22.743
388.00,22.818
389.00,22.903
390.00,22.919
391.00,22.977
392.00,22.979
393.00,23.029
394.00,23.095
395.00,23.126
396.00,23.082
397.00,23.129
398.00,23.130
399.00,23.141
400.00,23.154
401.00,23.170
402.00,23.170
403.00,23.127
404.00,23.139
405.00,23.129
406.00,23.099
407.00,23.054
408.00,23.056
409.00,22.994
410.00,22.955
411.00,22.943
412.00,22.945
413.00,22.929
414.00,22.938
415.00,22.977
416.00,22.943
417.00,22.898
418.00,22.932
419.00,22.990
420.00,23.023
421.00,23.058
422.00,23.078
423.00,23.108
424.00,23.143
425.00,23.140
426.00,23.153
427.00,23.239
428.00,23.211
429.00,23.294
430.00,23.386
431.00,23.406
432.00,23.398
433.00,23.490
434.00,23.544
435.00,23.592
436.00,23.651
437.00,23.701
438.00,23.769
439.00,23.820
440.00,23.886
441.00,23.966
442.00,24.040
443.00,24.088
444.00,24.196
445.00,24.296
446.00,24.351
447.00,24.445
448.00,24.551
449.00,24.678
450.00,24.764
451.00,24.833
452.00,24.963
453.00,25.030
454.00,25.181
455.00,25.270
456.00,25.337
457.00,25.444
458.00,25.581
459.00,25.673
460.00,25.803
461.00,25.949
462.00,26.042
463.00,26.213
464.00,26.334
465.00,26.410
466.00,26.526
467.00,26.720
468.00,26.694
469.00,26.890
470.00,26.967
471.00,27.062
472.00,27.233
473.00,27.284
474.00,27.411
475.00,27.534
476.00,27.593
477.00,27.709
478.00,27.838
479.00,27.994
480.00,28.121
481.00,28.227
482.00,28.423
483.00,28.544
484.00,28.681
485.00,28.816
486.00,28.885
487.00,29.101
488.00,29.179
489.00,29.432
490.00,29.581
491.00,29.672
492.00,29.890
493.00,30.057
494.00,30.047
495.00,30.230
496.00,30.301
497.00,30.450
498.00,30.577
499.00,30.717
500.00,30.850
501.00,30.944
502.00,31.117
503.00,31.197
504.00,31.307
505.00,31.440
506.00,31.539
507.00,31.629
508.00,31.764
509.00,31.895
510.00,32.050
511.00,32.134
512.00,32.273
513.00,32.355
514.00,32.514
515.00,32.617
516.00,32.743
517.00,32.873
518.00,33.000
519.00,33.063
520.00,33.107
521.00,33.176
522.00,33.303
523.00,33.315
524.00,33.437
525.00,33.590
526.00,33.645
527.00,33.726
528.00,33.790
529.00,33.944
530.00,34.128
531.00,34.229
532.00,34.300
533.00,34.428
534.00,34.519
535.00,34.606
536.00,34.699
537.00,34.782
538.00,34.857
539.00,34.889
540.00,34.975
541.00,35.027
542.00,35.074
543.00,35.119
544.00,35.234
545.00,35.299
546.00,35.304
547.00,35.490
548.00,35.567
549.00,35.636
550.00,35.707
551.00,35.811
552.00,35.902
553.00,35.897
554.00,36.010
555.00,36.061
556.00,36.097
557.00,36.152
558.00,36.230
559.00,36.314
560.00,36.323
561.00,36.438
562.00,36.486
563.00,36.514
564.00,36.600
565.00,36.594
566.00,36.614
567.00,36.673
568.00,36.693
569.00,36.813
570.00,36.805
571.00,36.837
572.00,36.892
573.00,36.844
574.00,36.937
575.00,36.914
576.00,36.893
577.00,37.001
578.00,37.143
579.00,37.136
580.00,37.182
581.00,37.330
582.00,37.408
583.00,37.422
584.00,37.497
585.00,37.533
586.00,37.543
587.00,37.673
588.00,37.733
589.00,37.705
590.00,37.773
591.00,37.870
592.00,37.839
593.00,37.868
594.00,37.973
595.00,38.061
596.00,38.120
597.00,38.140
598.00,38.197
599.00,38.216
600.00,38.220
601.00,38.265
602.00,38.315
603.00,38.384
604.00,38.415
605.00,38.433
606.00,38.457
607.00,38.506
608.00,38.669
609.00,38.784
610.00,38.593
611.00,38.716
612.00,38.780
613.00,38.779
614.00,38.838
615.00,38.970
616.00,39.025
617.00,39.000
618.00,38.970
619.00,39.094
620.00,39.119
621.00,39.189
622.00,39.223
623.00,39.292
624.00,39.395
625.00,39.475
626.00,39.390
627.00,39.501
628.00,39.535
629.00,39.560
630.00,39.627
631.00,39.707
632.00,39.783
633.00,39.858
634.00,39.940
635.00,39.999
636.00,40.065
637.00,40.062
638.00,40.143
639.00,40.272
640.00,40.281
641.00,40.233
642.00,40.398
643.00,40.456
644.00,40.589
645.00,40.561
646.00,40.663
647.00,40.799
648.00,40.859
649.00,40.820
650.00,40.873
651.00,41.047
652.00,41.140
653.00,41.100
654.00,41.130
655.00,41.358
656.00,41.602
657.00,41.411
658.00,41.549
659.00,41.619
660.00,41.576
661.00,41.710
662.00,41.772
663.00,41.889
664.00,42.184
665.00,42.263
666.00,42.195
667.00,42.180
668.00,42.344
669.00,42.507
670.00,42.777
671.00,42.687
672.00,42.823
673.00,42.797
674.00,42.874
675.00,43.004
676.00,43.198
677.00,43.266
678.00,43.058
679.00,43.322
680.00,43.402
681.00,43.525
682.00,43.566
683.00,43.554
684.00,43.720
685.00,43.853
686.00,43.724
687.00,43.809
688.00,43.972
689.00,43.973
690.00,44.208
691.00,44.516
692.00,44.200
693.00,44.205
694.00,44.350
695.00,44.442
696.00,44.621
697.00,44.586
698.00,44.613
699.00,44.864
700.00,44.918
701.00,44.860
702.00,45.077
703.00,45.181
704.00,45.214
705.00,45.148
706.00,45.291
707.00,45.280
708.00,45.442
709.00,45.983
710.00,45.547
711.00,45.593
712.00,45.623
713.00,45.827
714.00,45.947
715.00,45.846
716.00,45.869
717.00,45.972
718.00,46.156
719.00,46.084
720.00,46.163
721.00,50.735
722.00,50.724
723.00,50.726
724.00,50.704
725.00,50.836
726.00,50.748
727.00,50.807
728.00,50.789
729.00,50.877
730.00,50.812
731.00,50.861
732.00,50.872
733.00,50.926
734.00,51.002
735.00,50.984
736.00,51.008
737.00,50.972
738.00,51.070
739.00,51.079
740.00,51.114
741.00,51.154
742.00,51.205
743.00,51.096
744.00,51.109
745.00,51.120
746.00,51.159
747.00,51.081
748.00,51.101
749.00,51.154
750.00,51.111
751.00,51.145
752.00,51.050
753.00,51.102
754.00,51.108
755.00,51.084
756.00,51.041
757.00,51.080
758.00,51.168
759.00,51.136
760.00,51.150
761.00,51.190
762.00,51.139
763.00,51.120
764.00,51.204
765.00,51.188
766.00,51.164
767.00,51.183
768.00,51.170
769.00,51.221
770.00,51.248
771.00,51.288
772.00,51.289
773.00,51.286
774.00,51.328
775.00,51.250
776.00,51.323
777.00,51.364
778.00,51.219
779.00,51.332
780.00,51.222
781.00,51.256
782.00,51.286
783.00,51.229
784.00,51.315
785.00,51.203
786.00,51.180
787.00,51.174
788.00,51.160
789.00,51.145
790.00,51.047
791.00,51.150
792.00,51.092
793.00,51.079
794.00,51.131
795.00,51.147
796.00,51.064
797.00,50.997
798.00,51.103
799.00,50.969
800.00,50.969
801.00,50.974
802.00,50.991
803.00,51.022
804.00,50.983
805.00,50.917
806.00,50.866
807.00,50.909
808.00,50.889
809.00,50.891
810.00,50.898
811.00,50.901
812.00,50.915
813.00,50.852
814.00,50.738
815.00,50.820
816.00,50.861
817.00,50.718
818.00,50.661
819.00,50.690
820.00,50.563
821.00,50.743
822.00,50.601
823.00,50.634
824.00,50.617
825.00,50.595
826.00,50.644
827.00,50.649
828.00,50.666
829.00,50.589
830.00,50.617
831.00,52.897
832.00,52.875
833.00,52.794
834.00,52.853
835.00,52.804
836.00,52.809
837.00,52.755
838.00,52.724
839.00,52.715
840.00,52.659
841.00,52.694
842.00,52.612
843.00,52.653
844.00,52.603
845.00,52.573
846.00,52.580
847.00,52.537
848.00,52.576
849.00,52.443
850.00,52.433
851.00,52.406
852.00,52.505
853.00,52.321
854.00,52.340
855.00,52.240
856.00,52.263
857.00,52.246
858.00,52.210
859.00,52.188
860.00,52.197
861.00,52.169
862.00,52.155
863.00,52.203
864.00,52.093
865.00,52.165
866.00,52.112
867.00,52.112
868.00,52.122
869.00,52.064
870.00,52.081
871.00,52.071
872.00,52.101
873.00,52.033
874.00,52.049
875.00,51.982
876.00,52.014
877.00,52.002
878.00,51.984
879.00,51.961
880.00,51.930
881.00,51.909
882.00,51.943
883.00,51.878
884.00,51.869
885.00,51.851
886.00,51.836
887.00,51.809
888.00,51.783
889.00,51.743
890.00,51.755
891.00,51.713
892.00,51.687
893.00,51.679
894.00,51.667
895.00,51.624
896.00,51.622
897.00,51.584
898.00,51.581
899.00,51.604
900.00,51.538
901.00,51.562
902.00,51.592
903.00,51.502
904.00,51.497
905.00,51.497
906.00,51.478
907.00,51.463
908.00,51.417
909.00,51.412
910.00,51.370
911.00,51.344
912.00,51.350
913.00,51.314
914.00,51.303
915.00,51.277
916.00,51.244
917.00,51.237
918.00,51.218
919.00,51.188
920.00,51.156
921.00,51.147
922.00,51.149
923.00,51.115
924.00,51.004
925.00,51.183
926.00,51.072
927.00,51.078
928.00,51.028
929.00,51.034
930.00,50.988
931.00,50.979
932.00,50.923
933.00,50.960
934.00,50.916
935.00,50.876
936.00,50.881
937.00,50.878
938.00,50.861
939.00,50.820
940.00,50.866
941.00,50.814
942.00,50.777
943.00,50.758
944.00,50.713
945.00,50.727
946.00,50.699
947.00,50.671
948.00,50.660
949.00,50.643
950.00,50.643
951.00,50.615
952.00,50.597
953.00,50.550
954.00,50.544
955.00,50.474
956.00,50.466
957.00,50.426
958.00,50.452
959.00,50.399
960.00,50.390
961.00,50.362
962.00,50.385
963.00,50.332
964.00,50.336
965.00,50.319
966.00,50.304
967.00,50.307
968.00,50.251
969.00,50.317
970.00,50.264
971.00,50.303
972.00,50.251
973.00,50.295
974.00,50.305
975.00,50.267
976.00,50.282
977.00,50.265
978.00,50.311
979.00,50.265
980.00,50.286
981.00,50.274
982.00,50.235
983.00,50.271
984.00,50.228
985.00,50.255
986.00,50.280
987.00,50.236
988.00,50.216
989.00,50.189
990.00,50.193
991.00,50.168
992.00,50.184
993.00,50.146
994.00,50.136
995.00,50.121
996.00,50.116
997.00,50.097
998.00,50.065
999.00,50.081
1000.00,50.011
1001.00,50.031
1002.00,50.045
1003.00,50.042
1004.00,50.030
1005.00,49.995
1006.00,50.028
1007.00,49.993
1008.00,49.982
1009.00,49.952
1010.00,49.952
1011.00,49.950
1012.00,49.896
1013.00,49.925
1014.00,49.877
1015.00,49.900
1016.00,49.850
1017.00,49.841
1018.00,49.840
1019.00,49.810
1020.00,49.805
1021.00,49.781
1022.00,49.775
1023.00,49.740
1024.00,49.749
1025.00,49.721
1026.00,49.705
1027.00,49.691
1028.00,49.672
1029.00,49.671
1030.00,49.643
1031.00,49.642
1032.00,49.603
1033.00,49.606
1034.00,49.587
1035.00,49.552
1036.00,49.522
1037.00,49.518
1038.00,49.501
1039.00,49.455
1040.00,49.458
1041.00,49.433
1042.00,49.423
1043.00,49.395
1044.00,49.450
1045.00,49.429
1046.00,49.444
1047.00,49.465
1048.00,49.448
1049.00,49.461
1050.00,49.440
1051.00,49.484
1052.00,49.480
1053.00,49.477
1054.00,49.475
1055.00,49.519
1056.00,49.518
1057.00,49.529
1058.00,49.511
1059.00,49.511
1060.00,49.528
1061.00,49.493
1062.00,49.506
1063.00,49.507
1064.00,49.494
1065.00,49.478
1066.00,49.472
1067.00,49.465
1068.00,49.486
1069.00,49.428
1070.00,49.429
1071.00,49.418
1072.00,49.425
1073.00,49.409
1074.00,49.403
1075.00,49.364
1076.00,49.398
1077.00,49.388
1078.00,49.357
1079.00,49.372
1080.00,49.361
1081.00,49.353
1082.00,49.334
1083.00,49.326
1084.00,49.323
1085.00,49.316
1086.00,49.295
1087.00,49.306
1088.00,49.286
1089.00,49.280
1090.00,49.288
1091.00,49.294
1092.00,49.284
1093.00,49.286
1094.00,49.258
1095.00,49.256
1096.00,49.234
1097.00,49.218
1098.00,49.217
1099.00,49.203
1100.00,49.194
1101.00,49.196
1102.00,49.176
1103.00,49.192
1104.00,49.178
1105.00,49.156
1106.00,49.163
1107.00,49.160
1108.00,49.125
1109.00,49.125
1110.00,49.117
1111.00,49.113
1112.00,49.107
1113.00,49.088
1114.00,49.090
1115.00,49.089
1116.00,49.058
1117.00,49.054
1118.00,49.045
1119.00,49.039
1120.00,49.052
1121.00,49.038
1122.00,49.014
1123.00,49.029
1124.00,49.019
1125.00,49.017
1126.00,49.015
1127.00,48.994
1128.00,48.972
1129.00,48.961
1130.00,48.939
1131.00,48.953
1132.00,48.941
1133.00,48.942
1134.00,48.932
1135.00,48.941
1136.00,48.934
1137.00,48.953
1138.00,48.931
1139.00,48.950
1140.00,48.951
1141.00,48.936
1142.00,48.919
1143.00,48.941
1144.00,48.908
1145.00,48.911
1146.00,48.893
1147.00,48.896
1148.00,48.877
1149.00,48.886
1150.00,48.897
1151.00,48.912
1152.00,48.882
1153.00,48.894
1154.00,48.883
1155.00,48.882
1156.00,48.879
1157.00,48.888
1158.00,48.887
1159.00,48.883
1160.00,48.877
1161.00,48.899
1162.00,48.881
1163.00,48.863
1164.00,48.875
1165.00,48.861
1166.00,48.879
1167.00,48.870
1168.00,48.887
1169.00,48.858
1170.00,48.872
1171.00,48.853
1172.00,48.864
1173.00,48.847
1174.00,48.846
1175.00,48.849
1176.00,48.828
1177.00,48.809
1178.00,48.838
1179.00,48.839
1180.00,48.825
1181.00,48.863
1182.00,48.858
1183.00,48.871
1184.00,48.876
1185.00,48.854
1186.00,48.842
1187.00,48.836
1188.00,48.829
1189.00,48.841
1190.00,48.820
1191.00,48.818
1192.00,48.851
1193.00,48.821
1194.00,48.841
1195.00,48.822
1196.00,48.852
1197.00,48.852
1198.00,48.838
1199.00,48.838
1200.00,48.837
1201.00,48.859
1202.00,48.827
1203.00,48.832
1204.00,48.810
1205.00,48.842
1206.00,48.835
1207.00,48.830
1208.00,48.818
1209.00,48.827
1210.00,48.834
1211.00,48.833
1212.00,48.849
1213.00,48.822
1214.00,48.846
1215.00,48.823
1216.00,48.841
1217.00,48.857
1218.00,48.829
1219.00,48.856
1220.00,48.839
1221.00,48.843
1222.00,48.849
1223.00,48.864
1224.00,48.860
1225.00,48.851
1226.00,48.849
1227.00,48.850
1228.00,48.866
1229.00,48.852
1230.00,48.891
1231.00,48.886
1232.00,48.914
1233.00,48.919
1234.00,48.918
1235.00,48.908
1236.00,48.910
1237.00,48.911
1238.00,48.916
1239.00,48.929
1240.00,48.897
1241.00,48.920
1242.00,48.919
1243.00,48.935
1244.00,48.920
1245.00,48.939
1246.00,48.945
1247.00,48.934
1248.00,48.938
1249.00,48.957
1250.00,48.974
1251.00,48.943
1252.00,48.959
1253.00,48.947
1254.00,48.967
1255.00,48.962
1256.00,48.947
1257.00,48.949
1258.00,48.997
1259.00,48.982
1260.00,49.025
1261.00,49.021
1262.00,48.996
1263.00,49.004
1264.00,49.011
1265.00,49.014
1266.00,49.012
1267.00,49.028
1268.00,49.024
1269.00,49.038
1270.00,49.045
1271.00,49.052
1272.00,49.058
1273.00,49.071
1274.00,49.080
1275.00,49.092
1276.00,49.086
1277.00,49.090
1278.00,49.097
1279.00,49.107
1280.00,49.106
1281.00,49.109
1282.00,49.121
1283.00,49.128
1284.00,49.123
1285.00,49.116
1286.00,49.140
1287.00,49.124
1288.00,49.141
1289.00,49.120
1290.00,49.172
1291.00,49.169
1292.00,49.157
1293.00,49.176
1294.00,49.203
1295.00,49.194
1296.00,49.184
1297.00,49.189
1298.00,49.225
1299.00,49.197
1300.00,49.214
1301.00,49.201
1302.00,49.233
1303.00,49.228
1304.00,49.232
1305.00,49.270
1306.00,49.264
1307.00,49.271
1308.00,49.275
1309.00,49.298
1310.00,49.282
1311.00,49.280
1312.00,49.293
1313.00,49.314
1314.00,49.308
1315.00,49.340
1316.00,49.333
1317.00,49.341
1318.00,49.344
1319.00,49.348
1320.00,49.353
1321.00,49.518
1322.00,49.506
1323.00,49.504
1324.00,49.531
1325.00,49.496
1326.00,49.525
1327.00,49.504
1328.00,49.510
1329.00,49.501
1330.00,49.514
1331.00,49.514
1332.00,49.519
1333.00,49.500
1334.00,49.543
1335.00,49.584
1336.00,49.600
1337.00,49.633
1338.00,49.699
1339.00,49.742
1340.00,49.806
1341.00,49.873
1342.00,49.936
1343.00,49.990
1344.00,50.025
1345.00,50.103
1346.00,50.129
1347.00,50.150
1348.00,50.165
1349.00,50.180
1350.00,50.198
1351.00,50.213
1352.00,50.219
1353.00,50.213
1354.00,50.246
1355.00,50.175
1356.00,50.284
1357.00,50.279
1358.00,50.274
1359.00,50.323
1360.00,50.304
1361.00,50.318
1362.00,50.248
1363.00,50.378
1364.00,50.464
1365.00,50.296
1366.00,50.325
1367.00,50.314
1368.00,50.237
1369.00,50.306
1370.00,50.317
1371.00,50.231
1372.00,50.280
1373.00,50.307
1374.00,50.299
1375.00,50.291
1376.00,50.286
1377.00,50.277
1378.00,50.253
1379.00,50.342
1380.00,50.307
1381.00,50.351
1382.00,50.338
1383.00,50.295
1384.00,50.252
1385.00,50.294
1386.00,50.283
1387.00,50.226
1388.00,50.240
1389.00,50.299
1390.00,50.282
1391.00,50.220
1392.00,50.258
1393.00,50.250
1394.00,50.288
1395.00,50.180
1396.00,50.230
1397.00,50.243
1398.00,50.322
1399.00,50.295
1400.00,50.237
1401.00,50.256
1402.00,50.314
1403.00,50.310
1404.00,50.288
1405.00,50.340
1406.00,50.330
1407.00,50.330
1408.00,50.379
1409.00,50.302
1410.00,50.355
1411.00,50.304
1412.00,50.323
1413.00,50.338
1414.00,50.364
1415.00,50.412
1416.00,50.410
1417.00,50.459
1418.00,50.427
1419.00,50.430
1420.00,50.466
1421.00,50.492
1422.00,50.482
1423.00,50.513
1424.00,50.503
1425.00,50.539
1426.00,50.535
1427.00,50.579
1428.00,50.568
1429.00,50.589
1430.00,50.606
1431.00,50.631
1432.00,50.632
1433.00,50.642
1434.00,50.652
1435.00,50.711
1436.00,50.719
1437.00,50.696
1438.00,50.730
1439.00,50.773
1440.00,50.788
1441.00,50.813
1442.00,50.839
1443.00,50.814
1444.00,50.869
1445.00,50.828
1446.00,50.853
1447.00,50.891
1448.00,50.934
1449.00,50.938
1450.00,50.937
1451.00,50.969
1452.00,50.995
1453.00,50.998
1454.00,51.015
1455.00,51.049
1456.00,51.070
1457.00,51.050
1458.00,51.096
1459.00,51.099
1460.00,51.140
1461.00,51.124
1462.00,51.169
1463.00,51.175
1464.00,51.185
1465.00,51.200
1466.00,51.205
1467.00,51.247
1468.00,51.288
1469.00,51.266
1470.00,51.285
1471.00,51.308
1472.00,51.334
1473.00,51.331
1474.00,51.356
1475.00,51.359
1476.00,51.358
1477.00,51.362
1478.00,51.397
1479.00,51.413
1480.00,51.420
1481.00,51.439
1482.00,51.470
1483.00,51.475
1484.00,51.502
1485.00,51.504
1486.00,51.528
1487.00,51.553
1488.00,51.558
1489.00,51.564
1490.00,51.565
1491.00,51.586
1492.00,51.606
1493.00,51.601
1494.00,51.639
1495.00,51.636
1496.00,51.663
1497.00,51.649
1498.00,51.652
1499.00,51.670
1500.00,51.694
1501.00, 
1502.00, 
1503.00, 
1504.00, 
1505.00, 
1506.00, 
1507.00, 
1508.00, 
1509.00, 
1510.00, 
1511.00, 
1512.00, 
1513.00, 
1514.00, 
1515.00, 
1516.00, 
1517.00, 
1518.00, 
1519.00, 
1520.00, 
1521.00, 
1522.00, 
1523.00, 
1524.00, 
1525.00, 
1526.00, 
1527.00, 
1528.00, 
1529.00, 
1530.00, 
1531.00, 
1532.00, 
1533.00, 
1534.00, 
1535.00, 
1536.00, 
1537.00, 
1538.00, 
1539.00, 
1540.00, 
1541.00, 
1542.00, 
1543.00, 
1544.00, 
1545.00, 
1546.00, 
1547.00, 
1548.00, 
1549.00, 
1550.00, 
1551.00, 
1552.00, 
1553.00, 
1554.00, 
1555.00, 
1556.00, 
1557.00, 
1558.00, 
1559.00, 
1560.00, 
1561.00, 
1562.00, 
1563.00, 
1564.00, 
1565.00, 
1566.00, 
1567.00, 
1568.00, 
1569.00, 
1570.00, 
1571.00, 
1572.00, 
1573.00, 
1574.00, 
1575.00, 
1576.00, 
1577.00, 
1578.00, 
1579.00, 
1580.00, 
1581.00, 
1582.00, 
1583.00, 
1584.00, 
1585.00, 
1586.00, 
1587.00, 
1588.00, 
1589.00, 
1590.00, 
1591.00, 
1592.00, 
1593.00, 
1594.00, 
1595.00, 
1596.00, 
1597.00, 
1598.00, 
1599.00, 
1600.00, 
1601.00, 
1602.00, 
1603.00, 
1604.00, 
1605.00, 
1606.00, 
1607.00, 
1608.00, 
1609.00, 
1610.00, 
1611.00, 
1612.00, 
1613.00, 
1614.00, 
1615.00, 
1616.00, 
1617.00, 
1618.00, 
1619.00, 
1620.00, 
1621.00, 
1622.00, 
1623.00, 
1624.00, 
1625.00, 
1626.00, 
1627.00, 
1628.00, 
1629.00, 
1630.00, 
1631.00, 
1632.00, 
1633.00, 
1634.00, 
1635.00, 
1636.00, 
1637.00, 
1638.00, 
1639.00, 
1640.00, 
1641.00, 
1642.00, 
1643.00, 
1644.00, 
1645.00, 
1646.00, 
1647.00, 
1648.00, 
1649.00, 
1650.00, 
1651.00, 
1652.00, 
1653.00, 
1654.00, 
1655.00, 
1656.00, 
1657.00, 
1658.00, 
1659.00, 
1660.00, 
1661.00, 
1662.00, 
1663.00, 
1664.00, 
1665.00, 
1666.00, 
1667.00, 
1668.00, 
1669.00, 
1670.00, 
1671.00, 
1672.00, 
1673.00, 
1674.00, 
1675.00, 
1676.00, 
1677.00, 
1678.00, 
1679.00, 
1680.00, 
1681.00, 
1682.00, 
1683.00, 
1684.00, 
1685.00, 
1686.00, 
1687.00, 
1688.00, 
1689.00, 
1690.00, 
1691.00, 
1692.00, 
1693.00, 
1694.00, 
1695.00, 
1696.00, 
1697.00, 
1698.00, 
1699.00, 
1700.00, 
1701.00, 
1702.00, 
1703.00, 
1704.00, 
1705.00, 
1706.00, 
1707.00, 
1708.00, 
1709.00, 
1710.00, 
1711.00, 
1712.00, 
1713.00, 
1714.00, 
1715.00, 
1716.00, 
1717.00, 
1718.00, 
1719.00, 
1720.00, 
1721.00, 
1722.00, 
1723.00, 
1724.00, 
1725.00, 
1726.00, 
1727.00, 
1728.00, 
1729.00, 
1730.00, 
1731.00, 
1732.00, 
1733.00, 
1734.00, 
1735.00, 
1736.00, 
1737.00, 
1738.00, 
1739.00, 
1740.00, 
1741.00, 
1742.00, 
1743.00, 
1744.00, 
1745.00, 
1746.00, 
1747.00, 
1748.00, 
1749.00, 
1750.00, 
1751.00, 
1752.00, 
1753.00, 
1754.00, 
1755.00, 
1756.00, 
1757.00, 
1758.00, 
1759.00, 
1760.00, 
1761.00, 
1762.00, 
1763.00, 
1764.00, 
1765.00, 
1766.00, 
1767.00, 
1768.00, 
1769.00, 
1770.00, 
1771.00, 
1772.00, 
1773.00, 
1774.00, 
1775.00, 
1776.00, 
1777.00, 
1778.00, 
1779.00, 
1780.00, 
1781.00, 
1782.00, 
1783.00, 
1784.00, 
1785.00, 
1786.00, 
1787.00, 
1788.00, 
1789.00, 
1790.00, 
1791.00, 
1792.00, 
1793.00, 
1794.00, 
1795.00, 
1796.00, 
1797.00, 
1798.00, 
1799.00, 
1800.00, 
1801.00, 
1802.00, 
1803.00, 
1804.00, 
1805.00, 
1806.00, 
1807.00, 
1808.00, 
1809.00, 
1810.00, 
1811.00, 
1812.00, 
1813.00, 
1814.00, 
1815.00, 
1816.00, 
1817.00, 
1818.00, 
1819.00, 
1820.00, 
1821.00, 
1822.00, 
1823.00, 
1824.00, 
1825.00, 
1826.00, 
1827.00, 
1828.00, 
1829.00, 
1830.00, 
1831.00, 
1832.00, 
1833.00, 
1834.00, 
1835.00, 
1836.00, 
1837.00, 
1838.00, 
1839.00, 
1840.00, 
1841.00, 
1842.00, 
1843.00, 
1844.00, 
1845.00, 
1846.00, 
1847.00, 
1848.00, 
1849.00, 
1850.00, 
1851.00, 
1852.00, 
1853.00, 
1854.00, 
1855.00, 
1856.00, 
1857.00, 
1858.00, 
1859.00, 
1860.00, 
1861.00, 
1862.00, 
1863.00, 
1864.00, 
1865.00, 
1866.00, 
1867.00, 
1868.00, 
1869.00, 
1870.00, 
1871.00, 
1872.00, 
1873.00, 
1874.00, 
1875.00, 
1876.00, 
1877.00, 
1878.00, 
1879.00, 
1880.00, 
1881.00, 
1882.00, 
1883.00, 
1884.00, 
1885.00, 
1886.00, 
1887.00, 
1888.00, 
1889.00, 
1890.00, 
1891.00, 
1892.00, 
1893.00, 
1894.00, 
1895.00, 
1896.00, 
1897.00, 
1898.00, 
1899.00, 
1900.00, 
1901.00, 
1902.00, 
1903.00, 
1904.00, 
1905.00, 
1906.00, 
1907.00, 
1908.00, 
1909.00, 
1910.00, 
1911.00, 
1912.00, 
1913.00, 
1914.00, 
1915.00, 
1916.00, 
1917.00, 
1918.00, 
1919.00, 
1920.00, 
1921.00, 
1922.00, 
1923.00, 
1924.00, 
1925.00, 
1926.00, 
1927.00, 
1928.00, 
1929.00, 
1930.00, 
1931.00, 
1932.00, 
1933.00, 
1934.00, 
1935.00, 
1936.00, 
1937.00, 
1938.00, 
1939.00, 
1940.00, 
1941.00, 
1942.00, 
1943.00, 
1944.00, 
1945.00, 
1946.00, 
1947.00, 
1948.00, 
1949.00, 
1950.00, 
1951.00, 
1952.00, 
1953.00, 
1954.00, 
1955.00, 
1956.00, 
1957.00, 
1958.00, 
1959.00, 
1960.00, 
1961.00, 
1962.00, 
1963.00, 
1964.00, 
1965.00, 
1966.00, 
1967.00, 
1968.00, 
1969.00, 
1970.00, 
1971.00, 
1972.00, 
1973.00, 
1974.00, 
1975.00, 
1976.00, 
1977.00, 
1978.00, 
1979.00, 
1980.00, 
1981.00, 
1982.00, 
1983.00, 
1984.00, 
1985.00, 
1986.00, 
1987.00, 
1988.00, 
1989.00, 
1990.00, 
1991.00, 
1992.00, 
1993.00, 
1994.00, 
1995.00, 
1996.00, 
1997.00, 
1998.00, 
1999.00, 
2000.00, 
2001.00, 
2002.00, 
2003.00, 
2004.00, 
2005.00, 
2006.00, 
2007.00, 
2008.00, 
2009.00, 
2010.00, 
2011.00, 
2012.00, 
2013.00, 
2014.00, 
2015.00, 
2016.00, 
2017.00, 
2018.00, 
2019.00, 
2020.00, 
2021.00, 
2022.00, 
2023.00, 
2024.00, 
2025.00, 
2026.00, 
2027.00, 
2028.00, 
2029.00, 
2030.00, 
2031.00, 
2032.00, 
2033.00, 
2034.00, 
2035.00, 
2036.00, 
2037.00, 
2038.00, 
2039.00, 
2040.00, 
2041.00, 
2042.00, 
2043.00, 
2044.00, 
2045.00, 
2046.00, 
2047.00, 
2048.00, 
2049.00, 
2050.00, 
2051.00, 
2052.00, 
2053.00, 
2054.00, 
2055.00, 
2056.00, 
2057.00, 
2058.00, 
2059.00, 
2060.00, 
2061.00, 
2062.00, 
2063.00, 
2064.00, 
2065.00, 
2066.00, 
2067.00, 
2068.00, 
2069.00, 
2070.00, 
2071.00, 
2072.00, 
2073.00, 
2074.00, 
2075.00, 
2076.00, 
2077.00, 
2078.00, 
2079.00, 
2080.00, 
2081.00, 
2082.00, 
2083.00, 
2084.00, 
2085.00, 
2086.00, 
2087.00, 
2088.00, 
2089.00, 
2090.00, 
2091.00, 
2092.00, 
2093.00, 
2094.00, 
2095.00, 
2096.00, 
2097.00, 
2098.00, 
2099.00, 
2100.00, 
2101.00, 
2102.00, 
2103.00, 
2104.00, 
2105.00, 
2106.00, 
2107.00, 
2108.00, 
2109.00, 
2110.00, 
2111.00, 
2112.00, 
2113.00, 
2114.00, 
2115.00, 
2116.00, 
2117.00, 
2118.00, 
2119.00, 
2120.00, 
2121.00, 
2122.00, 
2123.00, 
2124.00, 
2125.00, 
2126.00, 
2127.00, 
2128.00, 
2129.00, 
2130.00, 
2131.00, 
2132.00, 
2133.00, 
2134.00, 
2135.00, 
2136.00, 
2137.00, 
2138.00, 
2139.00, 
2140.00, 
2141.00, 
2142.00, 
2143.00, 
2144.00, 
2145.00, 
2146.00, 
2147.00, 
2148.00, 
2149.00, 
2150.00, 
2151.00, 
2152.00, 
2153.00, 
2154.00, 
2155.00, 
2156.00, 
2157.00, 
2158.00, 
2159.00, 
2160.00, 
2161.00, 
2162.00, 
2163.00, 
2164.00, 
2165.00, 
2166.00, 
2167.00, 
2168.00, 
2169.00, 
2170.00, 
2171.00, 
2172.00, 
2173.00, 
2174.00, 
2175.00, 
2176.00, 
2177.00, 
2178.00, 
2179.00, 
2180.00, 
2181.00, 
2182.00, 
2183.00, 
2184.00, 
2185.00, 
2186.00, 
2187.00, 
2188.00, 
2189.00, 
2190.00, 
2191.00, 
2192.00, 
2193.00, 
2194.00, 
2195.00, 
2196.00, 
2197.00, 
2198.00, 
2199.00, 
2200.00, 
2201.00, 
2202.00, 
2203.00, 
2204.00, 
2205.00, 
2206.00, 
2207.00, 
2208.00, 
2209.00, 
2210.00, 
2211.00, 
2212.00, 
2213.00, 
2214.00, 
2215.00, 
2216.00, 
2217.00, 
2218.00, 
2219.00, 
2220.00, 
2221.00, 
2222.00, 
2223.00, 
2224.00, 
2225.00, 
2226.00, 
2227.00, 
2228.00, 
2229.00, 
2230.00, 
2231.00, 
2232.00, 
2233.00, 
2234.00, 
2235.00, 
2236.00, 
2237.00, 
2238.00, 
2239.00, 
2240.00, 
2241.00, 
2242.00, 
2243.00, 
2244.00, 
2245.00, 
2246.00, 
2247.00, 
2248.00, 
2249.00, 
2250.00, 
2251.00, 
2252.00, 
2253.00, 
2254.00, 
2255.00, 
2256.00, 
2257.00, 
2258.00, 
2259.00, 
2260.00, 
2261.00, 
2262.00, 
2263.00, 
2264.00, 
2265.00, 
2266.00, 
2267.00, 
2268.00, 
2269.00, 
2270.00, 
2271.00, 
2272.00, 
2273.00, 
2274.00, 
2275.00, 
2276.00, 
2277.00, 
2278.00, 
2279.00, 
2280.00, 
2281.00, 
2282.00, 
2283.00, 
2284.00, 
2285.00, 
2286.00, 
2287.00, 
2288.00, 
2289.00, 
2290.00, 
2291.00, 
2292.00, 
2293.00, 
2294.00, 
2295.00, 
2296.00, 
2297.00, 
2298.00, 
2299.00, 
2300.00, 
2301.00, 
2302.00, 
2303.00, 
2304.00, 
2305.00, 
2306.00, 
2307.00, 
2308.00, 
2309.00, 
2310.00, 
2311.00, 
2312.00, 
2313.00, 
2314.00, 
2315.00, 
2316.00, 
2317.00, 
2318.00, 
2319.00, 
2320.00, 
2321.00, 
2322.00, 
2323.00, 
2324.00, 
2325.00, 
2326.00, 
2327.00, 
2328.00, 
2329.00, 
2330.00, 
2331.00, 
2332.00, 
2333.00, 
2334.00, 
2335.00, 
2336.00, 
2337.00, 
2338.00, 
2339.00, 
2340.00, 
2341.00, 
2342.00, 
2343.00, 
2344.00, 
2345.00, 
2346.00, 
2347.00, 
2348.00, 
2349.00, 
2350.00, 
2351.00, 
2352.00, 
2353.00, 
2354.00, 
2355.00, 
2356.00, 
2357.00, 
2358.00, 
2359.00, 
2360.00, 
2361.00, 
2362.00, 
2363.00, 
2364.00, 
2365.00, 
2366.00, 
2367.00, 
2368.00, 
2369.00, 
2370.00, 
2371.00, 
2372.00, 
2373.00, 
2374.00, 
2375.00, 
2376.00, 
2377.00, 
2378.00, 
2379.00, 
2380.00, 
2381.00, 
2382.00, 
2383.00, 
2384.00, 
2385.00, 
2386.00, 
2387.00, 
2388.00, 
2389.00, 
2390.00, 
2391.00, 
2392.00, 
2393.00, 
2394.00, 
2395.00, 
2396.00, 
2397.00, 
2398.00, 
2399.00, 
2400.00, 
2401.00, 
2402.00, 
2403.00, 
2404.00, 
2405.00, 
2406.00, 
2407.00, 
2408.00, 
2409.00, 
2410.00, 
2411.00, 
2412.00, 
2413.00, 
2414.00, 
2415.00, 
2416.00, 
2417.00, 
2418.00, 
2419.00, 
2420.00, 
2421.00, 
2422.00, 
2423.00, 
2424.00, 
2425.00, 
2426.00, 
2427.00, 
2428.00, 
2429.00, 
2430.00, 
2431.00, 
2432.00, 
2433.00, 
2434.00, 
2435.00, 
2436.00, 
2437.00, 
2438.00, 
2439.00, 
2440.00, 
2441.00, 
2442.00, 
2443.00, 
2444.00, 
2445.00, 
2446.00, 
2447.00, 
2448.00, 
2449.00, 
2450.00, 
2451.00, 
2452.00, 
2453.00, 
2454.00, 
2455.00, 
2456.00, 
2457.00, 
2458.00, 
2459.00, 
2460.00, 
2461.00, 
2462.00, 
2463.00, 
2464.00, 
2465.00, 
2466.00, 
2467.00, 
2468.00, 
2469.00, 
2470.00, 
2471.00, 
2472.00, 
2473.00, 
2474.00, 
2475.00, 
2476.00, 
2477.00, 
2478.00, 
2479.00, 
2480.00, 
2481.00, 
2482.00, 
2483.00, 
2484.00, 
2485.00, 
2486.00, 
2487.00, 
2488.00, 
2489.00, 
2490.00, 
2491.00, 
2492.00, 
2493.00, 
2494.00, 
2495.00, 
2496.00, 
2497.00, 
2498.00, 
2499.00, 
2500.00, 
2501.00, 
2502.00, 
2503.00, 
2504.00, 
2505.00, 
2506.00, 
2507.00, 
2508.00, 
2509.00, 
2510.00, 
2511.00, 
2512.00, 
2513.00, 
2514.00, 
2515.00, 
2516.00, 
2517.00, 
2518.00, 
2519.00, 
2520.00, 
2521.00, 
2522.00, 
2523.00, 
2524.00, 
2525.00, 
2526.00, 
2527.00, 
2528.00, 
2529.00, 
2530.00, 
2531.00, 
2532.00, 
2533.00, 
2534.00, 
2535.00, 
2536.00, 
2537.00, 
2538.00, 
2539.00, 
2540.00, 
2541.00, 
2542.00, 
2543.00, 
2544.00, 
2545.00, 
2546.00, 
2547.00, 
2548.00, 
2549.00, 
2550.00, 
2551.00, 
2552.00, 
2553.00, 
2554.00, 
2555.00, 
2556.00, 
2557.00, 
2558.00, 
2559.00, 
2560.00, 
2561.00, 
2562.00, 
2563.00, 
2564.00, 
2565.00, 
2566.00, 
2567.00, 
2568.00, 
2569.00, 
2570.00, 
2571.00, 
2572.00, 
2573.00, 
2574.00, 
2575.00, 
2576.00, 
2577.00, 
2578.00, 
2579.00, 
2580.00, 
2581.00, 
2582.00, 
2583.00, 
2584.00, 
2585.00, 
2586.00, 
2587.00, 
2588.00, 
2589.00, 
2590.00, 
2591.00, 
2592.00, 
2593.00, 
2594.00, 
2595.00, 
2596.00, 
2597.00, 
2598.00, 
2599.00, 
2600.00, 
