"1cP2 - RawData"
"Wavelength nm.","T%"
200.00,0.000
201.00,0.001
202.00,0.002
203.00,-0.000
204.00,0.001
205.00,0.000
206.00,0.001
207.00,0.004
208.00,0.001
209.00,0.001
210.00,0.001
211.00,0.001
212.00,0.000
213.00,-0.000
214.00,0.001
215.00,0.001
216.00,-0.001
217.00,0.002
218.00,0.004
219.00,0.001
220.00,-0.001
221.00,0.001
222.00,0.000
223.00,0.001
224.00,0.001
225.00,-0.000
226.00,0.001
227.00,0.002
228.00,0.004
229.00,-0.001
230.00,-0.001
231.00,0.001
232.00,0.000
233.00,-0.000
234.00,-0.001
235.00,0.002
236.00,0.002
237.00,0.001
238.00,-0.001
239.00,0.000
240.00,0.001
241.00,0.002
242.00,0.002
243.00,0.000
244.00,0.001
245.00,0.001
246.00,-0.002
247.00,0.000
248.00,0.001
249.00,0.003
250.00,-0.001
251.00,-0.000
252.00,0.000
253.00,-0.000
254.00,0.000
255.00,0.002
256.00,0.000
257.00,0.001
258.00,0.000
259.00,-0.001
260.00,-0.000
261.00,0.001
262.00,0.000
263.00,0.002
264.00,0.002
265.00,0.001
266.00,-0.000
267.00,0.000
268.00,0.000
269.00,-0.000
270.00,-0.000
271.00,-0.000
272.00,0.000
273.00,0.001
274.00,0.001
275.00,-0.001
276.00,0.001
277.00,0.000
278.00,0.000
279.00,0.002
280.00,0.001
281.00,0.000
282.00,-0.000
283.00,-0.001
284.00,0.001
285.00,0.000
286.00,0.001
287.00,-0.002
288.00,0.000
289.00,0.001
290.00,0.002
291.00,0.001
292.00,0.001
293.00,-0.000
294.00,0.001
295.00,0.000
296.00,0.000
297.00,0.000
298.00,0.000
299.00,0.000
300.00,0.000
301.00,0.001
302.00,-0.000
303.00,0.001
304.00,0.001
305.00,0.002
306.00,0.003
307.00,0.005
308.00,0.008
309.00,0.018
310.00,0.025
311.00,0.040
312.00,0.068
313.00,0.100
314.00,0.154
315.00,0.219
316.00,0.313
317.00,0.445
318.00,0.605
319.00,0.822
320.00,1.098
321.00,1.418
322.00,1.815
323.00,2.304
324.00,2.853
325.00,3.415
326.00,4.065
327.00,4.879
328.00,5.690
329.00,6.552
330.00,7.552
331.00,8.542
332.00,9.595
333.00,10.795
334.00,11.881
335.00,13.118
336.00,14.318
337.00,15.571
338.00,16.828
339.00,17.937
340.00,19.230
341.00,20.475
342.00,21.588
343.00,22.664
344.00,23.698
345.00,24.895
346.00,25.915
347.00,26.825
348.00,27.806
349.00,28.612
350.00,29.429
351.00,30.261
352.00,30.915
353.00,31.629
354.00,32.295
355.00,32.971
356.00,33.565
357.00,34.041
358.00,34.622
359.00,35.207
360.00,35.739
361.00,36.080
362.00,36.526
363.00,36.853
364.00,37.103
365.00,37.397
366.00,37.704
367.00,37.889
368.00,38.030
369.00,38.152
370.00,38.435
371.00,38.486
372.00,38.553
373.00,38.565
374.00,38.668
375.00,38.723
376.00,38.587
377.00,38.485
378.00,38.420
379.00,38.331
380.00,38.375
381.00,38.385
382.00,38.446
383.00,38.562
384.00,38.681
385.00,38.951
386.00,38.975
387.00,39.290
388.00,39.496
389.00,39.570
390.00,39.718
391.00,39.838
392.00,39.992
393.00,40.064
394.00,40.178
395.00,40.364
396.00,40.189
397.00,40.366
398.00,40.351
399.00,40.467
400.00,40.483
401.00,40.559
402.00,40.617
403.00,40.590
404.00,40.636
405.00,40.640
406.00,40.607
407.00,40.497
408.00,40.547
409.00,40.459
410.00,40.415
411.00,40.455
412.00,40.387
413.00,40.349
414.00,40.333
415.00,40.390
416.00,40.363
417.00,40.296
418.00,40.279
419.00,40.389
420.00,40.460
421.00,40.463
422.00,40.434
423.00,40.485
424.00,40.507
425.00,40.509
426.00,40.500
427.00,40.529
428.00,40.578
429.00,40.586
430.00,40.644
431.00,40.660
432.00,40.629
433.00,40.691
434.00,40.753
435.00,40.797
436.00,40.782
437.00,40.860
438.00,40.855
439.00,40.908
440.00,40.924
441.00,40.982
442.00,41.046
443.00,41.055
444.00,41.135
445.00,41.236
446.00,41.273
447.00,41.323
448.00,41.394
449.00,41.464
450.00,41.535
451.00,41.559
452.00,41.667
453.00,41.812
454.00,41.775
455.00,41.772
456.00,41.875
457.00,41.974
458.00,42.027
459.00,42.136
460.00,42.236
461.00,42.312
462.00,42.355
463.00,42.473
464.00,42.529
465.00,42.572
466.00,42.627
467.00,42.779
468.00,42.776
469.00,42.738
470.00,42.756
471.00,42.890
472.00,42.961
473.00,42.984
474.00,43.022
475.00,43.127
476.00,43.084
477.00,43.159
478.00,43.242
479.00,43.408
480.00,43.481
481.00,43.479
482.00,43.639
483.00,43.679
484.00,43.785
485.00,43.933
486.00,44.041
487.00,44.140
488.00,44.190
489.00,44.302
490.00,44.359
491.00,44.432
492.00,44.639
493.00,44.778
494.00,44.641
495.00,44.818
496.00,44.752
497.00,44.765
498.00,44.898
499.00,44.927
500.00,45.136
501.00,45.130
502.00,45.287
503.00,45.339
504.00,45.299
505.00,45.380
506.00,45.481
507.00,45.513
508.00,45.589
509.00,45.733
510.00,45.764
511.00,45.738
512.00,45.930
513.00,46.002
514.00,46.021
515.00,46.146
516.00,46.212
517.00,46.241
518.00,46.329
519.00,46.326
520.00,46.299
521.00,46.319
522.00,46.386
523.00,46.308
524.00,46.490
525.00,46.573
526.00,46.629
527.00,46.590
528.00,46.612
529.00,46.814
530.00,46.960
531.00,47.027
532.00,47.046
533.00,47.112
534.00,47.135
535.00,47.226
536.00,47.266
537.00,47.348
538.00,47.359
539.00,47.367
540.00,47.402
541.00,47.334
542.00,47.427
543.00,47.485
544.00,47.530
545.00,47.555
546.00,47.552
547.00,47.678
548.00,47.764
549.00,47.780
550.00,47.823
551.00,47.943
552.00,47.912
553.00,47.973
554.00,48.055
555.00,48.017
556.00,48.114
557.00,48.090
558.00,48.183
559.00,48.201
560.00,48.199
561.00,48.254
562.00,48.318
563.00,48.324
564.00,48.357
565.00,48.346
566.00,48.314
567.00,48.348
568.00,48.364
569.00,48.370
570.00,48.393
571.00,48.390
572.00,48.463
573.00,48.400
574.00,48.428
575.00,48.348
576.00,48.353
577.00,48.431
578.00,48.489
579.00,48.558
580.00,48.593
581.00,48.775
582.00,48.802
583.00,48.710
584.00,48.811
585.00,48.858
586.00,48.933
587.00,48.971
588.00,48.930
589.00,48.841
590.00,48.909
591.00,49.032
592.00,48.912
593.00,48.884
594.00,49.012
595.00,49.086
596.00,49.075
597.00,49.111
598.00,49.171
599.00,49.203
600.00,49.293
601.00,49.251
602.00,49.167
603.00,49.138
604.00,49.177
605.00,49.218
606.00,49.192
607.00,49.213
608.00,49.363
609.00,49.472
610.00,49.200
611.00,49.317
612.00,49.193
613.00,49.153
614.00,49.273
615.00,49.447
616.00,49.459
617.00,49.415
618.00,49.317
619.00,49.382
620.00,49.390
621.00,49.343
622.00,49.425
623.00,49.533
624.00,49.501
625.00,49.538
626.00,49.515
627.00,49.516
628.00,49.378
629.00,49.510
630.00,49.542
631.00,49.513
632.00,49.585
633.00,49.666
634.00,49.683
635.00,49.752
636.00,49.773
637.00,49.658
638.00,49.675
639.00,49.767
640.00,49.803
641.00,49.712
642.00,49.804
643.00,49.793
644.00,49.788
645.00,49.748
646.00,49.918
647.00,49.923
648.00,49.867
649.00,49.859
650.00,49.831
651.00,49.901
652.00,49.925
653.00,49.870
654.00,49.826
655.00,49.996
656.00,50.242
657.00,49.986
658.00,50.046
659.00,50.015
660.00,49.931
661.00,49.913
662.00,49.929
663.00,50.039
664.00,50.290
665.00,50.345
666.00,50.263
667.00,50.272
668.00,50.227
669.00,50.466
670.00,50.625
671.00,50.317
672.00,50.358
673.00,50.387
674.00,50.365
675.00,50.386
676.00,50.603
677.00,50.598
678.00,50.256
679.00,50.499
680.00,50.521
681.00,50.568
682.00,50.464
683.00,50.364
684.00,50.499
685.00,50.533
686.00,50.293
687.00,50.501
688.00,50.513
689.00,50.367
690.00,50.515
691.00,50.790
692.00,50.463
693.00,50.367
694.00,50.580
695.00,50.655
696.00,50.669
697.00,50.501
698.00,50.534
699.00,50.779
700.00,50.598
701.00,50.605
702.00,50.649
703.00,50.881
704.00,50.734
705.00,50.507
706.00,50.656
707.00,50.570
708.00,50.649
709.00,51.171
710.00,50.658
711.00,50.551
712.00,50.502
713.00,50.742
714.00,50.611
715.00,50.489
716.00,50.498
717.00,50.587
718.00,50.698
719.00,50.460
720.00,50.324
721.00,55.424
722.00,55.357
723.00,55.322
724.00,55.248
725.00,55.217
726.00,55.167
727.00,55.123
728.00,55.053
729.00,55.091
730.00,54.950
731.00,54.900
732.00,54.853
733.00,54.994
734.00,54.879
735.00,54.871
736.00,54.793
737.00,54.817
738.00,54.803
739.00,54.716
740.00,54.702
741.00,54.760
742.00,54.691
743.00,54.593
744.00,54.452
745.00,54.447
746.00,54.420
747.00,54.375
748.00,54.258
749.00,54.311
750.00,54.216
751.00,54.195
752.00,54.109
753.00,54.042
754.00,54.082
755.00,53.988
756.00,53.876
757.00,53.953
758.00,53.925
759.00,53.881
760.00,53.804
761.00,53.790
762.00,53.711
763.00,53.736
764.00,53.639
765.00,53.672
766.00,53.612
767.00,53.513
768.00,53.531
769.00,53.541
770.00,53.576
771.00,53.511
772.00,53.431
773.00,53.467
774.00,53.544
775.00,53.371
776.00,53.382
777.00,53.415
778.00,53.283
779.00,53.318
780.00,53.207
781.00,53.282
782.00,53.242
783.00,53.156
784.00,53.186
785.00,53.046
786.00,52.990
787.00,52.956
788.00,52.994
789.00,52.892
790.00,52.875
791.00,52.841
792.00,52.733
793.00,52.756
794.00,52.793
795.00,52.767
796.00,52.678
797.00,52.595
798.00,52.574
799.00,52.579
800.00,52.479
801.00,52.481
802.00,52.487
803.00,52.361
804.00,52.335
805.00,52.392
806.00,52.375
807.00,52.259
808.00,52.226
809.00,52.249
810.00,52.172
811.00,52.211
812.00,52.170
813.00,52.152
814.00,52.036
815.00,52.074
816.00,52.152
817.00,52.057
818.00,51.891
819.00,51.888
820.00,51.801
821.00,51.911
822.00,51.778
823.00,51.717
824.00,51.734
825.00,51.642
826.00,51.688
827.00,51.687
828.00,51.682
829.00,51.695
830.00,51.728
831.00,53.957
832.00,53.964
833.00,53.833
834.00,53.873
835.00,53.768
836.00,53.846
837.00,53.741
838.00,53.689
839.00,53.778
840.00,53.615
841.00,53.670
842.00,53.618
843.00,53.594
844.00,53.569
845.00,53.520
846.00,53.489
847.00,53.458
848.00,53.458
849.00,53.364
850.00,53.341
851.00,53.278
852.00,53.285
853.00,53.178
854.00,53.191
855.00,53.103
856.00,53.098
857.00,53.045
858.00,53.014
859.00,53.008
860.00,53.007
861.00,52.978
862.00,52.959
863.00,52.979
864.00,52.867
865.00,52.920
866.00,53.077
867.00,52.850
868.00,52.872
869.00,52.817
870.00,52.814
871.00,52.809
872.00,52.807
873.00,52.752
874.00,52.760
875.00,52.696
876.00,52.725
877.00,52.687
878.00,52.643
879.00,52.778
880.00,52.596
881.00,52.581
882.00,52.597
883.00,52.553
884.00,52.510
885.00,52.481
886.00,52.481
887.00,52.454
888.00,52.426
889.00,52.402
890.00,52.404
891.00,52.331
892.00,52.295
893.00,52.301
894.00,52.296
895.00,52.254
896.00,52.231
897.00,52.211
898.00,52.181
899.00,52.188
900.00,52.148
901.00,52.120
902.00,52.158
903.00,52.091
904.00,52.088
905.00,52.063
906.00,52.054
907.00,52.015
908.00,51.982
909.00,51.964
910.00,51.924
911.00,51.917
912.00,51.920
913.00,51.866
914.00,51.846
915.00,51.825
916.00,51.789
917.00,51.780
918.00,51.698
919.00,51.819
920.00,51.684
921.00,51.693
922.00,51.676
923.00,51.621
924.00,51.603
925.00,51.595
926.00,51.584
927.00,51.564
928.00,51.523
929.00,51.509
930.00,51.476
931.00,51.483
932.00,51.442
933.00,51.453
934.00,51.418
935.00,51.387
936.00,51.352
937.00,51.341
938.00,51.339
939.00,51.306
940.00,51.266
941.00,51.268
942.00,51.234
943.00,51.215
944.00,51.163
945.00,51.194
946.00,51.177
947.00,51.125
948.00,51.109
949.00,51.086
950.00,51.080
951.00,51.042
952.00,51.033
953.00,50.985
954.00,50.950
955.00,50.909
956.00,50.912
957.00,50.871
958.00,50.886
959.00,50.836
960.00,50.839
961.00,50.820
962.00,50.818
963.00,50.752
964.00,50.744
965.00,50.736
966.00,50.726
967.00,50.718
968.00,50.679
969.00,50.734
970.00,50.681
971.00,50.708
972.00,50.676
973.00,50.724
974.00,50.735
975.00,50.709
976.00,50.724
977.00,50.703
978.00,50.734
979.00,50.722
980.00,50.697
981.00,50.694
982.00,50.654
983.00,50.671
984.00,50.644
985.00,50.677
986.00,50.633
987.00,50.647
988.00,50.602
989.00,50.569
990.00,50.589
991.00,50.551
992.00,50.580
993.00,50.547
994.00,50.529
995.00,50.509
996.00,50.514
997.00,50.509
998.00,50.467
999.00,50.492
1000.00,50.437
1001.00,50.447
1002.00,50.438
1003.00,50.435
1004.00,50.427
1005.00,50.381
1006.00,50.418
1007.00,50.382
1008.00,50.367
1009.00,50.341
1010.00,50.338
1011.00,50.324
1012.00,50.285
1013.00,50.295
1014.00,50.241
1015.00,50.278
1016.00,50.226
1017.00,50.225
1018.00,50.223
1019.00,50.196
1020.00,50.199
1021.00,50.150
1022.00,50.146
1023.00,50.127
1024.00,50.122
1025.00,50.112
1026.00,50.072
1027.00,50.070
1028.00,50.055
1029.00,50.040
1030.00,50.010
1031.00,50.017
1032.00,49.977
1033.00,49.980
1034.00,49.961
1035.00,49.911
1036.00,49.894
1037.00,49.903
1038.00,49.893
1039.00,49.843
1040.00,49.847
1041.00,49.803
1042.00,49.796
1043.00,49.769
1044.00,49.799
1045.00,49.788
1046.00,49.769
1047.00,49.794
1048.00,49.809
1049.00,49.816
1050.00,49.805
1051.00,49.864
1052.00,49.857
1053.00,49.854
1054.00,49.850
1055.00,49.885
1056.00,49.900
1057.00,49.885
1058.00,49.869
1059.00,49.859
1060.00,49.879
1061.00,49.862
1062.00,49.857
1063.00,49.859
1064.00,49.857
1065.00,49.848
1066.00,49.821
1067.00,49.826
1068.00,49.837
1069.00,49.798
1070.00,49.790
1071.00,49.775
1072.00,49.791
1073.00,49.770
1074.00,49.758
1075.00,49.728
1076.00,49.752
1077.00,49.726
1078.00,49.705
1079.00,49.722
1080.00,49.720
1081.00,49.704
1082.00,49.687
1083.00,49.690
1084.00,49.701
1085.00,49.701
1086.00,49.694
1087.00,49.680
1088.00,49.657
1089.00,49.654
1090.00,49.652
1091.00,49.651
1092.00,49.639
1093.00,49.616
1094.00,49.600
1095.00,49.599
1096.00,49.569
1097.00,49.571
1098.00,49.562
1099.00,49.546
1100.00,49.556
1101.00,49.566
1102.00,49.559
1103.00,49.538
1104.00,49.529
1105.00,49.508
1106.00,49.497
1107.00,49.510
1108.00,49.479
1109.00,49.483
1110.00,49.461
1111.00,49.461
1112.00,49.463
1113.00,49.453
1114.00,49.473
1115.00,49.465
1116.00,49.421
1117.00,49.413
1118.00,49.404
1119.00,49.407
1120.00,49.397
1121.00,49.400
1122.00,49.385
1123.00,49.379
1124.00,49.379
1125.00,49.374
1126.00,49.375
1127.00,49.383
1128.00,49.349
1129.00,49.334
1130.00,49.311
1131.00,49.318
1132.00,49.305
1133.00,49.305
1134.00,49.292
1135.00,49.295
1136.00,49.286
1137.00,49.297
1138.00,49.281
1139.00,49.308
1140.00,49.295
1141.00,49.286
1142.00,49.272
1143.00,49.278
1144.00,49.268
1145.00,49.256
1146.00,49.245
1147.00,49.257
1148.00,49.246
1149.00,49.261
1150.00,49.267
1151.00,49.269
1152.00,49.243
1153.00,49.244
1154.00,49.227
1155.00,49.243
1156.00,49.231
1157.00,49.237
1158.00,49.226
1159.00,49.230
1160.00,49.214
1161.00,49.238
1162.00,49.242
1163.00,49.218
1164.00,49.234
1165.00,49.220
1166.00,49.230
1167.00,49.205
1168.00,49.229
1169.00,49.210
1170.00,49.223
1171.00,49.202
1172.00,49.215
1173.00,49.206
1174.00,49.215
1175.00,49.212
1176.00,49.204
1177.00,49.203
1178.00,49.203
1179.00,49.212
1180.00,49.208
1181.00,49.226
1182.00,49.204
1183.00,49.195
1184.00,49.189
1185.00,49.197
1186.00,49.187
1187.00,49.190
1188.00,49.189
1189.00,49.192
1190.00,49.200
1191.00,49.201
1192.00,49.219
1193.00,49.208
1194.00,49.228
1195.00,49.194
1196.00,49.220
1197.00,49.216
1198.00,49.183
1199.00,49.188
1200.00,49.190
1201.00,49.218
1202.00,49.199
1203.00,49.201
1204.00,49.187
1205.00,49.202
1206.00,49.195
1207.00,49.200
1208.00,49.202
1209.00,49.203
1210.00,49.196
1211.00,49.203
1212.00,49.224
1213.00,49.194
1214.00,49.218
1215.00,49.196
1216.00,49.209
1217.00,49.221
1218.00,49.191
1219.00,49.207
1220.00,49.185
1221.00,49.221
1222.00,49.209
1223.00,49.225
1224.00,49.239
1225.00,49.209
1226.00,49.223
1227.00,49.224
1228.00,49.240
1229.00,49.229
1230.00,49.249
1231.00,49.229
1232.00,49.279
1233.00,49.272
1234.00,49.285
1235.00,49.285
1236.00,49.274
1237.00,49.284
1238.00,49.280
1239.00,49.291
1240.00,49.275
1241.00,49.285
1242.00,49.281
1243.00,49.304
1244.00,49.277
1245.00,49.309
1246.00,49.322
1247.00,49.305
1248.00,49.302
1249.00,49.316
1250.00,49.329
1251.00,49.297
1252.00,49.320
1253.00,49.315
1254.00,49.353
1255.00,49.331
1256.00,49.314
1257.00,49.329
1258.00,49.374
1259.00,49.348
1260.00,49.384
1261.00,49.375
1262.00,49.376
1263.00,49.383
1264.00,49.380
1265.00,49.395
1266.00,49.384
1267.00,49.399
1268.00,49.394
1269.00,49.406
1270.00,49.428
1271.00,49.425
1272.00,49.429
1273.00,49.444
1274.00,49.444
1275.00,49.434
1276.00,49.451
1277.00,49.449
1278.00,49.463
1279.00,49.472
1280.00,49.456
1281.00,49.466
1282.00,49.486
1283.00,49.474
1284.00,49.514
1285.00,49.506
1286.00,49.506
1287.00,49.497
1288.00,49.512
1289.00,49.499
1290.00,49.542
1291.00,49.534
1292.00,49.524
1293.00,49.531
1294.00,49.564
1295.00,49.562
1296.00,49.553
1297.00,49.557
1298.00,49.602
1299.00,49.572
1300.00,49.585
1301.00,49.578
1302.00,49.609
1303.00,49.601
1304.00,49.605
1305.00,49.629
1306.00,49.619
1307.00,49.637
1308.00,49.638
1309.00,49.682
1310.00,49.663
1311.00,49.652
1312.00,49.667
1313.00,49.700
1314.00,49.692
1315.00,49.715
1316.00,49.714
1317.00,49.742
1318.00,49.724
1319.00,49.714
1320.00,49.734
1321.00,49.899
1322.00,49.878
1323.00,49.892
1324.00,49.861
1325.00,49.860
1326.00,49.895
1327.00,49.852
1328.00,49.867
1329.00,49.873
1330.00,49.870
1331.00,49.881
1332.00,49.881
1333.00,49.901
1334.00,49.947
1335.00,49.950
1336.00,50.004
1337.00,49.997
1338.00,50.053
1339.00,50.116
1340.00,50.178
1341.00,50.226
1342.00,50.296
1343.00,50.344
1344.00,50.392
1345.00,50.462
1346.00,50.495
1347.00,50.526
1348.00,50.548
1349.00,50.562
1350.00,50.583
1351.00,50.604
1352.00,50.599
1353.00,50.624
1354.00,50.619
1355.00,50.565
1356.00,50.662
1357.00,50.636
1358.00,50.637
1359.00,50.683
1360.00,50.633
1361.00,50.715
1362.00,50.665
1363.00,50.713
1364.00,50.765
1365.00,50.675
1366.00,50.736
1367.00,50.696
1368.00,50.633
1369.00,50.669
1370.00,50.675
1371.00,50.604
1372.00,50.659
1373.00,50.681
1374.00,50.670
1375.00,50.657
1376.00,50.664
1377.00,50.617
1378.00,50.735
1379.00,50.693
1380.00,50.667
1381.00,50.685
1382.00,50.646
1383.00,50.693
1384.00,50.655
1385.00,50.653
1386.00,50.693
1387.00,50.633
1388.00,50.609
1389.00,50.679
1390.00,50.640
1391.00,50.629
1392.00,50.646
1393.00,50.612
1394.00,50.666
1395.00,50.659
1396.00,50.611
1397.00,50.624
1398.00,50.728
1399.00,50.684
1400.00,50.602
1401.00,50.632
1402.00,50.698
1403.00,50.677
1404.00,50.674
1405.00,50.713
1406.00,50.734
1407.00,50.712
1408.00,50.763
1409.00,50.698
1410.00,50.743
1411.00,50.700
1412.00,50.714
1413.00,50.736
1414.00,50.739
1415.00,50.776
1416.00,50.798
1417.00,50.841
1418.00,50.802
1419.00,50.811
1420.00,50.824
1421.00,50.868
1422.00,50.877
1423.00,50.883
1424.00,50.888
1425.00,50.917
1426.00,50.927
1427.00,50.944
1428.00,50.942
1429.00,50.988
1430.00,50.989
1431.00,51.014
1432.00,51.012
1433.00,51.027
1434.00,51.040
1435.00,51.093
1436.00,51.103
1437.00,51.093
1438.00,51.127
1439.00,51.152
1440.00,51.147
1441.00,51.190
1442.00,51.193
1443.00,51.231
1444.00,51.313
1445.00,51.217
1446.00,51.239
1447.00,51.290
1448.00,51.328
1449.00,51.334
1450.00,51.342
1451.00,51.365
1452.00,51.393
1453.00,51.387
1454.00,51.394
1455.00,51.445
1456.00,51.444
1457.00,51.433
1458.00,51.483
1459.00,51.478
1460.00,51.534
1461.00,51.511
1462.00,51.534
1463.00,51.562
1464.00,51.574
1465.00,51.577
1466.00,51.581
1467.00,51.615
1468.00,51.671
1469.00,51.654
1470.00,51.660
1471.00,51.700
1472.00,51.709
1473.00,51.704
1474.00,51.748
1475.00,51.782
1476.00,51.746
1477.00,51.761
1478.00,51.811
1479.00,51.789
1480.00,51.794
1481.00,51.802
1482.00,51.848
1483.00,51.856
1484.00,51.873
1485.00,51.895
1486.00,51.888
1487.00,51.919
1488.00,51.962
1489.00,51.938
1490.00,51.958
1491.00,51.972
1492.00,51.993
1493.00,51.978
1494.00,52.011
1495.00,51.999
1496.00,52.034
1497.00,52.019
1498.00,52.017
1499.00,52.052
1500.00,52.072
1501.00, 
1502.00, 
1503.00, 
1504.00, 
1505.00, 
1506.00, 
1507.00, 
1508.00, 
1509.00, 
1510.00, 
1511.00, 
1512.00, 
1513.00, 
1514.00, 
1515.00, 
1516.00, 
1517.00, 
1518.00, 
1519.00, 
1520.00, 
1521.00, 
1522.00, 
1523.00, 
1524.00, 
1525.00, 
1526.00, 
1527.00, 
1528.00, 
1529.00, 
1530.00, 
1531.00, 
1532.00, 
1533.00, 
1534.00, 
1535.00, 
1536.00, 
1537.00, 
1538.00, 
1539.00, 
1540.00, 
1541.00, 
1542.00, 
1543.00, 
1544.00, 
1545.00, 
1546.00, 
1547.00, 
1548.00, 
1549.00, 
1550.00, 
1551.00, 
1552.00, 
1553.00, 
1554.00, 
1555.00, 
1556.00, 
1557.00, 
1558.00, 
1559.00, 
1560.00, 
1561.00, 
1562.00, 
1563.00, 
1564.00, 
1565.00, 
1566.00, 
1567.00, 
1568.00, 
1569.00, 
1570.00, 
1571.00, 
1572.00, 
1573.00, 
1574.00, 
1575.00, 
1576.00, 
1577.00, 
1578.00, 
1579.00, 
1580.00, 
1581.00, 
1582.00, 
1583.00, 
1584.00, 
1585.00, 
1586.00, 
1587.00, 
1588.00, 
1589.00, 
1590.00, 
1591.00, 
1592.00, 
1593.00, 
1594.00, 
1595.00, 
1596.00, 
1597.00, 
1598.00, 
1599.00, 
1600.00, 
1601.00, 
1602.00, 
1603.00, 
1604.00, 
1605.00, 
1606.00, 
1607.00, 
1608.00, 
1609.00, 
1610.00, 
1611.00, 
1612.00, 
1613.00, 
1614.00, 
1615.00, 
1616.00, 
1617.00, 
1618.00, 
1619.00, 
1620.00, 
1621.00, 
1622.00, 
1623.00, 
1624.00, 
1625.00, 
1626.00, 
1627.00, 
1628.00, 
1629.00, 
1630.00, 
1631.00, 
1632.00, 
1633.00, 
1634.00, 
1635.00, 
1636.00, 
1637.00, 
1638.00, 
1639.00, 
1640.00, 
1641.00, 
1642.00, 
1643.00, 
1644.00, 
1645.00, 
1646.00, 
1647.00, 
1648.00, 
1649.00, 
1650.00, 
1651.00, 
1652.00, 
1653.00, 
1654.00, 
1655.00, 
1656.00, 
1657.00, 
1658.00, 
1659.00, 
1660.00, 
1661.00, 
1662.00, 
1663.00, 
1664.00, 
1665.00, 
1666.00, 
1667.00, 
1668.00, 
1669.00, 
1670.00, 
1671.00, 
1672.00, 
1673.00, 
1674.00, 
1675.00, 
1676.00, 
1677.00, 
1678.00, 
1679.00, 
1680.00, 
1681.00, 
1682.00, 
1683.00, 
1684.00, 
1685.00, 
1686.00, 
1687.00, 
1688.00, 
1689.00, 
1690.00, 
1691.00, 
1692.00, 
1693.00, 
1694.00, 
1695.00, 
1696.00, 
1697.00, 
1698.00, 
1699.00, 
1700.00, 
1701.00, 
1702.00, 
1703.00, 
1704.00, 
1705.00, 
1706.00, 
1707.00, 
1708.00, 
1709.00, 
1710.00, 
1711.00, 
1712.00, 
1713.00, 
1714.00, 
1715.00, 
1716.00, 
1717.00, 
1718.00, 
1719.00, 
1720.00, 
1721.00, 
1722.00, 
1723.00, 
1724.00, 
1725.00, 
1726.00, 
1727.00, 
1728.00, 
1729.00, 
1730.00, 
1731.00, 
1732.00, 
1733.00, 
1734.00, 
1735.00, 
1736.00, 
1737.00, 
1738.00, 
1739.00, 
1740.00, 
1741.00, 
1742.00, 
1743.00, 
1744.00, 
1745.00, 
1746.00, 
1747.00, 
1748.00, 
1749.00, 
1750.00, 
1751.00, 
1752.00, 
1753.00, 
1754.00, 
1755.00, 
1756.00, 
1757.00, 
1758.00, 
1759.00, 
1760.00, 
1761.00, 
1762.00, 
1763.00, 
1764.00, 
1765.00, 
1766.00, 
1767.00, 
1768.00, 
1769.00, 
1770.00, 
1771.00, 
1772.00, 
1773.00, 
1774.00, 
1775.00, 
1776.00, 
1777.00, 
1778.00, 
1779.00, 
1780.00, 
1781.00, 
1782.00, 
1783.00, 
1784.00, 
1785.00, 
1786.00, 
1787.00, 
1788.00, 
1789.00, 
1790.00, 
1791.00, 
1792.00, 
1793.00, 
1794.00, 
1795.00, 
1796.00, 
1797.00, 
1798.00, 
1799.00, 
1800.00, 
1801.00, 
1802.00, 
1803.00, 
1804.00, 
1805.00, 
1806.00, 
1807.00, 
1808.00, 
1809.00, 
1810.00, 
1811.00, 
1812.00, 
1813.00, 
1814.00, 
1815.00, 
1816.00, 
1817.00, 
1818.00, 
1819.00, 
1820.00, 
1821.00, 
1822.00, 
1823.00, 
1824.00, 
1825.00, 
1826.00, 
1827.00, 
1828.00, 
1829.00, 
1830.00, 
1831.00, 
1832.00, 
1833.00, 
1834.00, 
1835.00, 
1836.00, 
1837.00, 
1838.00, 
1839.00, 
1840.00, 
1841.00, 
1842.00, 
1843.00, 
1844.00, 
1845.00, 
1846.00, 
1847.00, 
1848.00, 
1849.00, 
1850.00, 
1851.00, 
1852.00, 
1853.00, 
1854.00, 
1855.00, 
1856.00, 
1857.00, 
1858.00, 
1859.00, 
1860.00, 
1861.00, 
1862.00, 
1863.00, 
1864.00, 
1865.00, 
1866.00, 
1867.00, 
1868.00, 
1869.00, 
1870.00, 
1871.00, 
1872.00, 
1873.00, 
1874.00, 
1875.00, 
1876.00, 
1877.00, 
1878.00, 
1879.00, 
1880.00, 
1881.00, 
1882.00, 
1883.00, 
1884.00, 
1885.00, 
1886.00, 
1887.00, 
1888.00, 
1889.00, 
1890.00, 
1891.00, 
1892.00, 
1893.00, 
1894.00, 
1895.00, 
1896.00, 
1897.00, 
1898.00, 
1899.00, 
1900.00, 
1901.00, 
1902.00, 
1903.00, 
1904.00, 
1905.00, 
1906.00, 
1907.00, 
1908.00, 
1909.00, 
1910.00, 
1911.00, 
1912.00, 
1913.00, 
1914.00, 
1915.00, 
1916.00, 
1917.00, 
1918.00, 
1919.00, 
1920.00, 
1921.00, 
1922.00, 
1923.00, 
1924.00, 
1925.00, 
1926.00, 
1927.00, 
1928.00, 
1929.00, 
1930.00, 
1931.00, 
1932.00, 
1933.00, 
1934.00, 
1935.00, 
1936.00, 
1937.00, 
1938.00, 
1939.00, 
1940.00, 
1941.00, 
1942.00, 
1943.00, 
1944.00, 
1945.00, 
1946.00, 
1947.00, 
1948.00, 
1949.00, 
1950.00, 
1951.00, 
1952.00, 
1953.00, 
1954.00, 
1955.00, 
1956.00, 
1957.00, 
1958.00, 
1959.00, 
1960.00, 
1961.00, 
1962.00, 
1963.00, 
1964.00, 
1965.00, 
1966.00, 
1967.00, 
1968.00, 
1969.00, 
1970.00, 
1971.00, 
1972.00, 
1973.00, 
1974.00, 
1975.00, 
1976.00, 
1977.00, 
1978.00, 
1979.00, 
1980.00, 
1981.00, 
1982.00, 
1983.00, 
1984.00, 
1985.00, 
1986.00, 
1987.00, 
1988.00, 
1989.00, 
1990.00, 
1991.00, 
1992.00, 
1993.00, 
1994.00, 
1995.00, 
1996.00, 
1997.00, 
1998.00, 
1999.00, 
2000.00, 
2001.00, 
2002.00, 
2003.00, 
2004.00, 
2005.00, 
2006.00, 
2007.00, 
2008.00, 
2009.00, 
2010.00, 
2011.00, 
2012.00, 
2013.00, 
2014.00, 
2015.00, 
2016.00, 
2017.00, 
2018.00, 
2019.00, 
2020.00, 
2021.00, 
2022.00, 
2023.00, 
2024.00, 
2025.00, 
2026.00, 
2027.00, 
2028.00, 
2029.00, 
2030.00, 
2031.00, 
2032.00, 
2033.00, 
2034.00, 
2035.00, 
2036.00, 
2037.00, 
2038.00, 
2039.00, 
2040.00, 
2041.00, 
2042.00, 
2043.00, 
2044.00, 
2045.00, 
2046.00, 
2047.00, 
2048.00, 
2049.00, 
2050.00, 
2051.00, 
2052.00, 
2053.00, 
2054.00, 
2055.00, 
2056.00, 
2057.00, 
2058.00, 
2059.00, 
2060.00, 
2061.00, 
2062.00, 
2063.00, 
2064.00, 
2065.00, 
2066.00, 
2067.00, 
2068.00, 
2069.00, 
2070.00, 
2071.00, 
2072.00, 
2073.00, 
2074.00, 
2075.00, 
2076.00, 
2077.00, 
2078.00, 
2079.00, 
2080.00, 
2081.00, 
2082.00, 
2083.00, 
2084.00, 
2085.00, 
2086.00, 
2087.00, 
2088.00, 
2089.00, 
2090.00, 
2091.00, 
2092.00, 
2093.00, 
2094.00, 
2095.00, 
2096.00, 
2097.00, 
2098.00, 
2099.00, 
2100.00, 
2101.00, 
2102.00, 
2103.00, 
2104.00, 
2105.00, 
2106.00, 
2107.00, 
2108.00, 
2109.00, 
2110.00, 
2111.00, 
2112.00, 
2113.00, 
2114.00, 
2115.00, 
2116.00, 
2117.00, 
2118.00, 
2119.00, 
2120.00, 
2121.00, 
2122.00, 
2123.00, 
2124.00, 
2125.00, 
2126.00, 
2127.00, 
2128.00, 
2129.00, 
2130.00, 
2131.00, 
2132.00, 
2133.00, 
2134.00, 
2135.00, 
2136.00, 
2137.00, 
2138.00, 
2139.00, 
2140.00, 
2141.00, 
2142.00, 
2143.00, 
2144.00, 
2145.00, 
2146.00, 
2147.00, 
2148.00, 
2149.00, 
2150.00, 
2151.00, 
2152.00, 
2153.00, 
2154.00, 
2155.00, 
2156.00, 
2157.00, 
2158.00, 
2159.00, 
2160.00, 
2161.00, 
2162.00, 
2163.00, 
2164.00, 
2165.00, 
2166.00, 
2167.00, 
2168.00, 
2169.00, 
2170.00, 
2171.00, 
2172.00, 
2173.00, 
2174.00, 
2175.00, 
2176.00, 
2177.00, 
2178.00, 
2179.00, 
2180.00, 
2181.00, 
2182.00, 
2183.00, 
2184.00, 
2185.00, 
2186.00, 
2187.00, 
2188.00, 
2189.00, 
2190.00, 
2191.00, 
2192.00, 
2193.00, 
2194.00, 
2195.00, 
2196.00, 
2197.00, 
2198.00, 
2199.00, 
2200.00, 
2201.00, 
2202.00, 
2203.00, 
2204.00, 
2205.00, 
2206.00, 
2207.00, 
2208.00, 
2209.00, 
2210.00, 
2211.00, 
2212.00, 
2213.00, 
2214.00, 
2215.00, 
2216.00, 
2217.00, 
2218.00, 
2219.00, 
2220.00, 
2221.00, 
2222.00, 
2223.00, 
2224.00, 
2225.00, 
2226.00, 
2227.00, 
2228.00, 
2229.00, 
2230.00, 
2231.00, 
2232.00, 
2233.00, 
2234.00, 
2235.00, 
2236.00, 
2237.00, 
2238.00, 
2239.00, 
2240.00, 
2241.00, 
2242.00, 
2243.00, 
2244.00, 
2245.00, 
2246.00, 
2247.00, 
2248.00, 
2249.00, 
2250.00, 
2251.00, 
2252.00, 
2253.00, 
2254.00, 
2255.00, 
2256.00, 
2257.00, 
2258.00, 
2259.00, 
2260.00, 
2261.00, 
2262.00, 
2263.00, 
2264.00, 
2265.00, 
2266.00, 
2267.00, 
2268.00, 
2269.00, 
2270.00, 
2271.00, 
2272.00, 
2273.00, 
2274.00, 
2275.00, 
2276.00, 
2277.00, 
2278.00, 
2279.00, 
2280.00, 
2281.00, 
2282.00, 
2283.00, 
2284.00, 
2285.00, 
2286.00, 
2287.00, 
2288.00, 
2289.00, 
2290.00, 
2291.00, 
2292.00, 
2293.00, 
2294.00, 
2295.00, 
2296.00, 
2297.00, 
2298.00, 
2299.00, 
2300.00, 
2301.00, 
2302.00, 
2303.00, 
2304.00, 
2305.00, 
2306.00, 
2307.00, 
2308.00, 
2309.00, 
2310.00, 
2311.00, 
2312.00, 
2313.00, 
2314.00, 
2315.00, 
2316.00, 
2317.00, 
2318.00, 
2319.00, 
2320.00, 
2321.00, 
2322.00, 
2323.00, 
2324.00, 
2325.00, 
2326.00, 
2327.00, 
2328.00, 
2329.00, 
2330.00, 
2331.00, 
2332.00, 
2333.00, 
2334.00, 
2335.00, 
2336.00, 
2337.00, 
2338.00, 
2339.00, 
2340.00, 
2341.00, 
2342.00, 
2343.00, 
2344.00, 
2345.00, 
2346.00, 
2347.00, 
2348.00, 
2349.00, 
2350.00, 
2351.00, 
2352.00, 
2353.00, 
2354.00, 
2355.00, 
2356.00, 
2357.00, 
2358.00, 
2359.00, 
2360.00, 
2361.00, 
2362.00, 
2363.00, 
2364.00, 
2365.00, 
2366.00, 
2367.00, 
2368.00, 
2369.00, 
2370.00, 
2371.00, 
2372.00, 
2373.00, 
2374.00, 
2375.00, 
2376.00, 
2377.00, 
2378.00, 
2379.00, 
2380.00, 
2381.00, 
2382.00, 
2383.00, 
2384.00, 
2385.00, 
2386.00, 
2387.00, 
2388.00, 
2389.00, 
2390.00, 
2391.00, 
2392.00, 
2393.00, 
2394.00, 
2395.00, 
2396.00, 
2397.00, 
2398.00, 
2399.00, 
2400.00, 
2401.00, 
2402.00, 
2403.00, 
2404.00, 
2405.00, 
2406.00, 
2407.00, 
2408.00, 
2409.00, 
2410.00, 
2411.00, 
2412.00, 
2413.00, 
2414.00, 
2415.00, 
2416.00, 
2417.00, 
2418.00, 
2419.00, 
2420.00, 
2421.00, 
2422.00, 
2423.00, 
2424.00, 
2425.00, 
2426.00, 
2427.00, 
2428.00, 
2429.00, 
2430.00, 
2431.00, 
2432.00, 
2433.00, 
2434.00, 
2435.00, 
2436.00, 
2437.00, 
2438.00, 
2439.00, 
2440.00, 
2441.00, 
2442.00, 
2443.00, 
2444.00, 
2445.00, 
2446.00, 
2447.00, 
2448.00, 
2449.00, 
2450.00, 
2451.00, 
2452.00, 
2453.00, 
2454.00, 
2455.00, 
2456.00, 
2457.00, 
2458.00, 
2459.00, 
2460.00, 
2461.00, 
2462.00, 
2463.00, 
2464.00, 
2465.00, 
2466.00, 
2467.00, 
2468.00, 
2469.00, 
2470.00, 
2471.00, 
2472.00, 
2473.00, 
2474.00, 
2475.00, 
2476.00, 
2477.00, 
2478.00, 
2479.00, 
2480.00, 
2481.00, 
2482.00, 
2483.00, 
2484.00, 
2485.00, 
2486.00, 
2487.00, 
2488.00, 
2489.00, 
2490.00, 
2491.00, 
2492.00, 
2493.00, 
2494.00, 
2495.00, 
2496.00, 
2497.00, 
2498.00, 
2499.00, 
2500.00, 
2501.00, 
2502.00, 
2503.00, 
2504.00, 
2505.00, 
2506.00, 
2507.00, 
2508.00, 
2509.00, 
2510.00, 
2511.00, 
2512.00, 
2513.00, 
2514.00, 
2515.00, 
2516.00, 
2517.00, 
2518.00, 
2519.00, 
2520.00, 
2521.00, 
2522.00, 
2523.00, 
2524.00, 
2525.00, 
2526.00, 
2527.00, 
2528.00, 
2529.00, 
2530.00, 
2531.00, 
2532.00, 
2533.00, 
2534.00, 
2535.00, 
2536.00, 
2537.00, 
2538.00, 
2539.00, 
2540.00, 
2541.00, 
2542.00, 
2543.00, 
2544.00, 
2545.00, 
2546.00, 
2547.00, 
2548.00, 
2549.00, 
2550.00, 
2551.00, 
2552.00, 
2553.00, 
2554.00, 
2555.00, 
2556.00, 
2557.00, 
2558.00, 
2559.00, 
2560.00, 
2561.00, 
2562.00, 
2563.00, 
2564.00, 
2565.00, 
2566.00, 
2567.00, 
2568.00, 
2569.00, 
2570.00, 
2571.00, 
2572.00, 
2573.00, 
2574.00, 
2575.00, 
2576.00, 
2577.00, 
2578.00, 
2579.00, 
2580.00, 
2581.00, 
2582.00, 
2583.00, 
2584.00, 
2585.00, 
2586.00, 
2587.00, 
2588.00, 
2589.00, 
2590.00, 
2591.00, 
2592.00, 
2593.00, 
2594.00, 
2595.00, 
2596.00, 
2597.00, 
2598.00, 
2599.00, 
2600.00, 
