"2cP1 - RawData"
"Wavelength nm.","T%"
200.00,0.002
201.00,0.000
202.00,0.002
203.00,-0.001
204.00,-0.000
205.00,0.002
206.00,0.001
207.00,0.006
208.00,-0.001
209.00,-0.001
210.00,0.000
211.00,0.000
212.00,0.000
213.00,0.003
214.00,0.001
215.00,0.001
216.00,0.001
217.00,-0.003
218.00,0.000
219.00,0.001
220.00,0.004
221.00,0.002
222.00,-0.000
223.00,0.003
224.00,0.004
225.00,0.000
226.00,0.002
227.00,0.003
228.00,-0.000
229.00,0.002
230.00,-0.002
231.00,-0.001
232.00,-0.001
233.00,0.002
234.00,0.002
235.00,0.001
236.00,0.002
237.00,0.002
238.00,0.001
239.00,0.000
240.00,0.001
241.00,0.000
242.00,0.001
243.00,0.000
244.00,0.000
245.00,0.001
246.00,0.002
247.00,-0.000
248.00,-0.001
249.00,-0.000
250.00,0.001
251.00,0.001
252.00,0.001
253.00,-0.000
254.00,0.002
255.00,0.001
256.00,-0.001
257.00,0.001
258.00,0.001
259.00,0.000
260.00,-0.000
261.00,-0.000
262.00,0.001
263.00,0.000
264.00,-0.001
265.00,0.000
266.00,0.001
267.00,0.001
268.00,-0.000
269.00,0.001
270.00,0.000
271.00,0.000
272.00,-0.000
273.00,0.002
274.00,-0.000
275.00,-0.001
276.00,0.002
277.00,0.001
278.00,-0.001
279.00,0.001
280.00,0.000
281.00,0.001
282.00,0.000
283.00,-0.000
284.00,-0.001
285.00,-0.001
286.00,0.002
287.00,-0.000
288.00,0.001
289.00,0.002
290.00,0.002
291.00,-0.002
292.00,-0.000
293.00,0.000
294.00,0.000
295.00,-0.001
296.00,0.001
297.00,-0.000
298.00,0.002
299.00,0.002
300.00,0.002
301.00,0.003
302.00,0.006
303.00,0.006
304.00,0.011
305.00,0.019
306.00,0.028
307.00,0.041
308.00,0.062
309.00,0.100
310.00,0.136
311.00,0.189
312.00,0.257
313.00,0.345
314.00,0.460
315.00,0.598
316.00,0.760
317.00,0.956
318.00,1.178
319.00,1.446
320.00,1.775
321.00,2.124
322.00,2.518
323.00,2.949
324.00,3.412
325.00,3.885
326.00,4.397
327.00,4.963
328.00,5.552
329.00,6.150
330.00,6.778
331.00,7.415
332.00,8.042
333.00,8.735
334.00,9.347
335.00,10.015
336.00,10.662
337.00,11.351
338.00,11.983
339.00,12.568
340.00,13.203
341.00,13.829
342.00,14.378
343.00,14.938
344.00,15.415
345.00,15.939
346.00,16.406
347.00,16.854
348.00,17.306
349.00,17.727
350.00,18.052
351.00,18.439
352.00,18.756
353.00,19.082
354.00,19.357
355.00,19.662
356.00,19.918
357.00,20.170
358.00,20.380
359.00,20.591
360.00,20.809
361.00,20.956
362.00,21.149
363.00,21.249
364.00,21.431
365.00,21.528
366.00,21.639
367.00,21.734
368.00,21.798
369.00,21.828
370.00,21.866
371.00,21.925
372.00,21.931
373.00,21.921
374.00,21.903
375.00,21.894
376.00,21.879
377.00,21.840
378.00,21.801
379.00,21.737
380.00,21.756
381.00,21.755
382.00,21.743
383.00,21.761
384.00,21.771
385.00,21.836
386.00,21.838
387.00,21.883
388.00,21.890
389.00,21.919
390.00,21.940
391.00,21.917
392.00,21.928
393.00,21.941
394.00,22.050
395.00,22.066
396.00,22.082
397.00,22.074
398.00,22.056
399.00,22.073
400.00,22.056
401.00,22.078
402.00,22.086
403.00,22.081
404.00,22.062
405.00,22.059
406.00,22.049
407.00,22.025
408.00,21.970
409.00,21.955
410.00,21.897
411.00,21.940
412.00,21.948
413.00,21.922
414.00,21.939
415.00,22.001
416.00,21.947
417.00,21.965
418.00,21.966
419.00,21.996
420.00,22.000
421.00,22.081
422.00,22.131
423.00,22.162
424.00,22.097
425.00,22.201
426.00,22.244
427.00,22.273
428.00,22.308
429.00,22.357
430.00,22.387
431.00,22.447
432.00,22.446
433.00,22.552
434.00,22.591
435.00,22.633
436.00,22.697
437.00,22.739
438.00,22.806
439.00,22.817
440.00,22.957
441.00,23.051
442.00,23.133
443.00,23.185
444.00,23.272
445.00,23.379
446.00,23.453
447.00,23.547
448.00,23.634
449.00,23.730
450.00,23.829
451.00,23.913
452.00,24.043
453.00,24.159
454.00,24.241
455.00,24.348
456.00,24.437
457.00,24.576
458.00,24.651
459.00,24.772
460.00,24.881
461.00,25.011
462.00,25.112
463.00,25.242
464.00,25.356
465.00,25.454
466.00,25.581
467.00,25.698
468.00,25.842
469.00,25.961
470.00,25.972
471.00,26.116
472.00,26.260
473.00,26.348
474.00,26.475
475.00,26.604
476.00,26.685
477.00,26.823
478.00,26.922
479.00,27.084
480.00,27.242
481.00,27.366
482.00,27.518
483.00,27.643
484.00,27.769
485.00,27.998
486.00,28.088
487.00,28.234
488.00,28.369
489.00,28.515
490.00,28.634
491.00,28.782
492.00,28.967
493.00,29.074
494.00,29.118
495.00,29.319
496.00,29.388
497.00,29.510
498.00,29.666
499.00,29.793
500.00,29.922
501.00,30.039
502.00,30.192
503.00,30.304
504.00,30.415
505.00,30.538
506.00,30.676
507.00,30.750
508.00,30.876
509.00,31.024
510.00,31.140
511.00,31.208
512.00,31.412
513.00,31.484
514.00,31.614
515.00,31.762
516.00,31.847
517.00,31.963
518.00,32.091
519.00,32.172
520.00,32.268
521.00,32.310
522.00,32.402
523.00,32.515
524.00,32.602
525.00,32.692
526.00,32.807
527.00,32.886
528.00,32.960
529.00,33.049
530.00,33.171
531.00,33.313
532.00,33.414
533.00,33.477
534.00,33.582
535.00,33.665
536.00,33.796
537.00,33.834
538.00,33.937
539.00,34.006
540.00,34.102
541.00,34.132
542.00,34.217
543.00,34.305
544.00,34.338
545.00,34.449
546.00,34.494
547.00,34.610
548.00,34.660
549.00,34.711
550.00,34.793
551.00,34.950
552.00,35.029
553.00,35.107
554.00,35.194
555.00,35.232
556.00,35.286
557.00,35.363
558.00,35.401
559.00,35.466
560.00,35.495
561.00,35.552
562.00,35.659
563.00,35.706
564.00,35.779
565.00,35.758
566.00,35.820
567.00,35.908
568.00,35.840
569.00,35.965
570.00,35.964
571.00,35.864
572.00,36.109
573.00,36.117
574.00,36.209
575.00,36.220
576.00,36.252
577.00,36.330
578.00,36.419
579.00,36.454
580.00,36.545
581.00,36.627
582.00,36.696
583.00,36.751
584.00,36.840
585.00,36.897
586.00,36.957
587.00,37.013
588.00,37.070
589.00,37.156
590.00,37.179
591.00,37.256
592.00,37.253
593.00,37.260
594.00,37.333
595.00,37.424
596.00,37.465
597.00,37.499
598.00,37.611
599.00,37.648
600.00,37.718
601.00,37.741
602.00,37.749
603.00,37.790
604.00,37.838
605.00,37.945
606.00,38.031
607.00,37.979
608.00,38.098
609.00,38.091
610.00,38.071
611.00,38.164
612.00,38.262
613.00,38.243
614.00,38.337
615.00,38.395
616.00,38.428
617.00,38.498
618.00,38.574
619.00,38.614
620.00,38.628
621.00,38.666
622.00,38.755
623.00,38.891
624.00,38.919
625.00,38.963
626.00,38.935
627.00,39.083
628.00,39.129
629.00,39.236
630.00,39.276
631.00,39.303
632.00,39.371
633.00,39.464
634.00,39.502
635.00,39.589
636.00,39.657
637.00,39.771
638.00,39.830
639.00,39.908
640.00,39.931
641.00,39.975
642.00,40.098
643.00,40.145
644.00,40.245
645.00,40.269
646.00,40.378
647.00,40.497
648.00,40.569
649.00,40.588
650.00,40.601
651.00,40.781
652.00,40.840
653.00,40.952
654.00,40.974
655.00,41.011
656.00,41.177
657.00,41.270
658.00,41.313
659.00,41.288
660.00,41.434
661.00,41.503
662.00,41.691
663.00,41.751
664.00,41.916
665.00,41.936
666.00,42.035
667.00,42.144
668.00,42.251
669.00,42.260
670.00,42.411
671.00,42.556
672.00,42.590
673.00,42.653
674.00,42.751
675.00,42.826
676.00,42.946
677.00,42.985
678.00,43.028
679.00,43.184
680.00,43.215
681.00,43.298
682.00,43.408
683.00,43.407
684.00,43.600
685.00,43.720
686.00,43.510
687.00,43.793
688.00,43.988
689.00,43.958
690.00,44.074
691.00,44.217
692.00,44.270
693.00,44.329
694.00,44.474
695.00,44.535
696.00,44.570
697.00,44.667
698.00,44.795
699.00,44.980
700.00,45.015
701.00,44.985
702.00,45.203
703.00,45.205
704.00,45.269
705.00,45.237
706.00,45.493
707.00,45.521
708.00,45.362
709.00,45.824
710.00,45.757
711.00,45.802
712.00,45.737
713.00,45.956
714.00,45.927
715.00,45.974
716.00,46.109
717.00,46.112
718.00,46.237
719.00,46.247
720.00,46.290
721.00,50.439
722.00,50.522
723.00,50.502
724.00,50.467
725.00,50.549
726.00,50.516
727.00,50.621
728.00,50.547
729.00,50.600
730.00,50.605
731.00,50.619
732.00,50.656
733.00,50.748
734.00,50.779
735.00,50.761
736.00,50.819
737.00,50.841
738.00,50.949
739.00,50.895
740.00,50.938
741.00,51.103
742.00,51.059
743.00,51.044
744.00,51.077
745.00,51.045
746.00,51.028
747.00,50.990
748.00,50.992
749.00,51.013
750.00,51.031
751.00,51.005
752.00,50.990
753.00,51.044
754.00,51.074
755.00,51.054
756.00,50.992
757.00,51.073
758.00,51.145
759.00,51.113
760.00,51.105
761.00,51.106
762.00,51.147
763.00,51.159
764.00,51.170
765.00,51.139
766.00,51.126
767.00,51.120
768.00,51.200
769.00,51.190
770.00,51.332
771.00,51.258
772.00,51.249
773.00,51.324
774.00,51.336
775.00,51.301
776.00,51.296
777.00,51.393
778.00,51.272
779.00,51.338
780.00,51.293
781.00,51.330
782.00,51.379
783.00,51.340
784.00,51.411
785.00,51.316
786.00,51.273
787.00,51.310
788.00,51.302
789.00,51.266
790.00,51.215
791.00,51.209
792.00,51.301
793.00,51.253
794.00,51.210
795.00,51.265
796.00,51.241
797.00,51.186
798.00,51.181
799.00,51.150
800.00,51.113
801.00,51.104
802.00,51.150
803.00,51.112
804.00,51.132
805.00,51.077
806.00,51.116
807.00,51.081
808.00,51.042
809.00,51.046
810.00,50.996
811.00,51.062
812.00,51.051
813.00,50.961
814.00,51.007
815.00,51.029
816.00,51.061
817.00,50.993
818.00,50.900
819.00,50.938
820.00,50.862
821.00,50.879
822.00,50.832
823.00,50.820
824.00,50.868
825.00,50.598
826.00,50.929
827.00,50.899
828.00,50.846
829.00,50.824
830.00,50.829
831.00,53.330
832.00,53.355
833.00,53.240
834.00,53.277
835.00,53.216
836.00,53.222
837.00,53.249
838.00,53.153
839.00,53.141
840.00,53.158
841.00,53.158
842.00,53.028
843.00,53.173
844.00,53.096
845.00,53.036
846.00,53.072
847.00,53.053
848.00,53.037
849.00,52.976
850.00,52.944
851.00,52.907
852.00,52.921
853.00,52.806
854.00,52.825
855.00,52.777
856.00,52.780
857.00,52.759
858.00,52.746
859.00,52.673
860.00,52.674
861.00,52.670
862.00,52.638
863.00,52.683
864.00,52.571
865.00,52.616
866.00,52.586
867.00,52.595
868.00,52.594
869.00,52.583
870.00,52.566
871.00,52.570
872.00,52.566
873.00,52.512
874.00,52.517
875.00,52.492
876.00,52.485
877.00,52.485
878.00,52.467
879.00,52.451
880.00,52.445
881.00,52.417
882.00,52.431
883.00,52.400
884.00,52.368
885.00,52.353
886.00,52.346
887.00,52.327
888.00,52.291
889.00,52.250
890.00,52.262
891.00,52.214
892.00,52.198
893.00,52.145
894.00,52.206
895.00,52.154
896.00,52.134
897.00,52.123
898.00,52.106
899.00,52.107
900.00,52.087
901.00,52.060
902.00,52.074
903.00,52.029
904.00,52.033
905.00,52.010
906.00,51.985
907.00,51.987
908.00,51.961
909.00,51.928
910.00,51.900
911.00,51.892
912.00,51.918
913.00,51.866
914.00,51.858
915.00,51.827
916.00,51.782
917.00,51.771
918.00,51.726
919.00,51.722
920.00,51.695
921.00,51.679
922.00,51.682
923.00,51.661
924.00,51.631
925.00,51.624
926.00,51.602
927.00,51.597
928.00,51.569
929.00,51.553
930.00,51.516
931.00,51.512
932.00,51.470
933.00,51.481
934.00,51.461
935.00,51.410
936.00,51.429
937.00,51.429
938.00,51.383
939.00,51.353
940.00,51.463
941.00,51.360
942.00,51.312
943.00,51.314
944.00,51.272
945.00,51.280
946.00,51.268
947.00,51.237
948.00,51.202
949.00,51.164
950.00,51.171
951.00,51.143
952.00,51.129
953.00,51.089
954.00,51.065
955.00,51.024
956.00,51.022
957.00,50.982
958.00,50.996
959.00,50.948
960.00,50.940
961.00,50.915
962.00,50.920
963.00,50.878
964.00,50.891
965.00,50.959
966.00,50.860
967.00,50.865
968.00,50.819
969.00,50.861
970.00,50.818
971.00,50.850
972.00,50.808
973.00,50.825
974.00,50.855
975.00,50.820
976.00,50.840
977.00,50.806
978.00,50.860
979.00,50.826
980.00,50.844
981.00,50.843
982.00,50.819
983.00,50.825
984.00,50.785
985.00,50.799
986.00,50.832
987.00,50.776
988.00,50.776
989.00,50.752
990.00,50.764
991.00,50.725
992.00,50.741
993.00,50.708
994.00,50.697
995.00,50.685
996.00,50.673
997.00,50.674
998.00,50.648
999.00,50.661
1000.00,50.585
1001.00,50.596
1002.00,50.600
1003.00,50.595
1004.00,50.596
1005.00,50.555
1006.00,50.564
1007.00,50.534
1008.00,50.528
1009.00,50.512
1010.00,50.491
1011.00,50.488
1012.00,50.450
1013.00,50.466
1014.00,50.428
1015.00,50.449
1016.00,50.400
1017.00,50.403
1018.00,50.388
1019.00,50.357
1020.00,50.350
1021.00,50.323
1022.00,50.319
1023.00,50.290
1024.00,50.287
1025.00,50.266
1026.00,50.258
1027.00,50.246
1028.00,50.232
1029.00,50.226
1030.00,50.189
1031.00,50.183
1032.00,50.147
1033.00,50.145
1034.00,50.121
1035.00,50.086
1036.00,50.066
1037.00,50.054
1038.00,50.043
1039.00,50.011
1040.00,50.009
1041.00,49.988
1042.00,49.978
1043.00,49.944
1044.00,49.991
1045.00,49.969
1046.00,49.961
1047.00,49.964
1048.00,49.976
1049.00,49.984
1050.00,49.972
1051.00,50.005
1052.00,50.011
1053.00,50.004
1054.00,50.005
1055.00,50.030
1056.00,50.035
1057.00,50.039
1058.00,50.031
1059.00,50.031
1060.00,50.034
1061.00,50.020
1062.00,50.014
1063.00,50.012
1064.00,49.996
1065.00,49.993
1066.00,49.973
1067.00,49.967
1068.00,49.978
1069.00,49.946
1070.00,49.946
1071.00,49.924
1072.00,49.925
1073.00,49.909
1074.00,49.912
1075.00,49.872
1076.00,49.896
1077.00,49.881
1078.00,49.858
1079.00,49.854
1080.00,49.848
1081.00,49.839
1082.00,49.821
1083.00,49.808
1084.00,49.819
1085.00,49.808
1086.00,49.796
1087.00,49.813
1088.00,49.779
1089.00,49.766
1090.00,49.766
1091.00,49.759
1092.00,49.749
1093.00,49.720
1094.00,49.719
1095.00,49.708
1096.00,49.695
1097.00,49.680
1098.00,49.678
1099.00,49.666
1100.00,49.667
1101.00,49.644
1102.00,49.648
1103.00,49.634
1104.00,49.636
1105.00,49.613
1106.00,49.604
1107.00,49.601
1108.00,49.592
1109.00,49.579
1110.00,49.573
1111.00,49.562
1112.00,49.561
1113.00,49.544
1114.00,49.550
1115.00,49.546
1116.00,49.527
1117.00,49.512
1118.00,49.511
1119.00,49.496
1120.00,49.496
1121.00,49.488
1122.00,49.469
1123.00,49.469
1124.00,49.481
1125.00,49.447
1126.00,49.450
1127.00,49.446
1128.00,49.439
1129.00,49.410
1130.00,49.401
1131.00,49.411
1132.00,49.405
1133.00,49.390
1134.00,49.385
1135.00,49.368
1136.00,49.403
1137.00,49.390
1138.00,49.369
1139.00,49.368
1140.00,49.357
1141.00,49.336
1142.00,49.339
1143.00,49.344
1144.00,49.325
1145.00,49.317
1146.00,49.321
1147.00,49.310
1148.00,49.311
1149.00,49.328
1150.00,49.312
1151.00,49.315
1152.00,49.290
1153.00,49.296
1154.00,49.288
1155.00,49.301
1156.00,49.281
1157.00,49.282
1158.00,49.272
1159.00,49.271
1160.00,49.272
1161.00,49.279
1162.00,49.264
1163.00,49.259
1164.00,49.252
1165.00,49.242
1166.00,49.259
1167.00,49.244
1168.00,49.254
1169.00,49.243
1170.00,49.262
1171.00,49.228
1172.00,49.230
1173.00,49.231
1174.00,49.226
1175.00,49.230
1176.00,49.226
1177.00,49.214
1178.00,49.218
1179.00,49.222
1180.00,49.219
1181.00,49.228
1182.00,49.231
1183.00,49.214
1184.00,49.217
1185.00,49.234
1186.00,49.210
1187.00,49.210
1188.00,49.194
1189.00,49.204
1190.00,49.208
1191.00,49.196
1192.00,49.203
1193.00,49.190
1194.00,49.212
1195.00,49.184
1196.00,49.208
1197.00,49.198
1198.00,49.186
1199.00,49.185
1200.00,49.176
1201.00,49.187
1202.00,49.169
1203.00,49.168
1204.00,49.146
1205.00,49.168
1206.00,49.160
1207.00,49.175
1208.00,49.155
1209.00,49.148
1210.00,49.167
1211.00,49.159
1212.00,49.164
1213.00,49.138
1214.00,49.161
1215.00,49.138
1216.00,49.147
1217.00,49.173
1218.00,49.150
1219.00,49.159
1220.00,49.156
1221.00,49.158
1222.00,49.149
1223.00,49.162
1224.00,49.159
1225.00,49.137
1226.00,49.148
1227.00,49.151
1228.00,49.160
1229.00,49.145
1230.00,49.184
1231.00,49.184
1232.00,49.203
1233.00,49.186
1234.00,49.200
1235.00,49.183
1236.00,49.187
1237.00,49.184
1238.00,49.195
1239.00,49.186
1240.00,49.178
1241.00,49.193
1242.00,49.189
1243.00,49.206
1244.00,49.191
1245.00,49.227
1246.00,49.242
1247.00,49.225
1248.00,49.213
1249.00,49.210
1250.00,49.218
1251.00,49.212
1252.00,49.231
1253.00,49.212
1254.00,49.231
1255.00,49.233
1256.00,49.199
1257.00,49.190
1258.00,49.242
1259.00,49.231
1260.00,49.256
1261.00,49.246
1262.00,49.238
1263.00,49.237
1264.00,49.249
1265.00,49.248
1266.00,49.245
1267.00,49.261
1268.00,49.269
1269.00,49.265
1270.00,49.273
1271.00,49.280
1272.00,49.280
1273.00,49.275
1274.00,49.283
1275.00,49.284
1276.00,49.292
1277.00,49.283
1278.00,49.303
1279.00,49.302
1280.00,49.300
1281.00,49.301
1282.00,49.318
1283.00,49.303
1284.00,49.302
1285.00,49.296
1286.00,49.317
1287.00,49.310
1288.00,49.324
1289.00,49.318
1290.00,49.339
1291.00,49.337
1292.00,49.331
1293.00,49.336
1294.00,49.352
1295.00,49.355
1296.00,49.351
1297.00,49.360
1298.00,49.390
1299.00,49.369
1300.00,49.380
1301.00,49.384
1302.00,49.390
1303.00,49.403
1304.00,49.398
1305.00,49.423
1306.00,49.407
1307.00,49.421
1308.00,49.414
1309.00,49.433
1310.00,49.419
1311.00,49.421
1312.00,49.421
1313.00,49.432
1314.00,49.440
1315.00,49.444
1316.00,49.446
1317.00,49.461
1318.00,49.450
1319.00,49.456
1320.00,49.486
1321.00,49.653
1322.00,49.656
1323.00,49.646
1324.00,49.639
1325.00,49.630
1326.00,49.662
1327.00,49.636
1328.00,49.653
1329.00,49.636
1330.00,49.640
1331.00,49.648
1332.00,49.642
1333.00,49.625
1334.00,49.688
1335.00,49.685
1336.00,49.703
1337.00,49.730
1338.00,49.794
1339.00,49.845
1340.00,49.907
1341.00,49.950
1342.00,50.038
1343.00,50.074
1344.00,50.112
1345.00,50.187
1346.00,50.234
1347.00,50.256
1348.00,50.281
1349.00,50.290
1350.00,50.332
1351.00,50.310
1352.00,50.320
1353.00,50.351
1354.00,50.335
1355.00,50.295
1356.00,50.355
1357.00,50.359
1358.00,50.360
1359.00,50.393
1360.00,50.378
1361.00,50.263
1362.00,50.356
1363.00,50.438
1364.00,50.417
1365.00,50.347
1366.00,50.361
1367.00,50.343
1368.00,50.281
1369.00,50.343
1370.00,50.350
1371.00,50.246
1372.00,50.311
1373.00,50.336
1374.00,50.328
1375.00,50.327
1376.00,50.323
1377.00,50.287
1378.00,50.350
1379.00,50.369
1380.00,50.348
1381.00,50.363
1382.00,50.285
1383.00,50.300
1384.00,50.271
1385.00,50.255
1386.00,50.344
1387.00,50.248
1388.00,50.238
1389.00,50.310
1390.00,50.361
1391.00,50.245
1392.00,50.288
1393.00,50.340
1394.00,50.281
1395.00,50.311
1396.00,50.244
1397.00,50.264
1398.00,50.321
1399.00,50.285
1400.00,50.239
1401.00,50.277
1402.00,50.301
1403.00,50.297
1404.00,50.279
1405.00,50.351
1406.00,50.306
1407.00,50.347
1408.00,50.325
1409.00,50.294
1410.00,50.329
1411.00,50.349
1412.00,50.388
1413.00,50.336
1414.00,50.365
1415.00,50.383
1416.00,50.419
1417.00,50.424
1418.00,50.401
1419.00,50.372
1420.00,50.434
1421.00,50.454
1422.00,50.464
1423.00,50.445
1424.00,50.472
1425.00,50.484
1426.00,50.484
1427.00,50.522
1428.00,50.517
1429.00,50.544
1430.00,50.560
1431.00,50.568
1432.00,50.567
1433.00,50.605
1434.00,50.594
1435.00,50.640
1436.00,50.636
1437.00,50.636
1438.00,50.649
1439.00,50.686
1440.00,50.698
1441.00,50.709
1442.00,50.734
1443.00,50.747
1444.00,50.782
1445.00,50.734
1446.00,50.723
1447.00,50.786
1448.00,50.809
1449.00,50.838
1450.00,50.802
1451.00,50.822
1452.00,50.843
1453.00,50.873
1454.00,50.865
1455.00,50.915
1456.00,50.908
1457.00,50.925
1458.00,50.926
1459.00,50.947
1460.00,50.978
1461.00,50.963
1462.00,50.985
1463.00,51.013
1464.00,51.028
1465.00,51.021
1466.00,51.025
1467.00,51.057
1468.00,51.095
1469.00,51.103
1470.00,51.094
1471.00,51.132
1472.00,51.152
1473.00,51.141
1474.00,51.192
1475.00,51.180
1476.00,51.170
1477.00,51.194
1478.00,51.206
1479.00,51.215
1480.00,51.226
1481.00,51.225
1482.00,51.264
1483.00,51.262
1484.00,51.266
1485.00,51.299
1486.00,51.283
1487.00,51.306
1488.00,51.329
1489.00,51.333
1490.00,51.333
1491.00,51.343
1492.00,51.362
1493.00,51.371
1494.00,51.379
1495.00,51.392
1496.00,51.388
1497.00,51.401
1498.00,51.390
1499.00,51.423
1500.00,51.444
1501.00, 
1502.00, 
1503.00, 
1504.00, 
1505.00, 
1506.00, 
1507.00, 
1508.00, 
1509.00, 
1510.00, 
1511.00, 
1512.00, 
1513.00, 
1514.00, 
1515.00, 
1516.00, 
1517.00, 
1518.00, 
1519.00, 
1520.00, 
1521.00, 
1522.00, 
1523.00, 
1524.00, 
1525.00, 
1526.00, 
1527.00, 
1528.00, 
1529.00, 
1530.00, 
1531.00, 
1532.00, 
1533.00, 
1534.00, 
1535.00, 
1536.00, 
1537.00, 
1538.00, 
1539.00, 
1540.00, 
1541.00, 
1542.00, 
1543.00, 
1544.00, 
1545.00, 
1546.00, 
1547.00, 
1548.00, 
1549.00, 
1550.00, 
1551.00, 
1552.00, 
1553.00, 
1554.00, 
1555.00, 
1556.00, 
1557.00, 
1558.00, 
1559.00, 
1560.00, 
1561.00, 
1562.00, 
1563.00, 
1564.00, 
1565.00, 
1566.00, 
1567.00, 
1568.00, 
1569.00, 
1570.00, 
1571.00, 
1572.00, 
1573.00, 
1574.00, 
1575.00, 
1576.00, 
1577.00, 
1578.00, 
1579.00, 
1580.00, 
1581.00, 
1582.00, 
1583.00, 
1584.00, 
1585.00, 
1586.00, 
1587.00, 
1588.00, 
1589.00, 
1590.00, 
1591.00, 
1592.00, 
1593.00, 
1594.00, 
1595.00, 
1596.00, 
1597.00, 
1598.00, 
1599.00, 
1600.00, 
1601.00, 
1602.00, 
1603.00, 
1604.00, 
1605.00, 
1606.00, 
1607.00, 
1608.00, 
1609.00, 
1610.00, 
1611.00, 
1612.00, 
1613.00, 
1614.00, 
1615.00, 
1616.00, 
1617.00, 
1618.00, 
1619.00, 
1620.00, 
1621.00, 
1622.00, 
1623.00, 
1624.00, 
1625.00, 
1626.00, 
1627.00, 
1628.00, 
1629.00, 
1630.00, 
1631.00, 
1632.00, 
1633.00, 
1634.00, 
1635.00, 
1636.00, 
1637.00, 
1638.00, 
1639.00, 
1640.00, 
1641.00, 
1642.00, 
1643.00, 
1644.00, 
1645.00, 
1646.00, 
1647.00, 
1648.00, 
1649.00, 
1650.00, 
1651.00, 
1652.00, 
1653.00, 
1654.00, 
1655.00, 
1656.00, 
1657.00, 
1658.00, 
1659.00, 
1660.00, 
1661.00, 
1662.00, 
1663.00, 
1664.00, 
1665.00, 
1666.00, 
1667.00, 
1668.00, 
1669.00, 
1670.00, 
1671.00, 
1672.00, 
1673.00, 
1674.00, 
1675.00, 
1676.00, 
1677.00, 
1678.00, 
1679.00, 
1680.00, 
1681.00, 
1682.00, 
1683.00, 
1684.00, 
1685.00, 
1686.00, 
1687.00, 
1688.00, 
1689.00, 
1690.00, 
1691.00, 
1692.00, 
1693.00, 
1694.00, 
1695.00, 
1696.00, 
1697.00, 
1698.00, 
1699.00, 
1700.00, 
1701.00, 
1702.00, 
1703.00, 
1704.00, 
1705.00, 
1706.00, 
1707.00, 
1708.00, 
1709.00, 
1710.00, 
1711.00, 
1712.00, 
1713.00, 
1714.00, 
1715.00, 
1716.00, 
1717.00, 
1718.00, 
1719.00, 
1720.00, 
1721.00, 
1722.00, 
1723.00, 
1724.00, 
1725.00, 
1726.00, 
1727.00, 
1728.00, 
1729.00, 
1730.00, 
1731.00, 
1732.00, 
1733.00, 
1734.00, 
1735.00, 
1736.00, 
1737.00, 
1738.00, 
1739.00, 
1740.00, 
1741.00, 
1742.00, 
1743.00, 
1744.00, 
1745.00, 
1746.00, 
1747.00, 
1748.00, 
1749.00, 
1750.00, 
1751.00, 
1752.00, 
1753.00, 
1754.00, 
1755.00, 
1756.00, 
1757.00, 
1758.00, 
1759.00, 
1760.00, 
1761.00, 
1762.00, 
1763.00, 
1764.00, 
1765.00, 
1766.00, 
1767.00, 
1768.00, 
1769.00, 
1770.00, 
1771.00, 
1772.00, 
1773.00, 
1774.00, 
1775.00, 
1776.00, 
1777.00, 
1778.00, 
1779.00, 
1780.00, 
1781.00, 
1782.00, 
1783.00, 
1784.00, 
1785.00, 
1786.00, 
1787.00, 
1788.00, 
1789.00, 
1790.00, 
1791.00, 
1792.00, 
1793.00, 
1794.00, 
1795.00, 
1796.00, 
1797.00, 
1798.00, 
1799.00, 
1800.00, 
1801.00, 
1802.00, 
1803.00, 
1804.00, 
1805.00, 
1806.00, 
1807.00, 
1808.00, 
1809.00, 
1810.00, 
1811.00, 
1812.00, 
1813.00, 
1814.00, 
1815.00, 
1816.00, 
1817.00, 
1818.00, 
1819.00, 
1820.00, 
1821.00, 
1822.00, 
1823.00, 
1824.00, 
1825.00, 
1826.00, 
1827.00, 
1828.00, 
1829.00, 
1830.00, 
1831.00, 
1832.00, 
1833.00, 
1834.00, 
1835.00, 
1836.00, 
1837.00, 
1838.00, 
1839.00, 
1840.00, 
1841.00, 
1842.00, 
1843.00, 
1844.00, 
1845.00, 
1846.00, 
1847.00, 
1848.00, 
1849.00, 
1850.00, 
1851.00, 
1852.00, 
1853.00, 
1854.00, 
1855.00, 
1856.00, 
1857.00, 
1858.00, 
1859.00, 
1860.00, 
1861.00, 
1862.00, 
1863.00, 
1864.00, 
1865.00, 
1866.00, 
1867.00, 
1868.00, 
1869.00, 
1870.00, 
1871.00, 
1872.00, 
1873.00, 
1874.00, 
1875.00, 
1876.00, 
1877.00, 
1878.00, 
1879.00, 
1880.00, 
1881.00, 
1882.00, 
1883.00, 
1884.00, 
1885.00, 
1886.00, 
1887.00, 
1888.00, 
1889.00, 
1890.00, 
1891.00, 
1892.00, 
1893.00, 
1894.00, 
1895.00, 
1896.00, 
1897.00, 
1898.00, 
1899.00, 
1900.00, 
1901.00, 
1902.00, 
1903.00, 
1904.00, 
1905.00, 
1906.00, 
1907.00, 
1908.00, 
1909.00, 
1910.00, 
1911.00, 
1912.00, 
1913.00, 
1914.00, 
1915.00, 
1916.00, 
1917.00, 
1918.00, 
1919.00, 
1920.00, 
1921.00, 
1922.00, 
1923.00, 
1924.00, 
1925.00, 
1926.00, 
1927.00, 
1928.00, 
1929.00, 
1930.00, 
1931.00, 
1932.00, 
1933.00, 
1934.00, 
1935.00, 
1936.00, 
1937.00, 
1938.00, 
1939.00, 
1940.00, 
1941.00, 
1942.00, 
1943.00, 
1944.00, 
1945.00, 
1946.00, 
1947.00, 
1948.00, 
1949.00, 
1950.00, 
1951.00, 
1952.00, 
1953.00, 
1954.00, 
1955.00, 
1956.00, 
1957.00, 
1958.00, 
1959.00, 
1960.00, 
1961.00, 
1962.00, 
1963.00, 
1964.00, 
1965.00, 
1966.00, 
1967.00, 
1968.00, 
1969.00, 
1970.00, 
1971.00, 
1972.00, 
1973.00, 
1974.00, 
1975.00, 
1976.00, 
1977.00, 
1978.00, 
1979.00, 
1980.00, 
1981.00, 
1982.00, 
1983.00, 
1984.00, 
1985.00, 
1986.00, 
1987.00, 
1988.00, 
1989.00, 
1990.00, 
1991.00, 
1992.00, 
1993.00, 
1994.00, 
1995.00, 
1996.00, 
1997.00, 
1998.00, 
1999.00, 
2000.00, 
2001.00, 
2002.00, 
2003.00, 
2004.00, 
2005.00, 
2006.00, 
2007.00, 
2008.00, 
2009.00, 
2010.00, 
2011.00, 
2012.00, 
2013.00, 
2014.00, 
2015.00, 
2016.00, 
2017.00, 
2018.00, 
2019.00, 
2020.00, 
2021.00, 
2022.00, 
2023.00, 
2024.00, 
2025.00, 
2026.00, 
2027.00, 
2028.00, 
2029.00, 
2030.00, 
2031.00, 
2032.00, 
2033.00, 
2034.00, 
2035.00, 
2036.00, 
2037.00, 
2038.00, 
2039.00, 
2040.00, 
2041.00, 
2042.00, 
2043.00, 
2044.00, 
2045.00, 
2046.00, 
2047.00, 
2048.00, 
2049.00, 
2050.00, 
2051.00, 
2052.00, 
2053.00, 
2054.00, 
2055.00, 
2056.00, 
2057.00, 
2058.00, 
2059.00, 
2060.00, 
2061.00, 
2062.00, 
2063.00, 
2064.00, 
2065.00, 
2066.00, 
2067.00, 
2068.00, 
2069.00, 
2070.00, 
2071.00, 
2072.00, 
2073.00, 
2074.00, 
2075.00, 
2076.00, 
2077.00, 
2078.00, 
2079.00, 
2080.00, 
2081.00, 
2082.00, 
2083.00, 
2084.00, 
2085.00, 
2086.00, 
2087.00, 
2088.00, 
2089.00, 
2090.00, 
2091.00, 
2092.00, 
2093.00, 
2094.00, 
2095.00, 
2096.00, 
2097.00, 
2098.00, 
2099.00, 
2100.00, 
2101.00, 
2102.00, 
2103.00, 
2104.00, 
2105.00, 
2106.00, 
2107.00, 
2108.00, 
2109.00, 
2110.00, 
2111.00, 
2112.00, 
2113.00, 
2114.00, 
2115.00, 
2116.00, 
2117.00, 
2118.00, 
2119.00, 
2120.00, 
2121.00, 
2122.00, 
2123.00, 
2124.00, 
2125.00, 
2126.00, 
2127.00, 
2128.00, 
2129.00, 
2130.00, 
2131.00, 
2132.00, 
2133.00, 
2134.00, 
2135.00, 
2136.00, 
2137.00, 
2138.00, 
2139.00, 
2140.00, 
2141.00, 
2142.00, 
2143.00, 
2144.00, 
2145.00, 
2146.00, 
2147.00, 
2148.00, 
2149.00, 
2150.00, 
2151.00, 
2152.00, 
2153.00, 
2154.00, 
2155.00, 
2156.00, 
2157.00, 
2158.00, 
2159.00, 
2160.00, 
2161.00, 
2162.00, 
2163.00, 
2164.00, 
2165.00, 
2166.00, 
2167.00, 
2168.00, 
2169.00, 
2170.00, 
2171.00, 
2172.00, 
2173.00, 
2174.00, 
2175.00, 
2176.00, 
2177.00, 
2178.00, 
2179.00, 
2180.00, 
2181.00, 
2182.00, 
2183.00, 
2184.00, 
2185.00, 
2186.00, 
2187.00, 
2188.00, 
2189.00, 
2190.00, 
2191.00, 
2192.00, 
2193.00, 
2194.00, 
2195.00, 
2196.00, 
2197.00, 
2198.00, 
2199.00, 
2200.00, 
2201.00, 
2202.00, 
2203.00, 
2204.00, 
2205.00, 
2206.00, 
2207.00, 
2208.00, 
2209.00, 
2210.00, 
2211.00, 
2212.00, 
2213.00, 
2214.00, 
2215.00, 
2216.00, 
2217.00, 
2218.00, 
2219.00, 
2220.00, 
2221.00, 
2222.00, 
2223.00, 
2224.00, 
2225.00, 
2226.00, 
2227.00, 
2228.00, 
2229.00, 
2230.00, 
2231.00, 
2232.00, 
2233.00, 
2234.00, 
2235.00, 
2236.00, 
2237.00, 
2238.00, 
2239.00, 
2240.00, 
2241.00, 
2242.00, 
2243.00, 
2244.00, 
2245.00, 
2246.00, 
2247.00, 
2248.00, 
2249.00, 
2250.00, 
2251.00, 
2252.00, 
2253.00, 
2254.00, 
2255.00, 
2256.00, 
2257.00, 
2258.00, 
2259.00, 
2260.00, 
2261.00, 
2262.00, 
2263.00, 
2264.00, 
2265.00, 
2266.00, 
2267.00, 
2268.00, 
2269.00, 
2270.00, 
2271.00, 
2272.00, 
2273.00, 
2274.00, 
2275.00, 
2276.00, 
2277.00, 
2278.00, 
2279.00, 
2280.00, 
2281.00, 
2282.00, 
2283.00, 
2284.00, 
2285.00, 
2286.00, 
2287.00, 
2288.00, 
2289.00, 
2290.00, 
2291.00, 
2292.00, 
2293.00, 
2294.00, 
2295.00, 
2296.00, 
2297.00, 
2298.00, 
2299.00, 
2300.00, 
2301.00, 
2302.00, 
2303.00, 
2304.00, 
2305.00, 
2306.00, 
2307.00, 
2308.00, 
2309.00, 
2310.00, 
2311.00, 
2312.00, 
2313.00, 
2314.00, 
2315.00, 
2316.00, 
2317.00, 
2318.00, 
2319.00, 
2320.00, 
2321.00, 
2322.00, 
2323.00, 
2324.00, 
2325.00, 
2326.00, 
2327.00, 
2328.00, 
2329.00, 
2330.00, 
2331.00, 
2332.00, 
2333.00, 
2334.00, 
2335.00, 
2336.00, 
2337.00, 
2338.00, 
2339.00, 
2340.00, 
2341.00, 
2342.00, 
2343.00, 
2344.00, 
2345.00, 
2346.00, 
2347.00, 
2348.00, 
2349.00, 
2350.00, 
2351.00, 
2352.00, 
2353.00, 
2354.00, 
2355.00, 
2356.00, 
2357.00, 
2358.00, 
2359.00, 
2360.00, 
2361.00, 
2362.00, 
2363.00, 
2364.00, 
2365.00, 
2366.00, 
2367.00, 
2368.00, 
2369.00, 
2370.00, 
2371.00, 
2372.00, 
2373.00, 
2374.00, 
2375.00, 
2376.00, 
2377.00, 
2378.00, 
2379.00, 
2380.00, 
2381.00, 
2382.00, 
2383.00, 
2384.00, 
2385.00, 
2386.00, 
2387.00, 
2388.00, 
2389.00, 
2390.00, 
2391.00, 
2392.00, 
2393.00, 
2394.00, 
2395.00, 
2396.00, 
2397.00, 
2398.00, 
2399.00, 
2400.00, 
2401.00, 
2402.00, 
2403.00, 
2404.00, 
2405.00, 
2406.00, 
2407.00, 
2408.00, 
2409.00, 
2410.00, 
2411.00, 
2412.00, 
2413.00, 
2414.00, 
2415.00, 
2416.00, 
2417.00, 
2418.00, 
2419.00, 
2420.00, 
2421.00, 
2422.00, 
2423.00, 
2424.00, 
2425.00, 
2426.00, 
2427.00, 
2428.00, 
2429.00, 
2430.00, 
2431.00, 
2432.00, 
2433.00, 
2434.00, 
2435.00, 
2436.00, 
2437.00, 
2438.00, 
2439.00, 
2440.00, 
2441.00, 
2442.00, 
2443.00, 
2444.00, 
2445.00, 
2446.00, 
2447.00, 
2448.00, 
2449.00, 
2450.00, 
2451.00, 
2452.00, 
2453.00, 
2454.00, 
2455.00, 
2456.00, 
2457.00, 
2458.00, 
2459.00, 
2460.00, 
2461.00, 
2462.00, 
2463.00, 
2464.00, 
2465.00, 
2466.00, 
2467.00, 
2468.00, 
2469.00, 
2470.00, 
2471.00, 
2472.00, 
2473.00, 
2474.00, 
2475.00, 
2476.00, 
2477.00, 
2478.00, 
2479.00, 
2480.00, 
2481.00, 
2482.00, 
2483.00, 
2484.00, 
2485.00, 
2486.00, 
2487.00, 
2488.00, 
2489.00, 
2490.00, 
2491.00, 
2492.00, 
2493.00, 
2494.00, 
2495.00, 
2496.00, 
2497.00, 
2498.00, 
2499.00, 
2500.00, 
2501.00, 
2502.00, 
2503.00, 
2504.00, 
2505.00, 
2506.00, 
2507.00, 
2508.00, 
2509.00, 
2510.00, 
2511.00, 
2512.00, 
2513.00, 
2514.00, 
2515.00, 
2516.00, 
2517.00, 
2518.00, 
2519.00, 
2520.00, 
2521.00, 
2522.00, 
2523.00, 
2524.00, 
2525.00, 
2526.00, 
2527.00, 
2528.00, 
2529.00, 
2530.00, 
2531.00, 
2532.00, 
2533.00, 
2534.00, 
2535.00, 
2536.00, 
2537.00, 
2538.00, 
2539.00, 
2540.00, 
2541.00, 
2542.00, 
2543.00, 
2544.00, 
2545.00, 
2546.00, 
2547.00, 
2548.00, 
2549.00, 
2550.00, 
2551.00, 
2552.00, 
2553.00, 
2554.00, 
2555.00, 
2556.00, 
2557.00, 
2558.00, 
2559.00, 
2560.00, 
2561.00, 
2562.00, 
2563.00, 
2564.00, 
2565.00, 
2566.00, 
2567.00, 
2568.00, 
2569.00, 
2570.00, 
2571.00, 
2572.00, 
2573.00, 
2574.00, 
2575.00, 
2576.00, 
2577.00, 
2578.00, 
2579.00, 
2580.00, 
2581.00, 
2582.00, 
2583.00, 
2584.00, 
2585.00, 
2586.00, 
2587.00, 
2588.00, 
2589.00, 
2590.00, 
2591.00, 
2592.00, 
2593.00, 
2594.00, 
2595.00, 
2596.00, 
2597.00, 
2598.00, 
2599.00, 
2600.00, 
