"2cP4 - RawData"
"Wavelength nm.","T%"
200.00,0.001
201.00,0.001
202.00,0.006
203.00,0.000
204.00,0.001
205.00,0.004
206.00,0.002
207.00,-0.001
208.00,0.002
209.00,-0.000
210.00,0.003
211.00,0.001
212.00,0.001
213.00,0.000
214.00,0.002
215.00,0.002
216.00,0.000
217.00,0.003
218.00,0.002
219.00,0.004
220.00,0.001
221.00,-0.000
222.00,-0.001
223.00,0.002
224.00,-0.001
225.00,0.000
226.00,0.000
227.00,0.001
228.00,0.001
229.00,0.000
230.00,-0.001
231.00,0.001
232.00,-0.001
233.00,-0.001
234.00,0.001
235.00,0.001
236.00,0.000
237.00,-0.000
238.00,0.001
239.00,-0.001
240.00,0.000
241.00,0.002
242.00,-0.001
243.00,-0.001
244.00,0.002
245.00,0.000
246.00,-0.001
247.00,0.000
248.00,0.000
249.00,0.002
250.00,-0.001
251.00,0.000
252.00,-0.001
253.00,0.001
254.00,-0.001
255.00,0.000
256.00,0.001
257.00,-0.000
258.00,0.000
259.00,0.000
260.00,-0.002
261.00,0.001
262.00,0.000
263.00,-0.000
264.00,0.000
265.00,-0.000
266.00,-0.001
267.00,-0.000
268.00,0.001
269.00,0.001
270.00,0.000
271.00,0.001
272.00,0.001
273.00,0.002
274.00,0.001
275.00,-0.001
276.00,-0.000
277.00,0.001
278.00,-0.001
279.00,-0.000
280.00,0.001
281.00,-0.000
282.00,0.001
283.00,-0.001
284.00,0.000
285.00,0.000
286.00,-0.000
287.00,0.000
288.00,0.001
289.00,0.000
290.00,0.001
291.00,-0.001
292.00,-0.001
293.00,0.001
294.00,0.000
295.00,0.001
296.00,0.001
297.00,0.001
298.00,0.000
299.00,0.001
300.00,0.003
301.00,0.004
302.00,0.006
303.00,0.008
304.00,0.012
305.00,0.017
306.00,0.028
307.00,0.041
308.00,0.068
309.00,0.104
310.00,0.143
311.00,0.190
312.00,0.263
313.00,0.355
314.00,0.470
315.00,0.607
316.00,0.768
317.00,0.975
318.00,1.207
319.00,1.465
320.00,1.789
321.00,2.149
322.00,2.532
323.00,2.995
324.00,3.469
325.00,3.970
326.00,4.449
327.00,5.021
328.00,5.599
329.00,6.211
330.00,6.828
331.00,7.471
332.00,8.116
333.00,8.764
334.00,9.427
335.00,10.112
336.00,10.772
337.00,11.431
338.00,12.083
339.00,12.676
340.00,13.309
341.00,13.883
342.00,14.487
343.00,15.007
344.00,15.553
345.00,16.050
346.00,16.514
347.00,16.939
348.00,17.344
349.00,17.800
350.00,18.136
351.00,18.477
352.00,18.741
353.00,19.116
354.00,19.392
355.00,19.723
356.00,19.928
357.00,20.158
358.00,20.422
359.00,20.604
360.00,20.800
361.00,20.943
362.00,21.093
363.00,21.275
364.00,21.395
365.00,21.497
366.00,21.626
367.00,21.686
368.00,21.777
369.00,21.851
370.00,21.841
371.00,21.912
372.00,21.899
373.00,21.934
374.00,21.900
375.00,21.883
376.00,21.844
377.00,21.850
378.00,21.781
379.00,21.742
380.00,21.702
381.00,21.695
382.00,21.674
383.00,21.663
384.00,21.695
385.00,21.731
386.00,21.797
387.00,21.852
388.00,21.901
389.00,21.919
390.00,21.940
391.00,21.968
392.00,21.989
393.00,21.996
394.00,22.023
395.00,22.051
396.00,22.052
397.00,22.066
398.00,22.062
399.00,22.071
400.00,22.087
401.00,22.082
402.00,22.074
403.00,22.106
404.00,22.099
405.00,22.070
406.00,22.078
407.00,22.049
408.00,22.048
409.00,22.008
410.00,21.978
411.00,21.971
412.00,21.934
413.00,21.989
414.00,21.976
415.00,21.981
416.00,22.021
417.00,22.068
418.00,22.095
419.00,22.093
420.00,22.147
421.00,22.221
422.00,22.236
423.00,22.267
424.00,22.305
425.00,22.341
426.00,22.395
427.00,22.415
428.00,22.457
429.00,22.515
430.00,22.522
431.00,22.614
432.00,22.713
433.00,22.764
434.00,22.828
435.00,22.893
436.00,22.927
437.00,23.014
438.00,23.108
439.00,23.175
440.00,23.261
441.00,23.296
442.00,23.393
443.00,23.472
444.00,23.560
445.00,23.658
446.00,23.783
447.00,23.869
448.00,23.990
449.00,24.065
450.00,24.179
451.00,24.311
452.00,24.398
453.00,24.516
454.00,24.622
455.00,24.742
456.00,24.858
457.00,24.977
458.00,25.112
459.00,25.209
460.00,25.286
461.00,25.477
462.00,25.595
463.00,25.707
464.00,25.863
465.00,26.005
466.00,26.097
467.00,26.229
468.00,26.347
469.00,26.485
470.00,26.579
471.00,26.668
472.00,26.833
473.00,26.885
474.00,26.990
475.00,27.091
476.00,27.244
477.00,27.374
478.00,27.504
479.00,27.662
480.00,27.819
481.00,27.937
482.00,28.110
483.00,28.239
484.00,28.416
485.00,28.580
486.00,28.694
487.00,28.857
488.00,28.989
489.00,29.163
490.00,29.298
491.00,29.476
492.00,29.606
493.00,29.786
494.00,29.897
495.00,29.968
496.00,30.042
497.00,30.188
498.00,30.363
499.00,30.468
500.00,30.578
501.00,30.707
502.00,30.725
503.00,30.990
504.00,31.098
505.00,31.227
506.00,31.319
507.00,31.435
508.00,31.566
509.00,31.711
510.00,31.779
511.00,31.936
512.00,32.075
513.00,32.167
514.00,32.295
515.00,32.430
516.00,32.526
517.00,32.659
518.00,32.754
519.00,32.808
520.00,32.924
521.00,32.994
522.00,33.069
523.00,33.142
524.00,33.248
525.00,33.320
526.00,33.472
527.00,33.601
528.00,33.665
529.00,33.776
530.00,33.866
531.00,33.988
532.00,34.049
533.00,34.122
534.00,34.248
535.00,34.344
536.00,34.415
537.00,34.458
538.00,34.557
539.00,34.621
540.00,34.648
541.00,34.820
542.00,34.776
543.00,34.863
544.00,34.967
545.00,35.011
546.00,34.989
547.00,35.192
548.00,35.264
549.00,35.285
550.00,35.391
551.00,35.496
552.00,35.490
553.00,35.622
554.00,35.647
555.00,35.650
556.00,35.808
557.00,35.911
558.00,35.879
559.00,35.963
560.00,36.026
561.00,35.979
562.00,36.166
563.00,36.204
564.00,36.297
565.00,36.301
566.00,36.245
567.00,36.350
568.00,36.385
569.00,36.416
570.00,36.379
571.00,36.494
572.00,36.557
573.00,36.538
574.00,36.662
575.00,36.652
576.00,36.574
577.00,36.768
578.00,36.831
579.00,36.861
580.00,36.954
581.00,37.036
582.00,37.108
583.00,37.131
584.00,37.274
585.00,37.283
586.00,37.340
587.00,37.386
588.00,37.445
589.00,37.485
590.00,37.509
591.00,37.557
592.00,37.566
593.00,37.658
594.00,37.712
595.00,37.687
596.00,37.825
597.00,37.817
598.00,37.916
599.00,37.928
600.00,38.063
601.00,38.064
602.00,38.001
603.00,38.078
604.00,38.126
605.00,38.108
606.00,38.220
607.00,38.275
608.00,38.449
609.00,38.439
610.00,38.477
611.00,38.441
612.00,38.536
613.00,38.572
614.00,38.623
615.00,38.688
616.00,38.788
617.00,38.798
618.00,38.880
619.00,38.918
620.00,38.938
621.00,38.981
622.00,39.092
623.00,39.156
624.00,39.090
625.00,39.296
626.00,39.296
627.00,39.322
628.00,39.421
629.00,39.408
630.00,39.516
631.00,39.555
632.00,39.611
633.00,39.750
634.00,39.858
635.00,39.945
636.00,40.071
637.00,40.136
638.00,40.151
639.00,40.232
640.00,40.270
641.00,40.389
642.00,40.408
643.00,40.551
644.00,40.656
645.00,40.615
646.00,40.788
647.00,40.829
648.00,40.815
649.00,41.052
650.00,41.043
651.00,41.157
652.00,41.260
653.00,41.376
654.00,41.452
655.00,41.523
656.00,41.646
657.00,41.800
658.00,41.907
659.00,42.078
660.00,41.475
661.00,41.959
662.00,42.194
663.00,42.265
664.00,42.419
665.00,42.485
666.00,42.526
667.00,42.667
668.00,42.677
669.00,42.813
670.00,43.008
671.00,42.925
672.00,43.040
673.00,43.249
674.00,43.351
675.00,43.390
676.00,43.601
677.00,43.576
678.00,43.613
679.00,43.674
680.00,43.884
681.00,43.965
682.00,44.002
683.00,44.182
684.00,44.270
685.00,44.372
686.00,44.326
687.00,44.542
688.00,44.576
689.00,44.603
690.00,44.779
691.00,44.927
692.00,44.812
693.00,44.956
694.00,45.034
695.00,45.192
696.00,45.245
697.00,45.394
698.00,45.436
699.00,45.589
700.00,45.783
701.00,45.779
702.00,45.822
703.00,45.927
704.00,45.983
705.00,45.972
706.00,46.098
707.00,46.307
708.00,46.112
709.00,46.397
710.00,46.669
711.00,46.382
712.00,46.471
713.00,46.565
714.00,46.617
715.00,46.655
716.00,46.805
717.00,46.918
718.00,46.998
719.00,47.085
720.00,47.197
721.00,51.268
722.00,51.315
723.00,51.326
724.00,51.354
725.00,51.392
726.00,51.460
727.00,51.325
728.00,51.464
729.00,51.509
730.00,51.491
731.00,51.588
732.00,51.593
733.00,51.618
734.00,51.626
735.00,51.669
736.00,51.686
737.00,51.781
738.00,51.868
739.00,51.800
740.00,51.854
741.00,51.826
742.00,51.875
743.00,51.922
744.00,51.879
745.00,51.910
746.00,51.922
747.00,51.931
748.00,51.889
749.00,51.932
750.00,51.919
751.00,51.932
752.00,51.970
753.00,51.964
754.00,52.033
755.00,51.942
756.00,52.061
757.00,51.955
758.00,52.085
759.00,52.009
760.00,52.015
761.00,52.032
762.00,51.998
763.00,52.065
764.00,52.034
765.00,52.087
766.00,52.170
767.00,52.140
768.00,52.166
769.00,52.131
770.00,52.203
771.00,52.185
772.00,52.195
773.00,52.166
774.00,52.222
775.00,52.274
776.00,52.199
777.00,52.252
778.00,52.247
779.00,52.244
780.00,52.221
781.00,52.284
782.00,52.318
783.00,52.214
784.00,52.237
785.00,52.222
786.00,52.325
787.00,52.240
788.00,52.193
789.00,52.232
790.00,52.127
791.00,52.259
792.00,52.209
793.00,52.253
794.00,52.183
795.00,52.185
796.00,52.235
797.00,52.147
798.00,52.131
799.00,52.172
800.00,52.123
801.00,52.137
802.00,52.101
803.00,52.141
804.00,52.135
805.00,52.122
806.00,52.134
807.00,52.078
808.00,52.026
809.00,52.035
810.00,51.993
811.00,51.986
812.00,52.023
813.00,51.996
814.00,51.920
815.00,52.009
816.00,51.950
817.00,51.986
818.00,51.874
819.00,51.870
820.00,51.890
821.00,51.813
822.00,51.826
823.00,51.864
824.00,51.793
825.00,51.747
826.00,51.835
827.00,51.864
828.00,51.725
829.00,51.864
830.00,51.776
831.00,54.001
832.00,54.159
833.00,54.030
834.00,54.039
835.00,53.983
836.00,53.971
837.00,54.044
838.00,53.928
839.00,53.924
840.00,53.874
841.00,53.895
842.00,53.848
843.00,53.833
844.00,53.831
845.00,53.798
846.00,53.835
847.00,53.759
848.00,53.811
849.00,53.691
850.00,53.667
851.00,53.589
852.00,53.626
853.00,53.569
854.00,53.546
855.00,53.476
856.00,53.512
857.00,53.484
858.00,53.474
859.00,53.438
860.00,53.426
861.00,53.423
862.00,53.335
863.00,53.381
864.00,53.319
865.00,53.346
866.00,53.311
867.00,53.312
868.00,53.336
869.00,53.347
870.00,53.318
871.00,53.269
872.00,53.282
873.00,53.267
874.00,53.249
875.00,53.261
876.00,53.227
877.00,53.215
878.00,53.194
879.00,53.293
880.00,53.163
881.00,53.141
882.00,53.169
883.00,53.101
884.00,53.110
885.00,53.087
886.00,53.065
887.00,53.044
888.00,53.003
889.00,53.023
890.00,52.988
891.00,52.950
892.00,52.919
893.00,52.867
894.00,52.951
895.00,52.850
896.00,52.810
897.00,52.801
898.00,52.830
899.00,52.698
900.00,52.805
901.00,52.806
902.00,52.781
903.00,52.770
904.00,52.767
905.00,52.747
906.00,52.707
907.00,52.699
908.00,52.683
909.00,52.661
910.00,52.638
911.00,52.622
912.00,52.654
913.00,52.557
914.00,52.580
915.00,52.522
916.00,52.535
917.00,52.494
918.00,52.472
919.00,52.461
920.00,52.416
921.00,52.410
922.00,52.405
923.00,52.356
924.00,52.359
925.00,52.345
926.00,52.324
927.00,52.326
928.00,52.290
929.00,52.263
930.00,52.251
931.00,52.232
932.00,52.193
933.00,52.198
934.00,52.347
935.00,52.134
936.00,52.124
937.00,52.098
938.00,52.097
939.00,52.094
940.00,52.050
941.00,52.051
942.00,52.011
943.00,52.002
944.00,51.992
945.00,51.976
946.00,51.974
947.00,51.946
948.00,51.907
949.00,51.898
950.00,51.870
951.00,51.841
952.00,51.842
953.00,51.804
954.00,51.783
955.00,51.738
956.00,51.734
957.00,51.692
958.00,51.714
959.00,51.642
960.00,51.636
961.00,51.627
962.00,51.634
963.00,51.602
964.00,51.582
965.00,51.570
966.00,51.564
967.00,51.561
968.00,51.534
969.00,51.558
970.00,51.534
971.00,51.537
972.00,51.510
973.00,51.520
974.00,51.566
975.00,51.526
976.00,51.551
977.00,51.549
978.00,51.574
979.00,51.519
980.00,51.539
981.00,51.552
982.00,51.532
983.00,51.537
984.00,51.501
985.00,51.548
986.00,51.489
987.00,51.493
988.00,51.490
989.00,51.462
990.00,51.459
991.00,51.443
992.00,51.447
993.00,51.427
994.00,51.411
995.00,51.468
996.00,51.386
997.00,51.366
998.00,51.332
999.00,51.382
1000.00,51.317
1001.00,51.323
1002.00,51.307
1003.00,51.299
1004.00,51.287
1005.00,51.264
1006.00,51.278
1007.00,51.262
1008.00,51.237
1009.00,51.221
1010.00,51.213
1011.00,51.196
1012.00,51.173
1013.00,51.186
1014.00,51.137
1015.00,51.161
1016.00,51.113
1017.00,51.113
1018.00,51.102
1019.00,51.052
1020.00,51.037
1021.00,51.020
1022.00,51.021
1023.00,50.977
1024.00,50.996
1025.00,50.975
1026.00,50.973
1027.00,50.942
1028.00,50.924
1029.00,50.933
1030.00,50.881
1031.00,50.884
1032.00,50.845
1033.00,50.855
1034.00,50.834
1035.00,50.791
1036.00,50.781
1037.00,50.756
1038.00,50.755
1039.00,50.707
1040.00,50.740
1041.00,50.688
1042.00,50.677
1043.00,50.655
1044.00,50.670
1045.00,50.655
1046.00,50.646
1047.00,50.664
1048.00,50.691
1049.00,50.693
1050.00,50.685
1051.00,50.719
1052.00,50.727
1053.00,50.719
1054.00,50.724
1055.00,50.745
1056.00,50.795
1057.00,50.750
1058.00,50.735
1059.00,50.748
1060.00,50.740
1061.00,50.734
1062.00,50.733
1063.00,50.731
1064.00,50.704
1065.00,50.694
1066.00,50.674
1067.00,50.680
1068.00,50.692
1069.00,50.653
1070.00,50.642
1071.00,50.620
1072.00,50.625
1073.00,50.617
1074.00,50.600
1075.00,50.590
1076.00,50.597
1077.00,50.570
1078.00,50.569
1079.00,50.553
1080.00,50.555
1081.00,50.541
1082.00,50.540
1083.00,50.511
1084.00,50.512
1085.00,50.503
1086.00,50.489
1087.00,50.491
1088.00,50.467
1089.00,50.460
1090.00,50.467
1091.00,50.439
1092.00,50.454
1093.00,50.425
1094.00,50.404
1095.00,50.441
1096.00,50.399
1097.00,50.380
1098.00,50.391
1099.00,50.361
1100.00,50.354
1101.00,50.371
1102.00,50.357
1103.00,50.338
1104.00,50.340
1105.00,50.303
1106.00,50.313
1107.00,50.298
1108.00,50.292
1109.00,50.278
1110.00,50.275
1111.00,50.266
1112.00,50.256
1113.00,50.238
1114.00,50.257
1115.00,50.279
1116.00,50.244
1117.00,50.213
1118.00,50.208
1119.00,50.185
1120.00,50.194
1121.00,50.187
1122.00,50.185
1123.00,50.175
1124.00,50.162
1125.00,50.158
1126.00,50.150
1127.00,50.136
1128.00,50.133
1129.00,50.118
1130.00,50.094
1131.00,50.094
1132.00,50.076
1133.00,50.081
1134.00,50.079
1135.00,50.051
1136.00,50.068
1137.00,50.068
1138.00,50.056
1139.00,50.067
1140.00,50.053
1141.00,50.034
1142.00,50.040
1143.00,50.035
1144.00,50.024
1145.00,50.014
1146.00,50.011
1147.00,50.012
1148.00,50.015
1149.00,50.005
1150.00,50.010
1151.00,50.008
1152.00,49.987
1153.00,49.995
1154.00,49.957
1155.00,49.983
1156.00,49.956
1157.00,49.962
1158.00,49.971
1159.00,49.968
1160.00,49.952
1161.00,49.976
1162.00,49.968
1163.00,49.966
1164.00,49.958
1165.00,49.953
1166.00,49.958
1167.00,49.955
1168.00,49.952
1169.00,49.954
1170.00,49.957
1171.00,49.921
1172.00,49.944
1173.00,49.924
1174.00,49.925
1175.00,49.934
1176.00,49.924
1177.00,49.922
1178.00,49.918
1179.00,49.928
1180.00,49.925
1181.00,49.940
1182.00,49.922
1183.00,49.929
1184.00,49.902
1185.00,49.912
1186.00,49.913
1187.00,49.899
1188.00,49.890
1189.00,49.887
1190.00,49.889
1191.00,49.898
1192.00,49.918
1193.00,49.899
1194.00,49.923
1195.00,49.884
1196.00,49.899
1197.00,49.919
1198.00,49.885
1199.00,49.879
1200.00,49.894
1201.00,49.892
1202.00,49.873
1203.00,49.883
1204.00,49.863
1205.00,49.895
1206.00,49.868
1207.00,49.866
1208.00,49.865
1209.00,49.855
1210.00,49.863
1211.00,49.854
1212.00,49.874
1213.00,49.842
1214.00,49.863
1215.00,49.838
1216.00,49.867
1217.00,49.867
1218.00,49.849
1219.00,49.880
1220.00,49.840
1221.00,49.862
1222.00,49.851
1223.00,49.879
1224.00,49.890
1225.00,49.858
1226.00,49.848
1227.00,49.850
1228.00,49.877
1229.00,49.874
1230.00,49.905
1231.00,49.882
1232.00,49.900
1233.00,49.907
1234.00,49.903
1235.00,49.912
1236.00,49.900
1237.00,49.881
1238.00,49.906
1239.00,49.909
1240.00,49.890
1241.00,49.914
1242.00,49.896
1243.00,49.920
1244.00,49.897
1245.00,49.911
1246.00,49.932
1247.00,49.923
1248.00,49.905
1249.00,49.923
1250.00,49.912
1251.00,49.897
1252.00,49.937
1253.00,49.910
1254.00,49.946
1255.00,49.930
1256.00,49.906
1257.00,49.905
1258.00,49.966
1259.00,49.940
1260.00,49.959
1261.00,49.951
1262.00,49.943
1263.00,49.943
1264.00,49.952
1265.00,49.953
1266.00,49.965
1267.00,49.947
1268.00,49.986
1269.00,49.980
1270.00,49.969
1271.00,49.991
1272.00,49.995
1273.00,49.982
1274.00,49.970
1275.00,49.963
1276.00,49.983
1277.00,49.994
1278.00,50.004
1279.00,50.006
1280.00,50.013
1281.00,50.011
1282.00,50.049
1283.00,50.024
1284.00,50.030
1285.00,50.025
1286.00,50.034
1287.00,50.038
1288.00,50.033
1289.00,50.034
1290.00,50.056
1291.00,50.041
1292.00,50.038
1293.00,50.047
1294.00,50.064
1295.00,50.070
1296.00,50.077
1297.00,50.076
1298.00,50.105
1299.00,50.084
1300.00,50.089
1301.00,50.121
1302.00,50.122
1303.00,50.130
1304.00,50.119
1305.00,50.135
1306.00,50.121
1307.00,50.131
1308.00,50.125
1309.00,50.136
1310.00,50.145
1311.00,50.128
1312.00,50.144
1313.00,50.156
1314.00,50.155
1315.00,50.179
1316.00,50.167
1317.00,50.179
1318.00,50.193
1319.00,50.185
1320.00,50.218
1321.00,50.350
1322.00,50.355
1323.00,50.327
1324.00,50.329
1325.00,50.302
1326.00,50.340
1327.00,50.337
1328.00,50.319
1329.00,50.341
1330.00,50.335
1331.00,50.327
1332.00,50.338
1333.00,50.340
1334.00,50.368
1335.00,50.382
1336.00,50.401
1337.00,50.435
1338.00,50.498
1339.00,50.535
1340.00,50.606
1341.00,50.658
1342.00,50.716
1343.00,50.789
1344.00,50.814
1345.00,50.866
1346.00,50.919
1347.00,50.924
1348.00,50.948
1349.00,50.971
1350.00,50.984
1351.00,51.014
1352.00,51.026
1353.00,51.053
1354.00,51.021
1355.00,50.948
1356.00,51.019
1357.00,51.044
1358.00,51.009
1359.00,51.160
1360.00,51.371
1361.00,51.042
1362.00,50.985
1363.00,51.110
1364.00,51.091
1365.00,51.061
1366.00,51.102
1367.00,51.048
1368.00,50.964
1369.00,51.087
1370.00,51.051
1371.00,50.975
1372.00,50.987
1373.00,51.055
1374.00,51.031
1375.00,51.004
1376.00,51.038
1377.00,50.997
1378.00,51.027
1379.00,51.079
1380.00,51.012
1381.00,51.052
1382.00,51.028
1383.00,51.043
1384.00,50.999
1385.00,50.933
1386.00,51.022
1387.00,50.991
1388.00,50.956
1389.00,50.925
1390.00,51.000
1391.00,51.020
1392.00,51.025
1393.00,50.992
1394.00,51.046
1395.00,51.005
1396.00,50.972
1397.00,51.010
1398.00,51.084
1399.00,51.035
1400.00,50.976
1401.00,51.034
1402.00,51.057
1403.00,51.044
1404.00,51.032
1405.00,51.062
1406.00,51.059
1407.00,51.076
1408.00,51.092
1409.00,51.038
1410.00,51.092
1411.00,51.079
1412.00,51.144
1413.00,51.056
1414.00,51.100
1415.00,51.126
1416.00,51.148
1417.00,51.187
1418.00,51.156
1419.00,51.125
1420.00,51.165
1421.00,51.212
1422.00,51.193
1423.00,51.203
1424.00,51.213
1425.00,51.217
1426.00,51.223
1427.00,51.234
1428.00,51.259
1429.00,51.272
1430.00,51.272
1431.00,51.299
1432.00,51.292
1433.00,51.318
1434.00,51.315
1435.00,51.365
1436.00,51.379
1437.00,51.364
1438.00,51.366
1439.00,51.422
1440.00,51.432
1441.00,51.431
1442.00,51.455
1443.00,51.463
1444.00,51.504
1445.00,51.470
1446.00,51.486
1447.00,51.538
1448.00,51.555
1449.00,51.564
1450.00,51.563
1451.00,51.568
1452.00,51.574
1453.00,51.613
1454.00,51.623
1455.00,51.633
1456.00,51.668
1457.00,51.661
1458.00,51.699
1459.00,51.718
1460.00,51.722
1461.00,51.741
1462.00,51.745
1463.00,51.743
1464.00,51.763
1465.00,51.780
1466.00,51.788
1467.00,51.790
1468.00,51.854
1469.00,51.852
1470.00,51.861
1471.00,51.874
1472.00,51.903
1473.00,51.897
1474.00,51.923
1475.00,51.941
1476.00,51.925
1477.00,51.916
1478.00,51.927
1479.00,51.950
1480.00,51.962
1481.00,51.961
1482.00,51.987
1483.00,52.017
1484.00,52.017
1485.00,52.032
1486.00,52.046
1487.00,52.062
1488.00,52.063
1489.00,52.074
1490.00,52.074
1491.00,52.090
1492.00,52.111
1493.00,52.103
1494.00,52.121
1495.00,52.123
1496.00,52.112
1497.00,52.141
1498.00,52.133
1499.00,52.151
1500.00,52.183
1501.00, 
1502.00, 
1503.00, 
1504.00, 
1505.00, 
1506.00, 
1507.00, 
1508.00, 
1509.00, 
1510.00, 
1511.00, 
1512.00, 
1513.00, 
1514.00, 
1515.00, 
1516.00, 
1517.00, 
1518.00, 
1519.00, 
1520.00, 
1521.00, 
1522.00, 
1523.00, 
1524.00, 
1525.00, 
1526.00, 
1527.00, 
1528.00, 
1529.00, 
1530.00, 
1531.00, 
1532.00, 
1533.00, 
1534.00, 
1535.00, 
1536.00, 
1537.00, 
1538.00, 
1539.00, 
1540.00, 
1541.00, 
1542.00, 
1543.00, 
1544.00, 
1545.00, 
1546.00, 
1547.00, 
1548.00, 
1549.00, 
1550.00, 
1551.00, 
1552.00, 
1553.00, 
1554.00, 
1555.00, 
1556.00, 
1557.00, 
1558.00, 
1559.00, 
1560.00, 
1561.00, 
1562.00, 
1563.00, 
1564.00, 
1565.00, 
1566.00, 
1567.00, 
1568.00, 
1569.00, 
1570.00, 
1571.00, 
1572.00, 
1573.00, 
1574.00, 
1575.00, 
1576.00, 
1577.00, 
1578.00, 
1579.00, 
1580.00, 
1581.00, 
1582.00, 
1583.00, 
1584.00, 
1585.00, 
1586.00, 
1587.00, 
1588.00, 
1589.00, 
1590.00, 
1591.00, 
1592.00, 
1593.00, 
1594.00, 
1595.00, 
1596.00, 
1597.00, 
1598.00, 
1599.00, 
1600.00, 
1601.00, 
1602.00, 
1603.00, 
1604.00, 
1605.00, 
1606.00, 
1607.00, 
1608.00, 
1609.00, 
1610.00, 
1611.00, 
1612.00, 
1613.00, 
1614.00, 
1615.00, 
1616.00, 
1617.00, 
1618.00, 
1619.00, 
1620.00, 
1621.00, 
1622.00, 
1623.00, 
1624.00, 
1625.00, 
1626.00, 
1627.00, 
1628.00, 
1629.00, 
1630.00, 
1631.00, 
1632.00, 
1633.00, 
1634.00, 
1635.00, 
1636.00, 
1637.00, 
1638.00, 
1639.00, 
1640.00, 
1641.00, 
1642.00, 
1643.00, 
1644.00, 
1645.00, 
1646.00, 
1647.00, 
1648.00, 
1649.00, 
1650.00, 
1651.00, 
1652.00, 
1653.00, 
1654.00, 
1655.00, 
1656.00, 
1657.00, 
1658.00, 
1659.00, 
1660.00, 
1661.00, 
1662.00, 
1663.00, 
1664.00, 
1665.00, 
1666.00, 
1667.00, 
1668.00, 
1669.00, 
1670.00, 
1671.00, 
1672.00, 
1673.00, 
1674.00, 
1675.00, 
1676.00, 
1677.00, 
1678.00, 
1679.00, 
1680.00, 
1681.00, 
1682.00, 
1683.00, 
1684.00, 
1685.00, 
1686.00, 
1687.00, 
1688.00, 
1689.00, 
1690.00, 
1691.00, 
1692.00, 
1693.00, 
1694.00, 
1695.00, 
1696.00, 
1697.00, 
1698.00, 
1699.00, 
1700.00, 
1701.00, 
1702.00, 
1703.00, 
1704.00, 
1705.00, 
1706.00, 
1707.00, 
1708.00, 
1709.00, 
1710.00, 
1711.00, 
1712.00, 
1713.00, 
1714.00, 
1715.00, 
1716.00, 
1717.00, 
1718.00, 
1719.00, 
1720.00, 
1721.00, 
1722.00, 
1723.00, 
1724.00, 
1725.00, 
1726.00, 
1727.00, 
1728.00, 
1729.00, 
1730.00, 
1731.00, 
1732.00, 
1733.00, 
1734.00, 
1735.00, 
1736.00, 
1737.00, 
1738.00, 
1739.00, 
1740.00, 
1741.00, 
1742.00, 
1743.00, 
1744.00, 
1745.00, 
1746.00, 
1747.00, 
1748.00, 
1749.00, 
1750.00, 
1751.00, 
1752.00, 
1753.00, 
1754.00, 
1755.00, 
1756.00, 
1757.00, 
1758.00, 
1759.00, 
1760.00, 
1761.00, 
1762.00, 
1763.00, 
1764.00, 
1765.00, 
1766.00, 
1767.00, 
1768.00, 
1769.00, 
1770.00, 
1771.00, 
1772.00, 
1773.00, 
1774.00, 
1775.00, 
1776.00, 
1777.00, 
1778.00, 
1779.00, 
1780.00, 
1781.00, 
1782.00, 
1783.00, 
1784.00, 
1785.00, 
1786.00, 
1787.00, 
1788.00, 
1789.00, 
1790.00, 
1791.00, 
1792.00, 
1793.00, 
1794.00, 
1795.00, 
1796.00, 
1797.00, 
1798.00, 
1799.00, 
1800.00, 
1801.00, 
1802.00, 
1803.00, 
1804.00, 
1805.00, 
1806.00, 
1807.00, 
1808.00, 
1809.00, 
1810.00, 
1811.00, 
1812.00, 
1813.00, 
1814.00, 
1815.00, 
1816.00, 
1817.00, 
1818.00, 
1819.00, 
1820.00, 
1821.00, 
1822.00, 
1823.00, 
1824.00, 
1825.00, 
1826.00, 
1827.00, 
1828.00, 
1829.00, 
1830.00, 
1831.00, 
1832.00, 
1833.00, 
1834.00, 
1835.00, 
1836.00, 
1837.00, 
1838.00, 
1839.00, 
1840.00, 
1841.00, 
1842.00, 
1843.00, 
1844.00, 
1845.00, 
1846.00, 
1847.00, 
1848.00, 
1849.00, 
1850.00, 
1851.00, 
1852.00, 
1853.00, 
1854.00, 
1855.00, 
1856.00, 
1857.00, 
1858.00, 
1859.00, 
1860.00, 
1861.00, 
1862.00, 
1863.00, 
1864.00, 
1865.00, 
1866.00, 
1867.00, 
1868.00, 
1869.00, 
1870.00, 
1871.00, 
1872.00, 
1873.00, 
1874.00, 
1875.00, 
1876.00, 
1877.00, 
1878.00, 
1879.00, 
1880.00, 
1881.00, 
1882.00, 
1883.00, 
1884.00, 
1885.00, 
1886.00, 
1887.00, 
1888.00, 
1889.00, 
1890.00, 
1891.00, 
1892.00, 
1893.00, 
1894.00, 
1895.00, 
1896.00, 
1897.00, 
1898.00, 
1899.00, 
1900.00, 
1901.00, 
1902.00, 
1903.00, 
1904.00, 
1905.00, 
1906.00, 
1907.00, 
1908.00, 
1909.00, 
1910.00, 
1911.00, 
1912.00, 
1913.00, 
1914.00, 
1915.00, 
1916.00, 
1917.00, 
1918.00, 
1919.00, 
1920.00, 
1921.00, 
1922.00, 
1923.00, 
1924.00, 
1925.00, 
1926.00, 
1927.00, 
1928.00, 
1929.00, 
1930.00, 
1931.00, 
1932.00, 
1933.00, 
1934.00, 
1935.00, 
1936.00, 
1937.00, 
1938.00, 
1939.00, 
1940.00, 
1941.00, 
1942.00, 
1943.00, 
1944.00, 
1945.00, 
1946.00, 
1947.00, 
1948.00, 
1949.00, 
1950.00, 
1951.00, 
1952.00, 
1953.00, 
1954.00, 
1955.00, 
1956.00, 
1957.00, 
1958.00, 
1959.00, 
1960.00, 
1961.00, 
1962.00, 
1963.00, 
1964.00, 
1965.00, 
1966.00, 
1967.00, 
1968.00, 
1969.00, 
1970.00, 
1971.00, 
1972.00, 
1973.00, 
1974.00, 
1975.00, 
1976.00, 
1977.00, 
1978.00, 
1979.00, 
1980.00, 
1981.00, 
1982.00, 
1983.00, 
1984.00, 
1985.00, 
1986.00, 
1987.00, 
1988.00, 
1989.00, 
1990.00, 
1991.00, 
1992.00, 
1993.00, 
1994.00, 
1995.00, 
1996.00, 
1997.00, 
1998.00, 
1999.00, 
2000.00, 
2001.00, 
2002.00, 
2003.00, 
2004.00, 
2005.00, 
2006.00, 
2007.00, 
2008.00, 
2009.00, 
2010.00, 
2011.00, 
2012.00, 
2013.00, 
2014.00, 
2015.00, 
2016.00, 
2017.00, 
2018.00, 
2019.00, 
2020.00, 
2021.00, 
2022.00, 
2023.00, 
2024.00, 
2025.00, 
2026.00, 
2027.00, 
2028.00, 
2029.00, 
2030.00, 
2031.00, 
2032.00, 
2033.00, 
2034.00, 
2035.00, 
2036.00, 
2037.00, 
2038.00, 
2039.00, 
2040.00, 
2041.00, 
2042.00, 
2043.00, 
2044.00, 
2045.00, 
2046.00, 
2047.00, 
2048.00, 
2049.00, 
2050.00, 
2051.00, 
2052.00, 
2053.00, 
2054.00, 
2055.00, 
2056.00, 
2057.00, 
2058.00, 
2059.00, 
2060.00, 
2061.00, 
2062.00, 
2063.00, 
2064.00, 
2065.00, 
2066.00, 
2067.00, 
2068.00, 
2069.00, 
2070.00, 
2071.00, 
2072.00, 
2073.00, 
2074.00, 
2075.00, 
2076.00, 
2077.00, 
2078.00, 
2079.00, 
2080.00, 
2081.00, 
2082.00, 
2083.00, 
2084.00, 
2085.00, 
2086.00, 
2087.00, 
2088.00, 
2089.00, 
2090.00, 
2091.00, 
2092.00, 
2093.00, 
2094.00, 
2095.00, 
2096.00, 
2097.00, 
2098.00, 
2099.00, 
2100.00, 
2101.00, 
2102.00, 
2103.00, 
2104.00, 
2105.00, 
2106.00, 
2107.00, 
2108.00, 
2109.00, 
2110.00, 
2111.00, 
2112.00, 
2113.00, 
2114.00, 
2115.00, 
2116.00, 
2117.00, 
2118.00, 
2119.00, 
2120.00, 
2121.00, 
2122.00, 
2123.00, 
2124.00, 
2125.00, 
2126.00, 
2127.00, 
2128.00, 
2129.00, 
2130.00, 
2131.00, 
2132.00, 
2133.00, 
2134.00, 
2135.00, 
2136.00, 
2137.00, 
2138.00, 
2139.00, 
2140.00, 
2141.00, 
2142.00, 
2143.00, 
2144.00, 
2145.00, 
2146.00, 
2147.00, 
2148.00, 
2149.00, 
2150.00, 
2151.00, 
2152.00, 
2153.00, 
2154.00, 
2155.00, 
2156.00, 
2157.00, 
2158.00, 
2159.00, 
2160.00, 
2161.00, 
2162.00, 
2163.00, 
2164.00, 
2165.00, 
2166.00, 
2167.00, 
2168.00, 
2169.00, 
2170.00, 
2171.00, 
2172.00, 
2173.00, 
2174.00, 
2175.00, 
2176.00, 
2177.00, 
2178.00, 
2179.00, 
2180.00, 
2181.00, 
2182.00, 
2183.00, 
2184.00, 
2185.00, 
2186.00, 
2187.00, 
2188.00, 
2189.00, 
2190.00, 
2191.00, 
2192.00, 
2193.00, 
2194.00, 
2195.00, 
2196.00, 
2197.00, 
2198.00, 
2199.00, 
2200.00, 
2201.00, 
2202.00, 
2203.00, 
2204.00, 
2205.00, 
2206.00, 
2207.00, 
2208.00, 
2209.00, 
2210.00, 
2211.00, 
2212.00, 
2213.00, 
2214.00, 
2215.00, 
2216.00, 
2217.00, 
2218.00, 
2219.00, 
2220.00, 
2221.00, 
2222.00, 
2223.00, 
2224.00, 
2225.00, 
2226.00, 
2227.00, 
2228.00, 
2229.00, 
2230.00, 
2231.00, 
2232.00, 
2233.00, 
2234.00, 
2235.00, 
2236.00, 
2237.00, 
2238.00, 
2239.00, 
2240.00, 
2241.00, 
2242.00, 
2243.00, 
2244.00, 
2245.00, 
2246.00, 
2247.00, 
2248.00, 
2249.00, 
2250.00, 
2251.00, 
2252.00, 
2253.00, 
2254.00, 
2255.00, 
2256.00, 
2257.00, 
2258.00, 
2259.00, 
2260.00, 
2261.00, 
2262.00, 
2263.00, 
2264.00, 
2265.00, 
2266.00, 
2267.00, 
2268.00, 
2269.00, 
2270.00, 
2271.00, 
2272.00, 
2273.00, 
2274.00, 
2275.00, 
2276.00, 
2277.00, 
2278.00, 
2279.00, 
2280.00, 
2281.00, 
2282.00, 
2283.00, 
2284.00, 
2285.00, 
2286.00, 
2287.00, 
2288.00, 
2289.00, 
2290.00, 
2291.00, 
2292.00, 
2293.00, 
2294.00, 
2295.00, 
2296.00, 
2297.00, 
2298.00, 
2299.00, 
2300.00, 
2301.00, 
2302.00, 
2303.00, 
2304.00, 
2305.00, 
2306.00, 
2307.00, 
2308.00, 
2309.00, 
2310.00, 
2311.00, 
2312.00, 
2313.00, 
2314.00, 
2315.00, 
2316.00, 
2317.00, 
2318.00, 
2319.00, 
2320.00, 
2321.00, 
2322.00, 
2323.00, 
2324.00, 
2325.00, 
2326.00, 
2327.00, 
2328.00, 
2329.00, 
2330.00, 
2331.00, 
2332.00, 
2333.00, 
2334.00, 
2335.00, 
2336.00, 
2337.00, 
2338.00, 
2339.00, 
2340.00, 
2341.00, 
2342.00, 
2343.00, 
2344.00, 
2345.00, 
2346.00, 
2347.00, 
2348.00, 
2349.00, 
2350.00, 
2351.00, 
2352.00, 
2353.00, 
2354.00, 
2355.00, 
2356.00, 
2357.00, 
2358.00, 
2359.00, 
2360.00, 
2361.00, 
2362.00, 
2363.00, 
2364.00, 
2365.00, 
2366.00, 
2367.00, 
2368.00, 
2369.00, 
2370.00, 
2371.00, 
2372.00, 
2373.00, 
2374.00, 
2375.00, 
2376.00, 
2377.00, 
2378.00, 
2379.00, 
2380.00, 
2381.00, 
2382.00, 
2383.00, 
2384.00, 
2385.00, 
2386.00, 
2387.00, 
2388.00, 
2389.00, 
2390.00, 
2391.00, 
2392.00, 
2393.00, 
2394.00, 
2395.00, 
2396.00, 
2397.00, 
2398.00, 
2399.00, 
2400.00, 
2401.00, 
2402.00, 
2403.00, 
2404.00, 
2405.00, 
2406.00, 
2407.00, 
2408.00, 
2409.00, 
2410.00, 
2411.00, 
2412.00, 
2413.00, 
2414.00, 
2415.00, 
2416.00, 
2417.00, 
2418.00, 
2419.00, 
2420.00, 
2421.00, 
2422.00, 
2423.00, 
2424.00, 
2425.00, 
2426.00, 
2427.00, 
2428.00, 
2429.00, 
2430.00, 
2431.00, 
2432.00, 
2433.00, 
2434.00, 
2435.00, 
2436.00, 
2437.00, 
2438.00, 
2439.00, 
2440.00, 
2441.00, 
2442.00, 
2443.00, 
2444.00, 
2445.00, 
2446.00, 
2447.00, 
2448.00, 
2449.00, 
2450.00, 
2451.00, 
2452.00, 
2453.00, 
2454.00, 
2455.00, 
2456.00, 
2457.00, 
2458.00, 
2459.00, 
2460.00, 
2461.00, 
2462.00, 
2463.00, 
2464.00, 
2465.00, 
2466.00, 
2467.00, 
2468.00, 
2469.00, 
2470.00, 
2471.00, 
2472.00, 
2473.00, 
2474.00, 
2475.00, 
2476.00, 
2477.00, 
2478.00, 
2479.00, 
2480.00, 
2481.00, 
2482.00, 
2483.00, 
2484.00, 
2485.00, 
2486.00, 
2487.00, 
2488.00, 
2489.00, 
2490.00, 
2491.00, 
2492.00, 
2493.00, 
2494.00, 
2495.00, 
2496.00, 
2497.00, 
2498.00, 
2499.00, 
2500.00, 
2501.00, 
2502.00, 
2503.00, 
2504.00, 
2505.00, 
2506.00, 
2507.00, 
2508.00, 
2509.00, 
2510.00, 
2511.00, 
2512.00, 
2513.00, 
2514.00, 
2515.00, 
2516.00, 
2517.00, 
2518.00, 
2519.00, 
2520.00, 
2521.00, 
2522.00, 
2523.00, 
2524.00, 
2525.00, 
2526.00, 
2527.00, 
2528.00, 
2529.00, 
2530.00, 
2531.00, 
2532.00, 
2533.00, 
2534.00, 
2535.00, 
2536.00, 
2537.00, 
2538.00, 
2539.00, 
2540.00, 
2541.00, 
2542.00, 
2543.00, 
2544.00, 
2545.00, 
2546.00, 
2547.00, 
2548.00, 
2549.00, 
2550.00, 
2551.00, 
2552.00, 
2553.00, 
2554.00, 
2555.00, 
2556.00, 
2557.00, 
2558.00, 
2559.00, 
2560.00, 
2561.00, 
2562.00, 
2563.00, 
2564.00, 
2565.00, 
2566.00, 
2567.00, 
2568.00, 
2569.00, 
2570.00, 
2571.00, 
2572.00, 
2573.00, 
2574.00, 
2575.00, 
2576.00, 
2577.00, 
2578.00, 
2579.00, 
2580.00, 
2581.00, 
2582.00, 
2583.00, 
2584.00, 
2585.00, 
2586.00, 
2587.00, 
2588.00, 
2589.00, 
2590.00, 
2591.00, 
2592.00, 
2593.00, 
2594.00, 
2595.00, 
2596.00, 
2597.00, 
2598.00, 
2599.00, 
2600.00, 
