"1cP5 - RawData"
"Wavelength nm.","T%"
200.00,0.002
201.00,0.000
202.00,-0.001
203.00,-0.003
204.00,0.002
205.00,0.003
206.00,0.000
207.00,-0.004
208.00,0.001
209.00,0.001
210.00,0.003
211.00,0.002
212.00,0.002
213.00,0.001
214.00,0.002
215.00,-0.000
216.00,0.003
217.00,0.002
218.00,-0.001
219.00,0.004
220.00,0.003
221.00,0.000
222.00,0.001
223.00,0.001
224.00,-0.000
225.00,0.002
226.00,0.003
227.00,-0.002
228.00,0.001
229.00,0.001
230.00,-0.001
231.00,0.000
232.00,0.002
233.00,0.001
234.00,0.001
235.00,0.002
236.00,0.003
237.00,0.002
238.00,-0.000
239.00,0.000
240.00,-0.000
241.00,0.001
242.00,-0.002
243.00,0.000
244.00,0.001
245.00,0.000
246.00,0.002
247.00,0.000
248.00,0.002
249.00,0.000
250.00,0.001
251.00,0.000
252.00,0.001
253.00,0.000
254.00,0.000
255.00,-0.001
256.00,0.001
257.00,-0.000
258.00,-0.002
259.00,0.001
260.00,-0.001
261.00,-0.002
262.00,0.002
263.00,0.002
264.00,0.000
265.00,-0.002
266.00,0.002
267.00,0.000
268.00,0.001
269.00,-0.001
270.00,0.001
271.00,-0.001
272.00,-0.000
273.00,0.001
274.00,-0.002
275.00,-0.001
276.00,-0.000
277.00,0.002
278.00,0.001
279.00,0.001
280.00,0.001
281.00,-0.000
282.00,-0.000
283.00,0.003
284.00,0.001
285.00,-0.001
286.00,0.001
287.00,-0.000
288.00,0.000
289.00,-0.000
290.00,-0.001
291.00,0.001
292.00,-0.000
293.00,-0.001
294.00,0.001
295.00,0.000
296.00,0.000
297.00,-0.001
298.00,0.001
299.00,0.001
300.00,0.002
301.00,-0.001
302.00,0.002
303.00,0.001
304.00,0.002
305.00,0.002
306.00,0.004
307.00,0.004
308.00,0.007
309.00,0.012
310.00,0.020
311.00,0.030
312.00,0.042
313.00,0.067
314.00,0.097
315.00,0.143
316.00,0.203
317.00,0.290
318.00,0.396
319.00,0.540
320.00,0.712
321.00,0.918
322.00,1.171
323.00,1.475
324.00,1.829
325.00,2.211
326.00,2.610
327.00,3.121
328.00,3.627
329.00,4.173
330.00,4.795
331.00,5.396
332.00,6.037
333.00,6.783
334.00,7.461
335.00,8.215
336.00,8.928
337.00,9.718
338.00,10.467
339.00,11.154
340.00,11.928
341.00,12.593
342.00,13.268
343.00,13.937
344.00,14.595
345.00,15.265
346.00,15.846
347.00,16.396
348.00,16.916
349.00,17.414
350.00,17.898
351.00,18.351
352.00,18.763
353.00,19.141
354.00,19.526
355.00,19.855
356.00,20.200
357.00,20.459
358.00,20.750
359.00,21.032
360.00,21.334
361.00,21.512
362.00,21.722
363.00,21.899
364.00,22.028
365.00,22.140
366.00,22.243
367.00,22.370
368.00,22.443
369.00,22.497
370.00,22.555
371.00,22.555
372.00,22.544
373.00,22.522
374.00,22.528
375.00,22.514
376.00,22.398
377.00,22.329
378.00,22.257
379.00,22.105
380.00,22.101
381.00,22.093
382.00,22.106
383.00,22.116
384.00,22.195
385.00,22.250
386.00,22.258
387.00,22.414
388.00,22.456
389.00,22.504
390.00,22.561
391.00,22.621
392.00,22.642
393.00,22.662
394.00,22.706
395.00,22.767
396.00,22.731
397.00,22.754
398.00,22.758
399.00,22.763
400.00,22.776
401.00,22.795
402.00,22.766
403.00,22.749
404.00,22.820
405.00,22.725
406.00,22.747
407.00,22.653
408.00,22.688
409.00,22.632
410.00,22.525
411.00,22.577
412.00,22.541
413.00,22.572
414.00,22.559
415.00,22.523
416.00,22.555
417.00,22.528
418.00,22.555
419.00,22.651
420.00,22.677
421.00,22.688
422.00,22.734
423.00,22.775
424.00,22.835
425.00,22.863
426.00,22.829
427.00,22.951
428.00,22.987
429.00,22.991
430.00,23.029
431.00,23.123
432.00,23.156
433.00,23.197
434.00,23.258
435.00,23.303
436.00,23.382
437.00,23.478
438.00,23.521
439.00,23.552
440.00,23.668
441.00,23.658
442.00,23.808
443.00,23.901
444.00,23.958
445.00,24.044
446.00,24.173
447.00,24.270
448.00,24.359
449.00,24.460
450.00,24.584
451.00,24.682
452.00,24.757
453.00,24.889
454.00,24.940
455.00,25.142
456.00,25.178
457.00,25.349
458.00,25.458
459.00,25.599
460.00,25.752
461.00,25.874
462.00,25.994
463.00,26.121
464.00,26.281
465.00,26.384
466.00,26.514
467.00,26.649
468.00,26.747
469.00,26.896
470.00,26.978
471.00,27.050
472.00,27.195
473.00,27.280
474.00,27.421
475.00,27.532
476.00,27.640
477.00,27.758
478.00,27.908
479.00,28.090
480.00,28.267
481.00,28.313
482.00,28.461
483.00,28.639
484.00,28.784
485.00,28.912
486.00,29.072
487.00,29.191
488.00,29.340
489.00,29.512
490.00,29.665
491.00,29.761
492.00,30.019
493.00,30.162
494.00,30.165
495.00,30.326
496.00,30.454
497.00,30.553
498.00,30.752
499.00,30.885
500.00,30.989
501.00,31.093
502.00,31.265
503.00,31.403
504.00,31.453
505.00,31.592
506.00,31.701
507.00,31.778
508.00,31.895
509.00,32.074
510.00,32.223
511.00,32.280
512.00,32.502
513.00,32.620
514.00,32.747
515.00,32.877
516.00,32.978
517.00,33.035
518.00,33.223
519.00,33.292
520.00,33.316
521.00,33.405
522.00,33.509
523.00,33.510
524.00,33.619
525.00,33.737
526.00,33.894
527.00,33.928
528.00,34.004
529.00,34.172
530.00,34.308
531.00,34.443
532.00,34.509
533.00,34.625
534.00,34.722
535.00,34.760
536.00,34.895
537.00,34.952
538.00,35.011
539.00,35.012
540.00,35.119
541.00,35.179
542.00,35.240
543.00,35.259
544.00,35.345
545.00,35.422
546.00,35.461
547.00,35.614
548.00,35.625
549.00,35.682
550.00,35.814
551.00,35.889
552.00,36.024
553.00,36.001
554.00,35.984
555.00,36.040
556.00,36.219
557.00,36.320
558.00,36.285
559.00,36.435
560.00,36.494
561.00,36.540
562.00,36.556
563.00,36.624
564.00,36.653
565.00,36.667
566.00,36.666
567.00,36.793
568.00,36.852
569.00,36.813
570.00,36.858
571.00,36.974
572.00,36.857
573.00,36.935
574.00,36.990
575.00,36.999
576.00,36.965
577.00,37.010
578.00,37.140
579.00,37.154
580.00,37.202
581.00,37.397
582.00,37.462
583.00,37.451
584.00,37.534
585.00,37.639
586.00,37.644
587.00,37.711
588.00,37.734
589.00,37.682
590.00,37.713
591.00,37.745
592.00,37.745
593.00,37.773
594.00,37.931
595.00,38.007
596.00,38.027
597.00,38.101
598.00,38.137
599.00,38.036
600.00,38.122
601.00,38.196
602.00,38.236
603.00,38.278
604.00,38.330
605.00,38.330
606.00,38.336
607.00,38.415
608.00,38.572
609.00,38.649
610.00,38.470
611.00,38.548
612.00,38.585
613.00,38.699
614.00,38.777
615.00,38.780
616.00,38.920
617.00,38.910
618.00,38.890
619.00,38.941
620.00,38.987
621.00,39.101
622.00,39.129
623.00,39.217
624.00,39.259
625.00,39.305
626.00,39.359
627.00,39.440
628.00,39.442
629.00,39.450
630.00,39.541
631.00,39.565
632.00,39.636
633.00,39.745
634.00,39.820
635.00,39.923
636.00,39.941
637.00,39.947
638.00,40.005
639.00,40.116
640.00,40.121
641.00,40.233
642.00,40.286
643.00,40.384
644.00,40.451
645.00,40.494
646.00,40.656
647.00,40.718
648.00,40.752
649.00,40.762
650.00,40.777
651.00,40.959
652.00,41.003
653.00,41.020
654.00,41.090
655.00,41.316
656.00,41.527
657.00,41.598
658.00,41.584
659.00,41.689
660.00,41.604
661.00,41.645
662.00,41.742
663.00,41.823
664.00,42.103
665.00,42.188
666.00,42.115
667.00,42.269
668.00,42.269
669.00,42.507
670.00,42.734
671.00,42.597
672.00,42.715
673.00,42.758
674.00,42.843
675.00,42.983
676.00,43.148
677.00,43.409
678.00,43.188
679.00,43.363
680.00,43.496
681.00,43.597
682.00,43.593
683.00,43.659
684.00,43.752
685.00,43.857
686.00,43.779
687.00,43.819
688.00,44.054
689.00,44.090
690.00,44.255
691.00,44.516
692.00,44.168
693.00,43.963
694.00,44.594
695.00,45.024
696.00,44.709
697.00,44.612
698.00,44.765
699.00,45.192
700.00,45.269
701.00,45.151
702.00,45.221
703.00,45.312
704.00,45.365
705.00,45.401
706.00,45.492
707.00,45.441
708.00,45.382
709.00,45.784
710.00,46.048
711.00,45.720
712.00,46.130
713.00,46.071
714.00,46.055
715.00,46.197
716.00,46.055
717.00,46.180
718.00,46.387
719.00,46.410
720.00,46.413
721.00,50.861
722.00,50.949
723.00,50.937
724.00,50.946
725.00,50.934
726.00,50.929
727.00,50.988
728.00,51.004
729.00,51.050
730.00,51.045
731.00,51.002
732.00,51.068
733.00,51.154
734.00,51.142
735.00,51.206
736.00,51.210
737.00,51.282
738.00,51.335
739.00,51.353
740.00,51.329
741.00,51.350
742.00,51.389
743.00,51.336
744.00,51.343
745.00,51.413
746.00,51.397
747.00,51.391
748.00,51.401
749.00,51.442
750.00,51.372
751.00,51.405
752.00,51.494
753.00,51.379
754.00,51.439
755.00,51.465
756.00,51.497
757.00,51.367
758.00,51.471
759.00,51.406
760.00,51.478
761.00,51.596
762.00,51.456
763.00,51.575
764.00,51.579
765.00,51.515
766.00,51.598
767.00,51.610
768.00,51.567
769.00,51.521
770.00,51.632
771.00,51.614
772.00,51.691
773.00,51.570
774.00,51.645
775.00,51.662
776.00,51.627
777.00,51.618
778.00,51.600
779.00,51.633
780.00,51.576
781.00,51.583
782.00,51.658
783.00,51.618
784.00,51.642
785.00,51.572
786.00,51.588
787.00,51.596
788.00,51.564
789.00,51.594
790.00,51.515
791.00,51.630
792.00,51.468
793.00,51.535
794.00,51.549
795.00,51.578
796.00,51.474
797.00,51.395
798.00,51.494
799.00,51.450
800.00,51.449
801.00,51.416
802.00,51.394
803.00,51.359
804.00,51.354
805.00,51.372
806.00,51.329
807.00,51.301
808.00,51.332
809.00,51.235
810.00,51.271
811.00,51.287
812.00,51.238
813.00,51.253
814.00,51.179
815.00,51.304
816.00,51.192
817.00,51.174
818.00,51.091
819.00,51.220
820.00,51.037
821.00,51.152
822.00,51.122
823.00,51.012
824.00,51.142
825.00,51.065
826.00,50.971
827.00,51.090
828.00,50.982
829.00,51.013
830.00,51.105
831.00,53.310
832.00,53.328
833.00,53.244
834.00,53.274
835.00,53.247
836.00,53.246
837.00,53.189
838.00,53.206
839.00,53.194
840.00,53.185
841.00,53.174
842.00,53.136
843.00,53.169
844.00,53.089
845.00,52.994
846.00,53.174
847.00,53.069
848.00,53.021
849.00,52.944
850.00,52.940
851.00,52.892
852.00,52.866
853.00,52.820
854.00,52.803
855.00,52.744
856.00,52.748
857.00,52.723
858.00,52.716
859.00,52.658
860.00,52.664
861.00,52.645
862.00,52.650
863.00,52.612
864.00,52.620
865.00,52.631
866.00,52.588
867.00,52.602
868.00,52.531
869.00,52.610
870.00,52.563
871.00,52.541
872.00,52.523
873.00,52.530
874.00,52.510
875.00,52.480
876.00,52.475
877.00,52.476
878.00,52.487
879.00,52.447
880.00,52.416
881.00,52.416
882.00,52.457
883.00,52.422
884.00,52.373
885.00,52.335
886.00,52.340
887.00,52.293
888.00,52.279
889.00,52.273
890.00,52.239
891.00,52.225
892.00,52.203
893.00,52.171
894.00,52.182
895.00,52.161
896.00,52.137
897.00,52.113
898.00,52.081
899.00,52.067
900.00,52.079
901.00,52.076
902.00,52.072
903.00,52.014
904.00,52.023
905.00,52.053
906.00,51.928
907.00,51.943
908.00,51.945
909.00,51.936
910.00,51.853
911.00,51.886
912.00,51.892
913.00,51.826
914.00,51.834
915.00,51.797
916.00,51.802
917.00,51.784
918.00,51.766
919.00,51.731
920.00,51.716
921.00,51.695
922.00,51.715
923.00,51.655
924.00,51.630
925.00,51.608
926.00,51.612
927.00,51.596
928.00,51.568
929.00,51.554
930.00,51.675
931.00,51.532
932.00,51.497
933.00,51.499
934.00,51.464
935.00,51.475
936.00,51.423
937.00,51.404
938.00,51.403
939.00,51.399
940.00,51.350
941.00,51.366
942.00,51.332
943.00,51.308
944.00,51.211
945.00,51.284
946.00,51.242
947.00,51.209
948.00,51.194
949.00,51.174
950.00,51.147
951.00,51.132
952.00,51.126
953.00,51.095
954.00,51.083
955.00,51.030
956.00,51.020
957.00,50.980
958.00,50.988
959.00,50.920
960.00,50.933
961.00,50.938
962.00,50.928
963.00,50.861
964.00,50.867
965.00,50.886
966.00,50.847
967.00,50.851
968.00,50.826
969.00,50.838
970.00,50.813
971.00,50.845
972.00,50.793
973.00,50.828
974.00,50.825
975.00,50.822
976.00,50.840
977.00,50.794
978.00,50.852
979.00,50.797
980.00,50.835
981.00,50.826
982.00,50.815
983.00,50.799
984.00,50.787
985.00,50.810
986.00,50.767
987.00,50.789
988.00,50.760
989.00,50.750
990.00,50.735
991.00,50.762
992.00,50.752
993.00,50.720
994.00,50.695
995.00,50.693
996.00,50.681
997.00,50.667
998.00,50.640
999.00,50.651
1000.00,50.610
1001.00,50.612
1002.00,50.599
1003.00,50.604
1004.00,50.580
1005.00,50.551
1006.00,50.594
1007.00,50.549
1008.00,50.537
1009.00,50.512
1010.00,50.502
1011.00,50.501
1012.00,50.462
1013.00,50.481
1014.00,50.443
1015.00,50.467
1016.00,50.418
1017.00,50.418
1018.00,50.404
1019.00,50.360
1020.00,50.378
1021.00,50.346
1022.00,50.352
1023.00,50.302
1024.00,50.294
1025.00,50.282
1026.00,50.265
1027.00,50.233
1028.00,50.231
1029.00,50.218
1030.00,50.185
1031.00,50.196
1032.00,50.156
1033.00,50.176
1034.00,50.147
1035.00,50.104
1036.00,50.096
1037.00,50.074
1038.00,50.048
1039.00,50.029
1040.00,50.027
1041.00,49.982
1042.00,49.987
1043.00,49.963
1044.00,50.001
1045.00,49.997
1046.00,49.975
1047.00,50.002
1048.00,50.006
1049.00,50.002
1050.00,50.013
1051.00,50.061
1052.00,50.046
1053.00,50.061
1054.00,50.050
1055.00,50.075
1056.00,50.089
1057.00,50.089
1058.00,50.080
1059.00,50.069
1060.00,50.074
1061.00,50.061
1062.00,50.044
1063.00,50.054
1064.00,50.059
1065.00,50.032
1066.00,50.023
1067.00,50.024
1068.00,50.046
1069.00,50.005
1070.00,49.999
1071.00,49.966
1072.00,50.020
1073.00,49.982
1074.00,49.971
1075.00,49.960
1076.00,49.954
1077.00,49.945
1078.00,49.919
1079.00,49.916
1080.00,49.917
1081.00,49.914
1082.00,49.919
1083.00,49.893
1084.00,49.896
1085.00,49.881
1086.00,49.889
1087.00,49.871
1088.00,49.865
1089.00,49.865
1090.00,49.848
1091.00,49.867
1092.00,49.849
1093.00,49.830
1094.00,49.810
1095.00,49.807
1096.00,49.775
1097.00,49.798
1098.00,49.771
1099.00,49.767
1100.00,49.758
1101.00,49.743
1102.00,49.734
1103.00,49.752
1104.00,49.728
1105.00,49.722
1106.00,49.712
1107.00,49.712
1108.00,49.703
1109.00,49.680
1110.00,49.681
1111.00,49.672
1112.00,49.652
1113.00,49.647
1114.00,49.646
1115.00,49.642
1116.00,49.639
1117.00,49.628
1118.00,49.606
1119.00,49.616
1120.00,49.604
1121.00,49.611
1122.00,49.593
1123.00,49.576
1124.00,49.604
1125.00,49.590
1126.00,49.579
1127.00,49.570
1128.00,49.552
1129.00,49.535
1130.00,49.530
1131.00,49.517
1132.00,49.516
1133.00,49.527
1134.00,49.500
1135.00,49.505
1136.00,49.518
1137.00,49.522
1138.00,49.519
1139.00,49.518
1140.00,49.522
1141.00,49.516
1142.00,49.506
1143.00,49.529
1144.00,49.491
1145.00,49.484
1146.00,49.487
1147.00,49.480
1148.00,49.460
1149.00,49.483
1150.00,49.481
1151.00,49.476
1152.00,49.477
1153.00,49.475
1154.00,49.468
1155.00,49.477
1156.00,49.454
1157.00,49.469
1158.00,49.454
1159.00,49.453
1160.00,49.447
1161.00,49.456
1162.00,49.450
1163.00,49.468
1164.00,49.458
1165.00,49.461
1166.00,49.472
1167.00,49.442
1168.00,49.467
1169.00,49.454
1170.00,49.451
1171.00,49.424
1172.00,49.408
1173.00,49.420
1174.00,49.418
1175.00,49.407
1176.00,49.423
1177.00,49.418
1178.00,49.423
1179.00,49.438
1180.00,49.439
1181.00,49.438
1182.00,49.429
1183.00,49.437
1184.00,49.419
1185.00,49.429
1186.00,49.400
1187.00,49.422
1188.00,49.425
1189.00,49.427
1190.00,49.422
1191.00,49.417
1192.00,49.442
1193.00,49.420
1194.00,49.423
1195.00,49.395
1196.00,49.447
1197.00,49.442
1198.00,49.435
1199.00,49.441
1200.00,49.433
1201.00,49.464
1202.00,49.446
1203.00,49.443
1204.00,49.422
1205.00,49.434
1206.00,49.434
1207.00,49.439
1208.00,49.423
1209.00,49.446
1210.00,49.446
1211.00,49.433
1212.00,49.452
1213.00,49.426
1214.00,49.448
1215.00,49.428
1216.00,49.451
1217.00,49.434
1218.00,49.428
1219.00,49.446
1220.00,49.428
1221.00,49.453
1222.00,49.443
1223.00,49.459
1224.00,49.461
1225.00,49.439
1226.00,49.448
1227.00,49.457
1228.00,49.455
1229.00,49.486
1230.00,49.470
1231.00,49.480
1232.00,49.528
1233.00,49.489
1234.00,49.502
1235.00,49.506
1236.00,49.505
1237.00,49.508
1238.00,49.506
1239.00,49.516
1240.00,49.501
1241.00,49.507
1242.00,49.517
1243.00,49.534
1244.00,49.494
1245.00,49.528
1246.00,49.537
1247.00,49.515
1248.00,49.541
1249.00,49.557
1250.00,49.558
1251.00,49.537
1252.00,49.543
1253.00,49.532
1254.00,49.559
1255.00,49.530
1256.00,49.526
1257.00,49.514
1258.00,49.567
1259.00,49.577
1260.00,49.600
1261.00,49.581
1262.00,49.597
1263.00,49.590
1264.00,49.607
1265.00,49.619
1266.00,49.596
1267.00,49.614
1268.00,49.616
1269.00,49.619
1270.00,49.633
1271.00,49.638
1272.00,49.648
1273.00,49.670
1274.00,49.656
1275.00,49.668
1276.00,49.664
1277.00,49.668
1278.00,49.687
1279.00,49.694
1280.00,49.682
1281.00,49.692
1282.00,49.706
1283.00,49.707
1284.00,49.712
1285.00,49.688
1286.00,49.723
1287.00,49.737
1288.00,49.736
1289.00,49.733
1290.00,49.779
1291.00,49.765
1292.00,49.769
1293.00,49.785
1294.00,49.791
1295.00,49.818
1296.00,49.810
1297.00,49.805
1298.00,49.839
1299.00,49.802
1300.00,49.842
1301.00,49.824
1302.00,49.848
1303.00,49.845
1304.00,49.831
1305.00,49.857
1306.00,49.863
1307.00,49.866
1308.00,49.871
1309.00,49.899
1310.00,49.884
1311.00,49.872
1312.00,49.879
1313.00,49.886
1314.00,49.927
1315.00,49.924
1316.00,49.923
1317.00,49.957
1318.00,49.948
1319.00,49.957
1320.00,49.968
1321.00,50.140
1322.00,50.122
1323.00,50.112
1324.00,50.114
1325.00,50.102
1326.00,50.114
1327.00,50.076
1328.00,50.106
1329.00,50.094
1330.00,50.108
1331.00,50.097
1332.00,50.124
1333.00,50.138
1334.00,50.149
1335.00,50.183
1336.00,50.202
1337.00,50.260
1338.00,50.299
1339.00,50.350
1340.00,50.402
1341.00,50.447
1342.00,50.513
1343.00,50.562
1344.00,50.617
1345.00,50.687
1346.00,50.712
1347.00,50.737
1348.00,50.765
1349.00,50.779
1350.00,50.799
1351.00,50.818
1352.00,50.842
1353.00,50.827
1354.00,50.843
1355.00,50.804
1356.00,50.846
1357.00,50.841
1358.00,50.885
1359.00,50.874
1360.00,50.857
1361.00,50.991
1362.00,50.935
1363.00,50.886
1364.00,50.920
1365.00,50.891
1366.00,50.884
1367.00,50.879
1368.00,50.904
1369.00,50.939
1370.00,50.896
1371.00,50.860
1372.00,50.881
1373.00,50.897
1374.00,50.903
1375.00,50.869
1376.00,50.866
1377.00,50.895
1378.00,51.174
1379.00,50.872
1380.00,50.915
1381.00,50.925
1382.00,50.913
1383.00,50.921
1384.00,50.830
1385.00,50.890
1386.00,50.897
1387.00,50.815
1388.00,50.919
1389.00,51.159
1390.00,50.898
1391.00,50.862
1392.00,50.899
1393.00,51.038
1394.00,50.878
1395.00,50.931
1396.00,50.827
1397.00,51.021
1398.00,50.858
1399.00,50.823
1400.00,51.058
1401.00,50.895
1402.00,51.098
1403.00,50.827
1404.00,50.911
1405.00,50.949
1406.00,50.982
1407.00,50.962
1408.00,50.904
1409.00,50.918
1410.00,50.984
1411.00,51.059
1412.00,51.089
1413.00,50.846
1414.00,50.930
1415.00,51.036
1416.00,51.038
1417.00,51.071
1418.00,50.999
1419.00,50.995
1420.00,51.083
1421.00,51.150
1422.00,51.103
1423.00,51.107
1424.00,51.130
1425.00,51.149
1426.00,51.174
1427.00,51.187
1428.00,51.190
1429.00,51.222
1430.00,51.219
1431.00,51.232
1432.00,51.261
1433.00,51.274
1434.00,51.264
1435.00,51.329
1436.00,51.325
1437.00,51.312
1438.00,51.346
1439.00,51.384
1440.00,51.380
1441.00,51.382
1442.00,51.392
1443.00,51.472
1444.00,51.533
1445.00,51.454
1446.00,51.478
1447.00,51.510
1448.00,51.573
1449.00,51.557
1450.00,51.548
1451.00,51.569
1452.00,51.602
1453.00,51.620
1454.00,51.642
1455.00,51.665
1456.00,51.679
1457.00,51.701
1458.00,51.724
1459.00,51.733
1460.00,51.766
1461.00,51.755
1462.00,51.787
1463.00,51.779
1464.00,51.804
1465.00,51.819
1466.00,51.802
1467.00,51.842
1468.00,51.918
1469.00,51.865
1470.00,51.902
1471.00,51.926
1472.00,51.920
1473.00,51.920
1474.00,51.947
1475.00,51.980
1476.00,52.029
1477.00,52.001
1478.00,52.026
1479.00,52.038
1480.00,52.038
1481.00,52.052
1482.00,52.098
1483.00,52.092
1484.00,52.100
1485.00,52.114
1486.00,52.144
1487.00,52.162
1488.00,52.170
1489.00,52.198
1490.00,52.222
1491.00,52.218
1492.00,52.258
1493.00,52.218
1494.00,52.247
1495.00,52.240
1496.00,52.268
1497.00,52.263
1498.00,52.289
1499.00,52.292
1500.00,52.325
1501.00, 
1502.00, 
1503.00, 
1504.00, 
1505.00, 
1506.00, 
1507.00, 
1508.00, 
1509.00, 
1510.00, 
1511.00, 
1512.00, 
1513.00, 
1514.00, 
1515.00, 
1516.00, 
1517.00, 
1518.00, 
1519.00, 
1520.00, 
1521.00, 
1522.00, 
1523.00, 
1524.00, 
1525.00, 
1526.00, 
1527.00, 
1528.00, 
1529.00, 
1530.00, 
1531.00, 
1532.00, 
1533.00, 
1534.00, 
1535.00, 
1536.00, 
1537.00, 
1538.00, 
1539.00, 
1540.00, 
1541.00, 
1542.00, 
1543.00, 
1544.00, 
1545.00, 
1546.00, 
1547.00, 
1548.00, 
1549.00, 
1550.00, 
1551.00, 
1552.00, 
1553.00, 
1554.00, 
1555.00, 
1556.00, 
1557.00, 
1558.00, 
1559.00, 
1560.00, 
1561.00, 
1562.00, 
1563.00, 
1564.00, 
1565.00, 
1566.00, 
1567.00, 
1568.00, 
1569.00, 
1570.00, 
1571.00, 
1572.00, 
1573.00, 
1574.00, 
1575.00, 
1576.00, 
1577.00, 
1578.00, 
1579.00, 
1580.00, 
1581.00, 
1582.00, 
1583.00, 
1584.00, 
1585.00, 
1586.00, 
1587.00, 
1588.00, 
1589.00, 
1590.00, 
1591.00, 
1592.00, 
1593.00, 
1594.00, 
1595.00, 
1596.00, 
1597.00, 
1598.00, 
1599.00, 
1600.00, 
1601.00, 
1602.00, 
1603.00, 
1604.00, 
1605.00, 
1606.00, 
1607.00, 
1608.00, 
1609.00, 
1610.00, 
1611.00, 
1612.00, 
1613.00, 
1614.00, 
1615.00, 
1616.00, 
1617.00, 
1618.00, 
1619.00, 
1620.00, 
1621.00, 
1622.00, 
1623.00, 
1624.00, 
1625.00, 
1626.00, 
1627.00, 
1628.00, 
1629.00, 
1630.00, 
1631.00, 
1632.00, 
1633.00, 
1634.00, 
1635.00, 
1636.00, 
1637.00, 
1638.00, 
1639.00, 
1640.00, 
1641.00, 
1642.00, 
1643.00, 
1644.00, 
1645.00, 
1646.00, 
1647.00, 
1648.00, 
1649.00, 
1650.00, 
1651.00, 
1652.00, 
1653.00, 
1654.00, 
1655.00, 
1656.00, 
1657.00, 
1658.00, 
1659.00, 
1660.00, 
1661.00, 
1662.00, 
1663.00, 
1664.00, 
1665.00, 
1666.00, 
1667.00, 
1668.00, 
1669.00, 
1670.00, 
1671.00, 
1672.00, 
1673.00, 
1674.00, 
1675.00, 
1676.00, 
1677.00, 
1678.00, 
1679.00, 
1680.00, 
1681.00, 
1682.00, 
1683.00, 
1684.00, 
1685.00, 
1686.00, 
1687.00, 
1688.00, 
1689.00, 
1690.00, 
1691.00, 
1692.00, 
1693.00, 
1694.00, 
1695.00, 
1696.00, 
1697.00, 
1698.00, 
1699.00, 
1700.00, 
1701.00, 
1702.00, 
1703.00, 
1704.00, 
1705.00, 
1706.00, 
1707.00, 
1708.00, 
1709.00, 
1710.00, 
1711.00, 
1712.00, 
1713.00, 
1714.00, 
1715.00, 
1716.00, 
1717.00, 
1718.00, 
1719.00, 
1720.00, 
1721.00, 
1722.00, 
1723.00, 
1724.00, 
1725.00, 
1726.00, 
1727.00, 
1728.00, 
1729.00, 
1730.00, 
1731.00, 
1732.00, 
1733.00, 
1734.00, 
1735.00, 
1736.00, 
1737.00, 
1738.00, 
1739.00, 
1740.00, 
1741.00, 
1742.00, 
1743.00, 
1744.00, 
1745.00, 
1746.00, 
1747.00, 
1748.00, 
1749.00, 
1750.00, 
1751.00, 
1752.00, 
1753.00, 
1754.00, 
1755.00, 
1756.00, 
1757.00, 
1758.00, 
1759.00, 
1760.00, 
1761.00, 
1762.00, 
1763.00, 
1764.00, 
1765.00, 
1766.00, 
1767.00, 
1768.00, 
1769.00, 
1770.00, 
1771.00, 
1772.00, 
1773.00, 
1774.00, 
1775.00, 
1776.00, 
1777.00, 
1778.00, 
1779.00, 
1780.00, 
1781.00, 
1782.00, 
1783.00, 
1784.00, 
1785.00, 
1786.00, 
1787.00, 
1788.00, 
1789.00, 
1790.00, 
1791.00, 
1792.00, 
1793.00, 
1794.00, 
1795.00, 
1796.00, 
1797.00, 
1798.00, 
1799.00, 
1800.00, 
1801.00, 
1802.00, 
1803.00, 
1804.00, 
1805.00, 
1806.00, 
1807.00, 
1808.00, 
1809.00, 
1810.00, 
1811.00, 
1812.00, 
1813.00, 
1814.00, 
1815.00, 
1816.00, 
1817.00, 
1818.00, 
1819.00, 
1820.00, 
1821.00, 
1822.00, 
1823.00, 
1824.00, 
1825.00, 
1826.00, 
1827.00, 
1828.00, 
1829.00, 
1830.00, 
1831.00, 
1832.00, 
1833.00, 
1834.00, 
1835.00, 
1836.00, 
1837.00, 
1838.00, 
1839.00, 
1840.00, 
1841.00, 
1842.00, 
1843.00, 
1844.00, 
1845.00, 
1846.00, 
1847.00, 
1848.00, 
1849.00, 
1850.00, 
1851.00, 
1852.00, 
1853.00, 
1854.00, 
1855.00, 
1856.00, 
1857.00, 
1858.00, 
1859.00, 
1860.00, 
1861.00, 
1862.00, 
1863.00, 
1864.00, 
1865.00, 
1866.00, 
1867.00, 
1868.00, 
1869.00, 
1870.00, 
1871.00, 
1872.00, 
1873.00, 
1874.00, 
1875.00, 
1876.00, 
1877.00, 
1878.00, 
1879.00, 
1880.00, 
1881.00, 
1882.00, 
1883.00, 
1884.00, 
1885.00, 
1886.00, 
1887.00, 
1888.00, 
1889.00, 
1890.00, 
1891.00, 
1892.00, 
1893.00, 
1894.00, 
1895.00, 
1896.00, 
1897.00, 
1898.00, 
1899.00, 
1900.00, 
1901.00, 
1902.00, 
1903.00, 
1904.00, 
1905.00, 
1906.00, 
1907.00, 
1908.00, 
1909.00, 
1910.00, 
1911.00, 
1912.00, 
1913.00, 
1914.00, 
1915.00, 
1916.00, 
1917.00, 
1918.00, 
1919.00, 
1920.00, 
1921.00, 
1922.00, 
1923.00, 
1924.00, 
1925.00, 
1926.00, 
1927.00, 
1928.00, 
1929.00, 
1930.00, 
1931.00, 
1932.00, 
1933.00, 
1934.00, 
1935.00, 
1936.00, 
1937.00, 
1938.00, 
1939.00, 
1940.00, 
1941.00, 
1942.00, 
1943.00, 
1944.00, 
1945.00, 
1946.00, 
1947.00, 
1948.00, 
1949.00, 
1950.00, 
1951.00, 
1952.00, 
1953.00, 
1954.00, 
1955.00, 
1956.00, 
1957.00, 
1958.00, 
1959.00, 
1960.00, 
1961.00, 
1962.00, 
1963.00, 
1964.00, 
1965.00, 
1966.00, 
1967.00, 
1968.00, 
1969.00, 
1970.00, 
1971.00, 
1972.00, 
1973.00, 
1974.00, 
1975.00, 
1976.00, 
1977.00, 
1978.00, 
1979.00, 
1980.00, 
1981.00, 
1982.00, 
1983.00, 
1984.00, 
1985.00, 
1986.00, 
1987.00, 
1988.00, 
1989.00, 
1990.00, 
1991.00, 
1992.00, 
1993.00, 
1994.00, 
1995.00, 
1996.00, 
1997.00, 
1998.00, 
1999.00, 
2000.00, 
2001.00, 
2002.00, 
2003.00, 
2004.00, 
2005.00, 
2006.00, 
2007.00, 
2008.00, 
2009.00, 
2010.00, 
2011.00, 
2012.00, 
2013.00, 
2014.00, 
2015.00, 
2016.00, 
2017.00, 
2018.00, 
2019.00, 
2020.00, 
2021.00, 
2022.00, 
2023.00, 
2024.00, 
2025.00, 
2026.00, 
2027.00, 
2028.00, 
2029.00, 
2030.00, 
2031.00, 
2032.00, 
2033.00, 
2034.00, 
2035.00, 
2036.00, 
2037.00, 
2038.00, 
2039.00, 
2040.00, 
2041.00, 
2042.00, 
2043.00, 
2044.00, 
2045.00, 
2046.00, 
2047.00, 
2048.00, 
2049.00, 
2050.00, 
2051.00, 
2052.00, 
2053.00, 
2054.00, 
2055.00, 
2056.00, 
2057.00, 
2058.00, 
2059.00, 
2060.00, 
2061.00, 
2062.00, 
2063.00, 
2064.00, 
2065.00, 
2066.00, 
2067.00, 
2068.00, 
2069.00, 
2070.00, 
2071.00, 
2072.00, 
2073.00, 
2074.00, 
2075.00, 
2076.00, 
2077.00, 
2078.00, 
2079.00, 
2080.00, 
2081.00, 
2082.00, 
2083.00, 
2084.00, 
2085.00, 
2086.00, 
2087.00, 
2088.00, 
2089.00, 
2090.00, 
2091.00, 
2092.00, 
2093.00, 
2094.00, 
2095.00, 
2096.00, 
2097.00, 
2098.00, 
2099.00, 
2100.00, 
2101.00, 
2102.00, 
2103.00, 
2104.00, 
2105.00, 
2106.00, 
2107.00, 
2108.00, 
2109.00, 
2110.00, 
2111.00, 
2112.00, 
2113.00, 
2114.00, 
2115.00, 
2116.00, 
2117.00, 
2118.00, 
2119.00, 
2120.00, 
2121.00, 
2122.00, 
2123.00, 
2124.00, 
2125.00, 
2126.00, 
2127.00, 
2128.00, 
2129.00, 
2130.00, 
2131.00, 
2132.00, 
2133.00, 
2134.00, 
2135.00, 
2136.00, 
2137.00, 
2138.00, 
2139.00, 
2140.00, 
2141.00, 
2142.00, 
2143.00, 
2144.00, 
2145.00, 
2146.00, 
2147.00, 
2148.00, 
2149.00, 
2150.00, 
2151.00, 
2152.00, 
2153.00, 
2154.00, 
2155.00, 
2156.00, 
2157.00, 
2158.00, 
2159.00, 
2160.00, 
2161.00, 
2162.00, 
2163.00, 
2164.00, 
2165.00, 
2166.00, 
2167.00, 
2168.00, 
2169.00, 
2170.00, 
2171.00, 
2172.00, 
2173.00, 
2174.00, 
2175.00, 
2176.00, 
2177.00, 
2178.00, 
2179.00, 
2180.00, 
2181.00, 
2182.00, 
2183.00, 
2184.00, 
2185.00, 
2186.00, 
2187.00, 
2188.00, 
2189.00, 
2190.00, 
2191.00, 
2192.00, 
2193.00, 
2194.00, 
2195.00, 
2196.00, 
2197.00, 
2198.00, 
2199.00, 
2200.00, 
2201.00, 
2202.00, 
2203.00, 
2204.00, 
2205.00, 
2206.00, 
2207.00, 
2208.00, 
2209.00, 
2210.00, 
2211.00, 
2212.00, 
2213.00, 
2214.00, 
2215.00, 
2216.00, 
2217.00, 
2218.00, 
2219.00, 
2220.00, 
2221.00, 
2222.00, 
2223.00, 
2224.00, 
2225.00, 
2226.00, 
2227.00, 
2228.00, 
2229.00, 
2230.00, 
2231.00, 
2232.00, 
2233.00, 
2234.00, 
2235.00, 
2236.00, 
2237.00, 
2238.00, 
2239.00, 
2240.00, 
2241.00, 
2242.00, 
2243.00, 
2244.00, 
2245.00, 
2246.00, 
2247.00, 
2248.00, 
2249.00, 
2250.00, 
2251.00, 
2252.00, 
2253.00, 
2254.00, 
2255.00, 
2256.00, 
2257.00, 
2258.00, 
2259.00, 
2260.00, 
2261.00, 
2262.00, 
2263.00, 
2264.00, 
2265.00, 
2266.00, 
2267.00, 
2268.00, 
2269.00, 
2270.00, 
2271.00, 
2272.00, 
2273.00, 
2274.00, 
2275.00, 
2276.00, 
2277.00, 
2278.00, 
2279.00, 
2280.00, 
2281.00, 
2282.00, 
2283.00, 
2284.00, 
2285.00, 
2286.00, 
2287.00, 
2288.00, 
2289.00, 
2290.00, 
2291.00, 
2292.00, 
2293.00, 
2294.00, 
2295.00, 
2296.00, 
2297.00, 
2298.00, 
2299.00, 
2300.00, 
2301.00, 
2302.00, 
2303.00, 
2304.00, 
2305.00, 
2306.00, 
2307.00, 
2308.00, 
2309.00, 
2310.00, 
2311.00, 
2312.00, 
2313.00, 
2314.00, 
2315.00, 
2316.00, 
2317.00, 
2318.00, 
2319.00, 
2320.00, 
2321.00, 
2322.00, 
2323.00, 
2324.00, 
2325.00, 
2326.00, 
2327.00, 
2328.00, 
2329.00, 
2330.00, 
2331.00, 
2332.00, 
2333.00, 
2334.00, 
2335.00, 
2336.00, 
2337.00, 
2338.00, 
2339.00, 
2340.00, 
2341.00, 
2342.00, 
2343.00, 
2344.00, 
2345.00, 
2346.00, 
2347.00, 
2348.00, 
2349.00, 
2350.00, 
2351.00, 
2352.00, 
2353.00, 
2354.00, 
2355.00, 
2356.00, 
2357.00, 
2358.00, 
2359.00, 
2360.00, 
2361.00, 
2362.00, 
2363.00, 
2364.00, 
2365.00, 
2366.00, 
2367.00, 
2368.00, 
2369.00, 
2370.00, 
2371.00, 
2372.00, 
2373.00, 
2374.00, 
2375.00, 
2376.00, 
2377.00, 
2378.00, 
2379.00, 
2380.00, 
2381.00, 
2382.00, 
2383.00, 
2384.00, 
2385.00, 
2386.00, 
2387.00, 
2388.00, 
2389.00, 
2390.00, 
2391.00, 
2392.00, 
2393.00, 
2394.00, 
2395.00, 
2396.00, 
2397.00, 
2398.00, 
2399.00, 
2400.00, 
2401.00, 
2402.00, 
2403.00, 
2404.00, 
2405.00, 
2406.00, 
2407.00, 
2408.00, 
2409.00, 
2410.00, 
2411.00, 
2412.00, 
2413.00, 
2414.00, 
2415.00, 
2416.00, 
2417.00, 
2418.00, 
2419.00, 
2420.00, 
2421.00, 
2422.00, 
2423.00, 
2424.00, 
2425.00, 
2426.00, 
2427.00, 
2428.00, 
2429.00, 
2430.00, 
2431.00, 
2432.00, 
2433.00, 
2434.00, 
2435.00, 
2436.00, 
2437.00, 
2438.00, 
2439.00, 
2440.00, 
2441.00, 
2442.00, 
2443.00, 
2444.00, 
2445.00, 
2446.00, 
2447.00, 
2448.00, 
2449.00, 
2450.00, 
2451.00, 
2452.00, 
2453.00, 
2454.00, 
2455.00, 
2456.00, 
2457.00, 
2458.00, 
2459.00, 
2460.00, 
2461.00, 
2462.00, 
2463.00, 
2464.00, 
2465.00, 
2466.00, 
2467.00, 
2468.00, 
2469.00, 
2470.00, 
2471.00, 
2472.00, 
2473.00, 
2474.00, 
2475.00, 
2476.00, 
2477.00, 
2478.00, 
2479.00, 
2480.00, 
2481.00, 
2482.00, 
2483.00, 
2484.00, 
2485.00, 
2486.00, 
2487.00, 
2488.00, 
2489.00, 
2490.00, 
2491.00, 
2492.00, 
2493.00, 
2494.00, 
2495.00, 
2496.00, 
2497.00, 
2498.00, 
2499.00, 
2500.00, 
2501.00, 
2502.00, 
2503.00, 
2504.00, 
2505.00, 
2506.00, 
2507.00, 
2508.00, 
2509.00, 
2510.00, 
2511.00, 
2512.00, 
2513.00, 
2514.00, 
2515.00, 
2516.00, 
2517.00, 
2518.00, 
2519.00, 
2520.00, 
2521.00, 
2522.00, 
2523.00, 
2524.00, 
2525.00, 
2526.00, 
2527.00, 
2528.00, 
2529.00, 
2530.00, 
2531.00, 
2532.00, 
2533.00, 
2534.00, 
2535.00, 
2536.00, 
2537.00, 
2538.00, 
2539.00, 
2540.00, 
2541.00, 
2542.00, 
2543.00, 
2544.00, 
2545.00, 
2546.00, 
2547.00, 
2548.00, 
2549.00, 
2550.00, 
2551.00, 
2552.00, 
2553.00, 
2554.00, 
2555.00, 
2556.00, 
2557.00, 
2558.00, 
2559.00, 
2560.00, 
2561.00, 
2562.00, 
2563.00, 
2564.00, 
2565.00, 
2566.00, 
2567.00, 
2568.00, 
2569.00, 
2570.00, 
2571.00, 
2572.00, 
2573.00, 
2574.00, 
2575.00, 
2576.00, 
2577.00, 
2578.00, 
2579.00, 
2580.00, 
2581.00, 
2582.00, 
2583.00, 
2584.00, 
2585.00, 
2586.00, 
2587.00, 
2588.00, 
2589.00, 
2590.00, 
2591.00, 
2592.00, 
2593.00, 
2594.00, 
2595.00, 
2596.00, 
2597.00, 
2598.00, 
2599.00, 
2600.00, 
