"2cP1 - RawData"
"Wavelength nm.","T%"
200.00,0.001
201.00,0.005
202.00,-0.002
203.00,0.002
204.00,0.001
205.00,0.002
206.00,0.002
207.00,-0.001
208.00,0.001
209.00,0.001
210.00,0.002
211.00,0.001
212.00,0.003
213.00,-0.001
214.00,0.001
215.00,0.002
216.00,0.004
217.00,0.003
218.00,0.004
219.00,0.000
220.00,-0.000
221.00,0.001
222.00,0.001
223.00,-0.001
224.00,-0.001
225.00,-0.000
226.00,0.000
227.00,0.005
228.00,0.001
229.00,0.003
230.00,0.000
231.00,0.001
232.00,0.001
233.00,0.001
234.00,0.004
235.00,0.000
236.00,0.001
237.00,-0.000
238.00,-0.001
239.00,0.001
240.00,0.001
241.00,0.001
242.00,-0.002
243.00,0.001
244.00,-0.001
245.00,-0.002
246.00,0.001
247.00,0.000
248.00,0.001
249.00,-0.000
250.00,0.001
251.00,0.000
252.00,0.002
253.00,0.000
254.00,0.000
255.00,0.000
256.00,-0.001
257.00,0.001
258.00,0.001
259.00,0.000
260.00,-0.000
261.00,-0.001
262.00,0.001
263.00,0.000
264.00,-0.001
265.00,0.000
266.00,-0.001
267.00,0.001
268.00,0.002
269.00,0.001
270.00,0.003
271.00,0.000
272.00,0.001
273.00,0.001
274.00,-0.001
275.00,0.001
276.00,-0.000
277.00,0.001
278.00,0.000
279.00,0.001
280.00,0.001
281.00,-0.000
282.00,0.003
283.00,0.002
284.00,-0.001
285.00,0.001
286.00,0.002
287.00,-0.002
288.00,0.000
289.00,0.001
290.00,-0.001
291.00,0.000
292.00,0.000
293.00,-0.001
294.00,0.002
295.00,0.001
296.00,0.001
297.00,0.000
298.00,-0.000
299.00,0.001
300.00,0.001
301.00,0.003
302.00,0.003
303.00,0.005
304.00,0.011
305.00,0.016
306.00,0.026
307.00,0.037
308.00,0.061
309.00,0.089
310.00,0.125
311.00,0.177
312.00,0.235
313.00,0.326
314.00,0.428
315.00,0.561
316.00,0.714
317.00,0.893
318.00,1.097
319.00,1.367
320.00,1.638
321.00,2.006
322.00,2.375
323.00,2.784
324.00,3.220
325.00,3.678
326.00,4.148
327.00,4.686
328.00,5.233
329.00,5.766
330.00,6.405
331.00,6.971
332.00,7.592
333.00,8.214
334.00,8.733
335.00,9.437
336.00,10.050
337.00,10.654
338.00,11.278
339.00,11.831
340.00,12.430
341.00,12.987
342.00,13.507
343.00,14.029
344.00,14.516
345.00,15.011
346.00,15.395
347.00,15.825
348.00,16.209
349.00,16.596
350.00,16.962
351.00,17.274
352.00,17.589
353.00,17.852
354.00,18.138
355.00,18.401
356.00,18.617
357.00,18.857
358.00,19.042
359.00,19.261
360.00,19.424
361.00,19.556
362.00,19.743
363.00,19.866
364.00,19.987
365.00,20.123
366.00,20.194
367.00,20.248
368.00,20.297
369.00,20.368
370.00,20.338
371.00,20.457
372.00,20.457
373.00,20.473
374.00,20.445
375.00,20.402
376.00,20.416
377.00,20.385
378.00,20.297
379.00,20.274
380.00,20.235
381.00,20.240
382.00,20.212
383.00,20.234
384.00,20.225
385.00,20.263
386.00,20.316
387.00,20.319
388.00,20.340
389.00,20.369
390.00,20.412
391.00,20.428
392.00,20.433
393.00,20.427
394.00,20.481
395.00,20.457
396.00,20.447
397.00,20.462
398.00,20.457
399.00,20.469
400.00,20.456
401.00,20.467
402.00,20.444
403.00,20.447
404.00,20.457
405.00,20.437
406.00,20.405
407.00,20.396
408.00,20.391
409.00,20.346
410.00,20.292
411.00,20.328
412.00,20.315
413.00,20.277
414.00,20.289
415.00,20.295
416.00,20.316
417.00,20.302
418.00,20.344
419.00,20.352
420.00,20.368
421.00,20.456
422.00,20.459
423.00,20.483
424.00,20.539
425.00,20.501
426.00,20.542
427.00,20.599
428.00,20.563
429.00,20.649
430.00,20.736
431.00,20.751
432.00,20.827
433.00,20.874
434.00,20.941
435.00,20.999
436.00,21.039
437.00,21.091
438.00,21.178
439.00,21.228
440.00,21.311
441.00,21.389
442.00,21.449
443.00,21.544
444.00,21.620
445.00,21.695
446.00,21.788
447.00,21.880
448.00,21.988
449.00,22.057
450.00,22.161
451.00,22.267
452.00,22.362
453.00,22.482
454.00,22.588
455.00,22.688
456.00,22.770
457.00,22.939
458.00,22.991
459.00,23.108
460.00,23.227
461.00,23.295
462.00,23.506
463.00,23.606
464.00,23.737
465.00,23.848
466.00,23.948
467.00,24.078
468.00,24.199
469.00,24.313
470.00,24.382
471.00,24.526
472.00,24.628
473.00,24.710
474.00,24.848
475.00,24.934
476.00,25.026
477.00,25.209
478.00,25.318
479.00,25.479
480.00,25.620
481.00,25.749
482.00,25.904
483.00,26.057
484.00,26.169
485.00,26.351
486.00,26.485
487.00,26.627
488.00,26.781
489.00,26.933
490.00,27.062
491.00,27.183
492.00,27.345
493.00,27.528
494.00,27.591
495.00,27.663
496.00,27.778
497.00,27.765
498.00,28.084
499.00,28.216
500.00,28.324
501.00,28.472
502.00,28.610
503.00,28.611
504.00,28.892
505.00,29.050
506.00,29.144
507.00,29.257
508.00,29.392
509.00,29.567
510.00,29.681
511.00,29.753
512.00,29.893
513.00,29.980
514.00,30.117
515.00,30.269
516.00,30.366
517.00,30.440
518.00,30.659
519.00,30.720
520.00,30.777
521.00,30.846
522.00,30.968
523.00,31.077
524.00,31.131
525.00,31.233
526.00,31.358
527.00,31.422
528.00,31.483
529.00,31.620
530.00,31.723
531.00,31.869
532.00,31.962
533.00,32.082
534.00,32.173
535.00,32.236
536.00,32.354
537.00,32.433
538.00,32.543
539.00,32.623
540.00,32.712
541.00,32.794
542.00,32.800
543.00,32.921
544.00,33.011
545.00,33.057
546.00,33.117
547.00,33.240
548.00,33.309
549.00,33.396
550.00,33.477
551.00,33.562
552.00,33.664
553.00,33.710
554.00,33.803
555.00,33.878
556.00,33.904
557.00,33.997
558.00,34.040
559.00,34.099
560.00,34.172
561.00,34.230
562.00,34.283
563.00,34.372
564.00,34.411
565.00,34.433
566.00,34.498
567.00,34.498
568.00,34.594
569.00,34.735
570.00,34.674
571.00,34.713
572.00,34.778
573.00,34.805
574.00,34.848
575.00,34.907
576.00,34.928
577.00,35.032
578.00,35.079
579.00,35.105
580.00,35.190
581.00,35.281
582.00,35.377
583.00,35.429
584.00,35.560
585.00,35.617
586.00,35.548
587.00,35.704
588.00,35.761
589.00,35.768
590.00,35.799
591.00,35.820
592.00,35.802
593.00,35.959
594.00,36.046
595.00,36.029
596.00,36.177
597.00,36.164
598.00,36.333
599.00,36.321
600.00,36.357
601.00,36.469
602.00,36.468
603.00,36.495
604.00,36.539
605.00,36.611
606.00,36.638
607.00,36.661
608.00,36.859
609.00,36.775
610.00,36.824
611.00,36.890
612.00,37.020
613.00,36.916
614.00,37.029
615.00,37.101
616.00,37.089
617.00,37.168
618.00,37.160
619.00,37.312
620.00,37.399
621.00,37.490
622.00,37.533
623.00,37.623
624.00,37.670
625.00,37.708
626.00,37.736
627.00,37.843
628.00,37.862
629.00,37.928
630.00,38.028
631.00,38.080
632.00,38.112
633.00,38.198
634.00,38.187
635.00,38.388
636.00,38.499
637.00,38.573
638.00,38.663
639.00,38.765
640.00,38.780
641.00,38.867
642.00,38.936
643.00,38.995
644.00,39.108
645.00,39.143
646.00,39.225
647.00,39.320
648.00,39.424
649.00,39.499
650.00,39.505
651.00,39.659
652.00,39.755
653.00,39.785
654.00,39.943
655.00,39.914
656.00,40.141
657.00,40.173
658.00,40.220
659.00,40.295
660.00,40.475
661.00,40.551
662.00,40.647
663.00,40.725
664.00,40.866
665.00,40.907
666.00,41.105
667.00,41.150
668.00,41.182
669.00,41.319
670.00,41.425
671.00,41.529
672.00,41.638
673.00,41.738
674.00,41.818
675.00,41.844
676.00,42.006
677.00,42.100
678.00,42.202
679.00,42.246
680.00,42.388
681.00,42.429
682.00,42.529
683.00,42.629
684.00,42.844
685.00,42.883
686.00,42.844
687.00,43.055
688.00,43.090
689.00,43.153
690.00,43.243
691.00,43.341
692.00,43.450
693.00,43.614
694.00,43.588
695.00,43.722
696.00,43.760
697.00,43.868
698.00,44.017
699.00,44.205
700.00,44.397
701.00,44.300
702.00,44.411
703.00,44.626
704.00,44.605
705.00,44.679
706.00,44.814
707.00,44.834
708.00,44.776
709.00,44.948
710.00,45.245
711.00,45.249
712.00,45.113
713.00,45.325
714.00,45.321
715.00,45.476
716.00,45.592
717.00,45.505
718.00,45.638
719.00,45.698
720.00,45.788
721.00,49.760
722.00,49.735
723.00,49.783
724.00,49.829
725.00,49.769
726.00,49.818
727.00,49.853
728.00,49.883
729.00,49.963
730.00,50.014
731.00,50.018
732.00,50.091
733.00,50.107
734.00,50.111
735.00,50.202
736.00,50.249
737.00,50.263
738.00,50.347
739.00,50.356
740.00,50.327
741.00,50.426
742.00,50.443
743.00,50.459
744.00,50.491
745.00,50.485
746.00,50.496
747.00,50.503
748.00,50.473
749.00,50.446
750.00,50.516
751.00,50.546
752.00,50.583
753.00,50.556
754.00,50.548
755.00,50.578
756.00,50.588
757.00,50.643
758.00,50.666
759.00,50.702
760.00,50.679
761.00,50.712
762.00,50.771
763.00,50.743
764.00,50.780
765.00,50.754
766.00,50.796
767.00,50.743
768.00,50.819
769.00,50.819
770.00,50.851
771.00,50.871
772.00,50.963
773.00,50.915
774.00,50.918
775.00,50.986
776.00,50.947
777.00,51.012
778.00,50.949
779.00,50.867
780.00,50.924
781.00,50.986
782.00,50.993
783.00,50.997
784.00,51.016
785.00,50.921
786.00,50.957
787.00,51.021
788.00,50.977
789.00,50.942
790.00,50.918
791.00,50.968
792.00,50.909
793.00,50.899
794.00,50.976
795.00,50.916
796.00,50.926
797.00,50.882
798.00,50.918
799.00,50.928
800.00,50.876
801.00,50.827
802.00,50.934
803.00,50.818
804.00,50.849
805.00,50.810
806.00,50.815
807.00,50.885
808.00,50.781
809.00,50.801
810.00,50.771
811.00,50.783
812.00,50.798
813.00,50.765
814.00,50.768
815.00,50.724
816.00,50.827
817.00,50.647
818.00,50.696
819.00,50.665
820.00,50.667
821.00,50.621
822.00,50.659
823.00,50.601
824.00,50.688
825.00,50.613
826.00,50.654
827.00,50.713
828.00,50.612
829.00,50.586
830.00,50.589
831.00,53.102
832.00,53.094
833.00,53.070
834.00,53.060
835.00,53.043
836.00,53.035
837.00,52.929
838.00,52.992
839.00,53.000
840.00,52.937
841.00,52.963
842.00,52.941
843.00,52.890
844.00,52.926
845.00,52.845
846.00,52.856
847.00,52.873
848.00,52.839
849.00,52.772
850.00,52.768
851.00,52.717
852.00,52.703
853.00,52.650
854.00,52.631
855.00,52.571
856.00,52.609
857.00,52.574
858.00,52.527
859.00,52.530
860.00,52.516
861.00,52.510
862.00,52.451
863.00,52.502
864.00,52.439
865.00,52.473
866.00,52.414
867.00,52.412
868.00,52.384
869.00,52.379
870.00,52.409
871.00,52.375
872.00,52.378
873.00,52.326
874.00,52.353
875.00,52.340
876.00,52.344
877.00,52.297
878.00,52.295
879.00,52.271
880.00,52.271
881.00,52.266
882.00,52.266
883.00,52.221
884.00,52.190
885.00,52.155
886.00,52.166
887.00,52.162
888.00,52.120
889.00,52.174
890.00,52.110
891.00,52.073
892.00,52.070
893.00,52.056
894.00,51.999
895.00,52.119
896.00,51.989
897.00,51.965
898.00,51.924
899.00,51.946
900.00,51.928
901.00,51.912
902.00,51.926
903.00,51.832
904.00,51.875
905.00,51.882
906.00,51.830
907.00,51.842
908.00,51.748
909.00,51.791
910.00,51.744
911.00,51.745
912.00,51.757
913.00,51.685
914.00,51.685
915.00,51.679
916.00,51.650
917.00,51.603
918.00,51.603
919.00,51.593
920.00,51.558
921.00,51.565
922.00,51.546
923.00,51.536
924.00,51.513
925.00,51.512
926.00,51.476
927.00,51.464
928.00,51.412
929.00,51.417
930.00,51.393
931.00,51.401
932.00,51.328
933.00,51.348
934.00,51.315
935.00,51.290
936.00,51.293
937.00,51.270
938.00,51.253
939.00,51.248
940.00,51.202
941.00,51.201
942.00,51.163
943.00,51.149
944.00,51.133
945.00,51.123
946.00,51.104
947.00,51.088
948.00,51.061
949.00,51.005
950.00,51.084
951.00,51.000
952.00,50.966
953.00,50.961
954.00,50.931
955.00,50.893
956.00,50.892
957.00,50.840
958.00,50.876
959.00,50.801
960.00,50.801
961.00,50.788
962.00,50.770
963.00,50.783
964.00,50.743
965.00,50.735
966.00,50.733
967.00,50.720
968.00,50.698
969.00,50.723
970.00,50.685
971.00,50.700
972.00,50.672
973.00,50.685
974.00,50.720
975.00,50.665
976.00,50.699
977.00,50.678
978.00,50.716
979.00,50.676
980.00,50.708
981.00,50.709
982.00,50.678
983.00,50.716
984.00,50.668
985.00,50.687
986.00,50.641
987.00,50.650
988.00,50.640
989.00,50.614
990.00,50.609
991.00,50.596
992.00,50.609
993.00,50.580
994.00,50.564
995.00,50.565
996.00,50.555
997.00,50.555
998.00,50.496
999.00,50.529
1000.00,50.485
1001.00,50.492
1002.00,50.473
1003.00,50.474
1004.00,50.460
1005.00,50.443
1006.00,50.448
1007.00,50.436
1008.00,50.406
1009.00,50.391
1010.00,50.389
1011.00,50.382
1012.00,50.344
1013.00,50.355
1014.00,50.299
1015.00,50.321
1016.00,50.287
1017.00,50.270
1018.00,50.262
1019.00,50.216
1020.00,50.209
1021.00,50.200
1022.00,50.188
1023.00,50.133
1024.00,50.164
1025.00,50.140
1026.00,50.127
1027.00,50.114
1028.00,50.086
1029.00,50.092
1030.00,50.061
1031.00,50.058
1032.00,50.029
1033.00,50.019
1034.00,49.988
1035.00,49.975
1036.00,49.951
1037.00,49.911
1038.00,49.913
1039.00,49.875
1040.00,49.896
1041.00,49.854
1042.00,49.848
1043.00,49.827
1044.00,49.842
1045.00,49.816
1046.00,49.842
1047.00,49.827
1048.00,49.835
1049.00,49.854
1050.00,49.846
1051.00,49.878
1052.00,49.889
1053.00,49.887
1054.00,49.896
1055.00,49.895
1056.00,49.916
1057.00,49.926
1058.00,49.902
1059.00,49.909
1060.00,49.911
1061.00,49.899
1062.00,49.893
1063.00,49.899
1064.00,49.880
1065.00,49.877
1066.00,49.865
1067.00,49.846
1068.00,49.879
1069.00,49.825
1070.00,49.814
1071.00,49.802
1072.00,49.798
1073.00,49.782
1074.00,49.789
1075.00,49.764
1076.00,49.771
1077.00,49.756
1078.00,49.736
1079.00,49.731
1080.00,49.732
1081.00,49.712
1082.00,49.733
1083.00,49.691
1084.00,49.687
1085.00,49.680
1086.00,49.667
1087.00,49.675
1088.00,49.651
1089.00,49.632
1090.00,49.651
1091.00,49.634
1092.00,49.618
1093.00,49.610
1094.00,49.598
1095.00,49.597
1096.00,49.570
1097.00,49.558
1098.00,49.564
1099.00,49.555
1100.00,49.535
1101.00,49.543
1102.00,49.532
1103.00,49.508
1104.00,49.506
1105.00,49.479
1106.00,49.480
1107.00,49.474
1108.00,49.459
1109.00,49.455
1110.00,49.445
1111.00,49.444
1112.00,49.438
1113.00,49.414
1114.00,49.410
1115.00,49.408
1116.00,49.393
1117.00,49.401
1118.00,49.407
1119.00,49.376
1120.00,49.378
1121.00,49.364
1122.00,49.342
1123.00,49.356
1124.00,49.348
1125.00,49.328
1126.00,49.338
1127.00,49.324
1128.00,49.319
1129.00,49.291
1130.00,49.281
1131.00,49.285
1132.00,49.276
1133.00,49.264
1134.00,49.270
1135.00,49.240
1136.00,49.237
1137.00,49.255
1138.00,49.243
1139.00,49.242
1140.00,49.248
1141.00,49.230
1142.00,49.245
1143.00,49.232
1144.00,49.205
1145.00,49.207
1146.00,49.201
1147.00,49.198
1148.00,49.185
1149.00,49.185
1150.00,49.193
1151.00,49.189
1152.00,49.158
1153.00,49.168
1154.00,49.156
1155.00,49.177
1156.00,49.166
1157.00,49.164
1158.00,49.160
1159.00,49.156
1160.00,49.142
1161.00,49.152
1162.00,49.144
1163.00,49.136
1164.00,49.140
1165.00,49.126
1166.00,49.114
1167.00,49.133
1168.00,49.127
1169.00,49.113
1170.00,49.137
1171.00,49.104
1172.00,49.127
1173.00,49.113
1174.00,49.110
1175.00,49.117
1176.00,49.105
1177.00,49.101
1178.00,49.108
1179.00,49.111
1180.00,49.089
1181.00,49.111
1182.00,49.107
1183.00,49.099
1184.00,49.095
1185.00,49.094
1186.00,49.088
1187.00,49.086
1188.00,49.063
1189.00,49.087
1190.00,49.071
1191.00,49.079
1192.00,49.107
1193.00,49.065
1194.00,49.083
1195.00,49.056
1196.00,49.060
1197.00,49.073
1198.00,49.062
1199.00,49.051
1200.00,49.052
1201.00,49.047
1202.00,49.048
1203.00,49.074
1204.00,49.046
1205.00,49.042
1206.00,49.030
1207.00,49.035
1208.00,49.028
1209.00,49.020
1210.00,49.024
1211.00,49.030
1212.00,49.045
1213.00,49.009
1214.00,49.040
1215.00,49.024
1216.00,49.029
1217.00,49.051
1218.00,49.029
1219.00,49.046
1220.00,49.016
1221.00,49.024
1222.00,49.028
1223.00,49.040
1224.00,49.040
1225.00,49.021
1226.00,49.025
1227.00,49.019
1228.00,49.032
1229.00,49.026
1230.00,49.075
1231.00,49.056
1232.00,49.052
1233.00,49.069
1234.00,49.067
1235.00,49.059
1236.00,49.068
1237.00,49.047
1238.00,49.057
1239.00,49.080
1240.00,49.062
1241.00,49.071
1242.00,49.063
1243.00,49.081
1244.00,49.068
1245.00,49.080
1246.00,49.087
1247.00,49.086
1248.00,49.073
1249.00,49.091
1250.00,49.097
1251.00,49.081
1252.00,49.109
1253.00,49.083
1254.00,49.109
1255.00,49.105
1256.00,49.077
1257.00,49.067
1258.00,49.119
1259.00,49.091
1260.00,49.115
1261.00,49.124
1262.00,49.114
1263.00,49.122
1264.00,49.122
1265.00,49.114
1266.00,49.126
1267.00,49.126
1268.00,49.160
1269.00,49.151
1270.00,49.145
1271.00,49.158
1272.00,49.163
1273.00,49.158
1274.00,49.163
1275.00,49.159
1276.00,49.154
1277.00,49.178
1278.00,49.176
1279.00,49.175
1280.00,49.187
1281.00,49.180
1282.00,49.212
1283.00,49.189
1284.00,49.207
1285.00,49.187
1286.00,49.188
1287.00,49.177
1288.00,49.203
1289.00,49.186
1290.00,49.199
1291.00,49.212
1292.00,49.219
1293.00,49.218
1294.00,49.235
1295.00,49.230
1296.00,49.255
1297.00,49.246
1298.00,49.253
1299.00,49.258
1300.00,49.259
1301.00,49.256
1302.00,49.276
1303.00,49.281
1304.00,49.255
1305.00,49.286
1306.00,49.286
1307.00,49.304
1308.00,49.294
1309.00,49.291
1310.00,49.317
1311.00,49.295
1312.00,49.285
1313.00,49.303
1314.00,49.305
1315.00,49.315
1316.00,49.321
1317.00,49.331
1318.00,49.338
1319.00,49.333
1320.00,49.359
1321.00,49.534
1322.00,49.550
1323.00,49.534
1324.00,49.538
1325.00,49.507
1326.00,49.542
1327.00,49.520
1328.00,49.506
1329.00,49.516
1330.00,49.522
1331.00,49.501
1332.00,49.511
1333.00,49.519
1334.00,49.558
1335.00,49.578
1336.00,49.595
1337.00,49.647
1338.00,49.677
1339.00,49.730
1340.00,49.798
1341.00,49.848
1342.00,49.920
1343.00,49.971
1344.00,49.987
1345.00,50.065
1346.00,50.119
1347.00,50.107
1348.00,50.160
1349.00,50.168
1350.00,50.178
1351.00,50.208
1352.00,50.198
1353.00,50.233
1354.00,50.218
1355.00,50.152
1356.00,50.219
1357.00,50.212
1358.00,50.206
1359.00,50.104
1360.00,50.254
1361.00,50.071
1362.00,50.159
1363.00,50.292
1364.00,50.193
1365.00,50.168
1366.00,50.158
1367.00,50.252
1368.00,50.204
1369.00,50.232
1370.00,50.253
1371.00,50.169
1372.00,50.203
1373.00,50.198
1374.00,50.224
1375.00,50.189
1376.00,50.215
1377.00,50.201
1378.00,50.253
1379.00,50.214
1380.00,50.197
1381.00,50.174
1382.00,50.158
1383.00,50.169
1384.00,50.128
1385.00,50.133
1386.00,50.194
1387.00,50.182
1388.00,50.113
1389.00,50.136
1390.00,50.020
1391.00,50.118
1392.00,50.171
1393.00,50.225
1394.00,50.164
1395.00,50.173
1396.00,50.093
1397.00,50.200
1398.00,50.244
1399.00,50.124
1400.00,50.088
1401.00,50.175
1402.00,50.266
1403.00,50.142
1404.00,50.155
1405.00,50.209
1406.00,50.179
1407.00,50.221
1408.00,50.167
1409.00,50.190
1410.00,50.232
1411.00,50.250
1412.00,50.303
1413.00,50.173
1414.00,50.218
1415.00,50.262
1416.00,50.275
1417.00,50.304
1418.00,50.247
1419.00,50.227
1420.00,50.313
1421.00,50.331
1422.00,50.324
1423.00,50.326
1424.00,50.341
1425.00,50.360
1426.00,50.367
1427.00,50.376
1428.00,50.397
1429.00,50.400
1430.00,50.421
1431.00,50.439
1432.00,50.439
1433.00,50.457
1434.00,50.461
1435.00,50.545
1436.00,50.533
1437.00,50.528
1438.00,50.526
1439.00,50.573
1440.00,50.576
1441.00,50.561
1442.00,50.590
1443.00,50.621
1444.00,50.650
1445.00,50.599
1446.00,50.605
1447.00,50.687
1448.00,50.703
1449.00,50.693
1450.00,50.680
1451.00,50.700
1452.00,50.708
1453.00,50.754
1454.00,50.742
1455.00,50.762
1456.00,50.779
1457.00,50.772
1458.00,50.812
1459.00,50.824
1460.00,50.824
1461.00,50.866
1462.00,50.865
1463.00,50.887
1464.00,50.900
1465.00,50.901
1466.00,50.912
1467.00,50.949
1468.00,50.979
1469.00,50.971
1470.00,50.969
1471.00,50.979
1472.00,51.001
1473.00,51.001
1474.00,51.029
1475.00,51.054
1476.00,51.058
1477.00,51.059
1478.00,51.080
1479.00,51.082
1480.00,51.087
1481.00,51.094
1482.00,51.112
1483.00,51.138
1484.00,51.139
1485.00,51.158
1486.00,51.177
1487.00,51.176
1488.00,51.190
1489.00,51.194
1490.00,51.200
1491.00,51.232
1492.00,51.245
1493.00,51.229
1494.00,51.263
1495.00,51.254
1496.00,51.259
1497.00,51.275
1498.00,51.259
1499.00,51.281
1500.00,51.321
1501.00, 
1502.00, 
1503.00, 
1504.00, 
1505.00, 
1506.00, 
1507.00, 
1508.00, 
1509.00, 
1510.00, 
1511.00, 
1512.00, 
1513.00, 
1514.00, 
1515.00, 
1516.00, 
1517.00, 
1518.00, 
1519.00, 
1520.00, 
1521.00, 
1522.00, 
1523.00, 
1524.00, 
1525.00, 
1526.00, 
1527.00, 
1528.00, 
1529.00, 
1530.00, 
1531.00, 
1532.00, 
1533.00, 
1534.00, 
1535.00, 
1536.00, 
1537.00, 
1538.00, 
1539.00, 
1540.00, 
1541.00, 
1542.00, 
1543.00, 
1544.00, 
1545.00, 
1546.00, 
1547.00, 
1548.00, 
1549.00, 
1550.00, 
1551.00, 
1552.00, 
1553.00, 
1554.00, 
1555.00, 
1556.00, 
1557.00, 
1558.00, 
1559.00, 
1560.00, 
1561.00, 
1562.00, 
1563.00, 
1564.00, 
1565.00, 
1566.00, 
1567.00, 
1568.00, 
1569.00, 
1570.00, 
1571.00, 
1572.00, 
1573.00, 
1574.00, 
1575.00, 
1576.00, 
1577.00, 
1578.00, 
1579.00, 
1580.00, 
1581.00, 
1582.00, 
1583.00, 
1584.00, 
1585.00, 
1586.00, 
1587.00, 
1588.00, 
1589.00, 
1590.00, 
1591.00, 
1592.00, 
1593.00, 
1594.00, 
1595.00, 
1596.00, 
1597.00, 
1598.00, 
1599.00, 
1600.00, 
1601.00, 
1602.00, 
1603.00, 
1604.00, 
1605.00, 
1606.00, 
1607.00, 
1608.00, 
1609.00, 
1610.00, 
1611.00, 
1612.00, 
1613.00, 
1614.00, 
1615.00, 
1616.00, 
1617.00, 
1618.00, 
1619.00, 
1620.00, 
1621.00, 
1622.00, 
1623.00, 
1624.00, 
1625.00, 
1626.00, 
1627.00, 
1628.00, 
1629.00, 
1630.00, 
1631.00, 
1632.00, 
1633.00, 
1634.00, 
1635.00, 
1636.00, 
1637.00, 
1638.00, 
1639.00, 
1640.00, 
1641.00, 
1642.00, 
1643.00, 
1644.00, 
1645.00, 
1646.00, 
1647.00, 
1648.00, 
1649.00, 
1650.00, 
1651.00, 
1652.00, 
1653.00, 
1654.00, 
1655.00, 
1656.00, 
1657.00, 
1658.00, 
1659.00, 
1660.00, 
1661.00, 
1662.00, 
1663.00, 
1664.00, 
1665.00, 
1666.00, 
1667.00, 
1668.00, 
1669.00, 
1670.00, 
1671.00, 
1672.00, 
1673.00, 
1674.00, 
1675.00, 
1676.00, 
1677.00, 
1678.00, 
1679.00, 
1680.00, 
1681.00, 
1682.00, 
1683.00, 
1684.00, 
1685.00, 
1686.00, 
1687.00, 
1688.00, 
1689.00, 
1690.00, 
1691.00, 
1692.00, 
1693.00, 
1694.00, 
1695.00, 
1696.00, 
1697.00, 
1698.00, 
1699.00, 
1700.00, 
1701.00, 
1702.00, 
1703.00, 
1704.00, 
1705.00, 
1706.00, 
1707.00, 
1708.00, 
1709.00, 
1710.00, 
1711.00, 
1712.00, 
1713.00, 
1714.00, 
1715.00, 
1716.00, 
1717.00, 
1718.00, 
1719.00, 
1720.00, 
1721.00, 
1722.00, 
1723.00, 
1724.00, 
1725.00, 
1726.00, 
1727.00, 
1728.00, 
1729.00, 
1730.00, 
1731.00, 
1732.00, 
1733.00, 
1734.00, 
1735.00, 
1736.00, 
1737.00, 
1738.00, 
1739.00, 
1740.00, 
1741.00, 
1742.00, 
1743.00, 
1744.00, 
1745.00, 
1746.00, 
1747.00, 
1748.00, 
1749.00, 
1750.00, 
1751.00, 
1752.00, 
1753.00, 
1754.00, 
1755.00, 
1756.00, 
1757.00, 
1758.00, 
1759.00, 
1760.00, 
1761.00, 
1762.00, 
1763.00, 
1764.00, 
1765.00, 
1766.00, 
1767.00, 
1768.00, 
1769.00, 
1770.00, 
1771.00, 
1772.00, 
1773.00, 
1774.00, 
1775.00, 
1776.00, 
1777.00, 
1778.00, 
1779.00, 
1780.00, 
1781.00, 
1782.00, 
1783.00, 
1784.00, 
1785.00, 
1786.00, 
1787.00, 
1788.00, 
1789.00, 
1790.00, 
1791.00, 
1792.00, 
1793.00, 
1794.00, 
1795.00, 
1796.00, 
1797.00, 
1798.00, 
1799.00, 
1800.00, 
1801.00, 
1802.00, 
1803.00, 
1804.00, 
1805.00, 
1806.00, 
1807.00, 
1808.00, 
1809.00, 
1810.00, 
1811.00, 
1812.00, 
1813.00, 
1814.00, 
1815.00, 
1816.00, 
1817.00, 
1818.00, 
1819.00, 
1820.00, 
1821.00, 
1822.00, 
1823.00, 
1824.00, 
1825.00, 
1826.00, 
1827.00, 
1828.00, 
1829.00, 
1830.00, 
1831.00, 
1832.00, 
1833.00, 
1834.00, 
1835.00, 
1836.00, 
1837.00, 
1838.00, 
1839.00, 
1840.00, 
1841.00, 
1842.00, 
1843.00, 
1844.00, 
1845.00, 
1846.00, 
1847.00, 
1848.00, 
1849.00, 
1850.00, 
1851.00, 
1852.00, 
1853.00, 
1854.00, 
1855.00, 
1856.00, 
1857.00, 
1858.00, 
1859.00, 
1860.00, 
1861.00, 
1862.00, 
1863.00, 
1864.00, 
1865.00, 
1866.00, 
1867.00, 
1868.00, 
1869.00, 
1870.00, 
1871.00, 
1872.00, 
1873.00, 
1874.00, 
1875.00, 
1876.00, 
1877.00, 
1878.00, 
1879.00, 
1880.00, 
1881.00, 
1882.00, 
1883.00, 
1884.00, 
1885.00, 
1886.00, 
1887.00, 
1888.00, 
1889.00, 
1890.00, 
1891.00, 
1892.00, 
1893.00, 
1894.00, 
1895.00, 
1896.00, 
1897.00, 
1898.00, 
1899.00, 
1900.00, 
1901.00, 
1902.00, 
1903.00, 
1904.00, 
1905.00, 
1906.00, 
1907.00, 
1908.00, 
1909.00, 
1910.00, 
1911.00, 
1912.00, 
1913.00, 
1914.00, 
1915.00, 
1916.00, 
1917.00, 
1918.00, 
1919.00, 
1920.00, 
1921.00, 
1922.00, 
1923.00, 
1924.00, 
1925.00, 
1926.00, 
1927.00, 
1928.00, 
1929.00, 
1930.00, 
1931.00, 
1932.00, 
1933.00, 
1934.00, 
1935.00, 
1936.00, 
1937.00, 
1938.00, 
1939.00, 
1940.00, 
1941.00, 
1942.00, 
1943.00, 
1944.00, 
1945.00, 
1946.00, 
1947.00, 
1948.00, 
1949.00, 
1950.00, 
1951.00, 
1952.00, 
1953.00, 
1954.00, 
1955.00, 
1956.00, 
1957.00, 
1958.00, 
1959.00, 
1960.00, 
1961.00, 
1962.00, 
1963.00, 
1964.00, 
1965.00, 
1966.00, 
1967.00, 
1968.00, 
1969.00, 
1970.00, 
1971.00, 
1972.00, 
1973.00, 
1974.00, 
1975.00, 
1976.00, 
1977.00, 
1978.00, 
1979.00, 
1980.00, 
1981.00, 
1982.00, 
1983.00, 
1984.00, 
1985.00, 
1986.00, 
1987.00, 
1988.00, 
1989.00, 
1990.00, 
1991.00, 
1992.00, 
1993.00, 
1994.00, 
1995.00, 
1996.00, 
1997.00, 
1998.00, 
1999.00, 
2000.00, 
2001.00, 
2002.00, 
2003.00, 
2004.00, 
2005.00, 
2006.00, 
2007.00, 
2008.00, 
2009.00, 
2010.00, 
2011.00, 
2012.00, 
2013.00, 
2014.00, 
2015.00, 
2016.00, 
2017.00, 
2018.00, 
2019.00, 
2020.00, 
2021.00, 
2022.00, 
2023.00, 
2024.00, 
2025.00, 
2026.00, 
2027.00, 
2028.00, 
2029.00, 
2030.00, 
2031.00, 
2032.00, 
2033.00, 
2034.00, 
2035.00, 
2036.00, 
2037.00, 
2038.00, 
2039.00, 
2040.00, 
2041.00, 
2042.00, 
2043.00, 
2044.00, 
2045.00, 
2046.00, 
2047.00, 
2048.00, 
2049.00, 
2050.00, 
2051.00, 
2052.00, 
2053.00, 
2054.00, 
2055.00, 
2056.00, 
2057.00, 
2058.00, 
2059.00, 
2060.00, 
2061.00, 
2062.00, 
2063.00, 
2064.00, 
2065.00, 
2066.00, 
2067.00, 
2068.00, 
2069.00, 
2070.00, 
2071.00, 
2072.00, 
2073.00, 
2074.00, 
2075.00, 
2076.00, 
2077.00, 
2078.00, 
2079.00, 
2080.00, 
2081.00, 
2082.00, 
2083.00, 
2084.00, 
2085.00, 
2086.00, 
2087.00, 
2088.00, 
2089.00, 
2090.00, 
2091.00, 
2092.00, 
2093.00, 
2094.00, 
2095.00, 
2096.00, 
2097.00, 
2098.00, 
2099.00, 
2100.00, 
2101.00, 
2102.00, 
2103.00, 
2104.00, 
2105.00, 
2106.00, 
2107.00, 
2108.00, 
2109.00, 
2110.00, 
2111.00, 
2112.00, 
2113.00, 
2114.00, 
2115.00, 
2116.00, 
2117.00, 
2118.00, 
2119.00, 
2120.00, 
2121.00, 
2122.00, 
2123.00, 
2124.00, 
2125.00, 
2126.00, 
2127.00, 
2128.00, 
2129.00, 
2130.00, 
2131.00, 
2132.00, 
2133.00, 
2134.00, 
2135.00, 
2136.00, 
2137.00, 
2138.00, 
2139.00, 
2140.00, 
2141.00, 
2142.00, 
2143.00, 
2144.00, 
2145.00, 
2146.00, 
2147.00, 
2148.00, 
2149.00, 
2150.00, 
2151.00, 
2152.00, 
2153.00, 
2154.00, 
2155.00, 
2156.00, 
2157.00, 
2158.00, 
2159.00, 
2160.00, 
2161.00, 
2162.00, 
2163.00, 
2164.00, 
2165.00, 
2166.00, 
2167.00, 
2168.00, 
2169.00, 
2170.00, 
2171.00, 
2172.00, 
2173.00, 
2174.00, 
2175.00, 
2176.00, 
2177.00, 
2178.00, 
2179.00, 
2180.00, 
2181.00, 
2182.00, 
2183.00, 
2184.00, 
2185.00, 
2186.00, 
2187.00, 
2188.00, 
2189.00, 
2190.00, 
2191.00, 
2192.00, 
2193.00, 
2194.00, 
2195.00, 
2196.00, 
2197.00, 
2198.00, 
2199.00, 
2200.00, 
2201.00, 
2202.00, 
2203.00, 
2204.00, 
2205.00, 
2206.00, 
2207.00, 
2208.00, 
2209.00, 
2210.00, 
2211.00, 
2212.00, 
2213.00, 
2214.00, 
2215.00, 
2216.00, 
2217.00, 
2218.00, 
2219.00, 
2220.00, 
2221.00, 
2222.00, 
2223.00, 
2224.00, 
2225.00, 
2226.00, 
2227.00, 
2228.00, 
2229.00, 
2230.00, 
2231.00, 
2232.00, 
2233.00, 
2234.00, 
2235.00, 
2236.00, 
2237.00, 
2238.00, 
2239.00, 
2240.00, 
2241.00, 
2242.00, 
2243.00, 
2244.00, 
2245.00, 
2246.00, 
2247.00, 
2248.00, 
2249.00, 
2250.00, 
2251.00, 
2252.00, 
2253.00, 
2254.00, 
2255.00, 
2256.00, 
2257.00, 
2258.00, 
2259.00, 
2260.00, 
2261.00, 
2262.00, 
2263.00, 
2264.00, 
2265.00, 
2266.00, 
2267.00, 
2268.00, 
2269.00, 
2270.00, 
2271.00, 
2272.00, 
2273.00, 
2274.00, 
2275.00, 
2276.00, 
2277.00, 
2278.00, 
2279.00, 
2280.00, 
2281.00, 
2282.00, 
2283.00, 
2284.00, 
2285.00, 
2286.00, 
2287.00, 
2288.00, 
2289.00, 
2290.00, 
2291.00, 
2292.00, 
2293.00, 
2294.00, 
2295.00, 
2296.00, 
2297.00, 
2298.00, 
2299.00, 
2300.00, 
2301.00, 
2302.00, 
2303.00, 
2304.00, 
2305.00, 
2306.00, 
2307.00, 
2308.00, 
2309.00, 
2310.00, 
2311.00, 
2312.00, 
2313.00, 
2314.00, 
2315.00, 
2316.00, 
2317.00, 
2318.00, 
2319.00, 
2320.00, 
2321.00, 
2322.00, 
2323.00, 
2324.00, 
2325.00, 
2326.00, 
2327.00, 
2328.00, 
2329.00, 
2330.00, 
2331.00, 
2332.00, 
2333.00, 
2334.00, 
2335.00, 
2336.00, 
2337.00, 
2338.00, 
2339.00, 
2340.00, 
2341.00, 
2342.00, 
2343.00, 
2344.00, 
2345.00, 
2346.00, 
2347.00, 
2348.00, 
2349.00, 
2350.00, 
2351.00, 
2352.00, 
2353.00, 
2354.00, 
2355.00, 
2356.00, 
2357.00, 
2358.00, 
2359.00, 
2360.00, 
2361.00, 
2362.00, 
2363.00, 
2364.00, 
2365.00, 
2366.00, 
2367.00, 
2368.00, 
2369.00, 
2370.00, 
2371.00, 
2372.00, 
2373.00, 
2374.00, 
2375.00, 
2376.00, 
2377.00, 
2378.00, 
2379.00, 
2380.00, 
2381.00, 
2382.00, 
2383.00, 
2384.00, 
2385.00, 
2386.00, 
2387.00, 
2388.00, 
2389.00, 
2390.00, 
2391.00, 
2392.00, 
2393.00, 
2394.00, 
2395.00, 
2396.00, 
2397.00, 
2398.00, 
2399.00, 
2400.00, 
2401.00, 
2402.00, 
2403.00, 
2404.00, 
2405.00, 
2406.00, 
2407.00, 
2408.00, 
2409.00, 
2410.00, 
2411.00, 
2412.00, 
2413.00, 
2414.00, 
2415.00, 
2416.00, 
2417.00, 
2418.00, 
2419.00, 
2420.00, 
2421.00, 
2422.00, 
2423.00, 
2424.00, 
2425.00, 
2426.00, 
2427.00, 
2428.00, 
2429.00, 
2430.00, 
2431.00, 
2432.00, 
2433.00, 
2434.00, 
2435.00, 
2436.00, 
2437.00, 
2438.00, 
2439.00, 
2440.00, 
2441.00, 
2442.00, 
2443.00, 
2444.00, 
2445.00, 
2446.00, 
2447.00, 
2448.00, 
2449.00, 
2450.00, 
2451.00, 
2452.00, 
2453.00, 
2454.00, 
2455.00, 
2456.00, 
2457.00, 
2458.00, 
2459.00, 
2460.00, 
2461.00, 
2462.00, 
2463.00, 
2464.00, 
2465.00, 
2466.00, 
2467.00, 
2468.00, 
2469.00, 
2470.00, 
2471.00, 
2472.00, 
2473.00, 
2474.00, 
2475.00, 
2476.00, 
2477.00, 
2478.00, 
2479.00, 
2480.00, 
2481.00, 
2482.00, 
2483.00, 
2484.00, 
2485.00, 
2486.00, 
2487.00, 
2488.00, 
2489.00, 
2490.00, 
2491.00, 
2492.00, 
2493.00, 
2494.00, 
2495.00, 
2496.00, 
2497.00, 
2498.00, 
2499.00, 
2500.00, 
2501.00, 
2502.00, 
2503.00, 
2504.00, 
2505.00, 
2506.00, 
2507.00, 
2508.00, 
2509.00, 
2510.00, 
2511.00, 
2512.00, 
2513.00, 
2514.00, 
2515.00, 
2516.00, 
2517.00, 
2518.00, 
2519.00, 
2520.00, 
2521.00, 
2522.00, 
2523.00, 
2524.00, 
2525.00, 
2526.00, 
2527.00, 
2528.00, 
2529.00, 
2530.00, 
2531.00, 
2532.00, 
2533.00, 
2534.00, 
2535.00, 
2536.00, 
2537.00, 
2538.00, 
2539.00, 
2540.00, 
2541.00, 
2542.00, 
2543.00, 
2544.00, 
2545.00, 
2546.00, 
2547.00, 
2548.00, 
2549.00, 
2550.00, 
2551.00, 
2552.00, 
2553.00, 
2554.00, 
2555.00, 
2556.00, 
2557.00, 
2558.00, 
2559.00, 
2560.00, 
2561.00, 
2562.00, 
2563.00, 
2564.00, 
2565.00, 
2566.00, 
2567.00, 
2568.00, 
2569.00, 
2570.00, 
2571.00, 
2572.00, 
2573.00, 
2574.00, 
2575.00, 
2576.00, 
2577.00, 
2578.00, 
2579.00, 
2580.00, 
2581.00, 
2582.00, 
2583.00, 
2584.00, 
2585.00, 
2586.00, 
2587.00, 
2588.00, 
2589.00, 
2590.00, 
2591.00, 
2592.00, 
2593.00, 
2594.00, 
2595.00, 
2596.00, 
2597.00, 
2598.00, 
2599.00, 
2600.00, 
