"1cP4 - RawData"
"Wavelength nm.","T%"
200.00,0.003
201.00,0.002
202.00,-0.000
203.00,0.004
204.00,0.001
205.00,-0.002
206.00,0.001
207.00,-0.001
208.00,-0.004
209.00,-0.001
210.00,0.001
211.00,0.003
212.00,0.000
213.00,-0.002
214.00,0.001
215.00,-0.001
216.00,0.004
217.00,0.002
218.00,-0.003
219.00,-0.001
220.00,0.002
221.00,0.001
222.00,-0.001
223.00,-0.000
224.00,0.001
225.00,-0.000
226.00,0.002
227.00,0.002
228.00,0.001
229.00,-0.001
230.00,0.002
231.00,-0.001
232.00,0.001
233.00,0.002
234.00,0.001
235.00,-0.002
236.00,0.002
237.00,-0.000
238.00,0.002
239.00,-0.001
240.00,0.001
241.00,0.001
242.00,0.000
243.00,0.001
244.00,-0.000
245.00,0.000
246.00,0.001
247.00,0.002
248.00,-0.000
249.00,0.001
250.00,-0.001
251.00,0.000
252.00,0.000
253.00,-0.000
254.00,-0.000
255.00,-0.001
256.00,0.002
257.00,0.001
258.00,0.001
259.00,0.000
260.00,-0.002
261.00,0.001
262.00,-0.000
263.00,-0.000
264.00,0.001
265.00,0.001
266.00,-0.000
267.00,0.000
268.00,0.000
269.00,0.000
270.00,0.000
271.00,-0.000
272.00,0.001
273.00,-0.002
274.00,-0.000
275.00,0.000
276.00,0.001
277.00,-0.000
278.00,-0.001
279.00,-0.001
280.00,0.000
281.00,0.001
282.00,0.001
283.00,-0.000
284.00,-0.001
285.00,0.001
286.00,-0.000
287.00,-0.000
288.00,-0.001
289.00,-0.000
290.00,-0.000
291.00,-0.000
292.00,0.002
293.00,0.000
294.00,0.001
295.00,0.001
296.00,-0.000
297.00,-0.001
298.00,-0.000
299.00,0.001
300.00,0.002
301.00,0.001
302.00,0.002
303.00,-0.001
304.00,-0.000
305.00,0.002
306.00,0.005
307.00,0.005
308.00,0.007
309.00,0.011
310.00,0.016
311.00,0.027
312.00,0.042
313.00,0.067
314.00,0.100
315.00,0.146
316.00,0.205
317.00,0.297
318.00,0.400
319.00,0.542
320.00,0.724
321.00,0.949
322.00,1.199
323.00,1.521
324.00,1.872
325.00,2.266
326.00,2.684
327.00,3.189
328.00,3.702
329.00,4.280
330.00,4.924
331.00,5.540
332.00,6.263
333.00,7.000
334.00,7.688
335.00,8.444
336.00,9.211
337.00,10.022
338.00,10.803
339.00,11.502
340.00,12.285
341.00,13.007
342.00,13.752
343.00,14.414
344.00,15.072
345.00,15.744
346.00,16.363
347.00,16.947
348.00,17.475
349.00,18.036
350.00,18.508
351.00,18.965
352.00,19.369
353.00,19.802
354.00,20.174
355.00,20.541
356.00,20.858
357.00,21.158
358.00,21.463
359.00,21.831
360.00,22.065
361.00,22.269
362.00,22.468
363.00,22.648
364.00,22.738
365.00,22.908
366.00,22.961
367.00,23.157
368.00,23.192
369.00,23.269
370.00,23.353
371.00,23.392
372.00,23.365
373.00,23.362
374.00,23.360
375.00,23.311
376.00,23.249
377.00,23.172
378.00,23.072
379.00,22.977
380.00,22.974
381.00,22.973
382.00,22.958
383.00,23.002
384.00,23.074
385.00,23.132
386.00,23.184
387.00,23.301
388.00,23.366
389.00,23.424
390.00,23.482
391.00,23.527
392.00,23.626
393.00,23.676
394.00,23.649
395.00,23.694
396.00,23.681
397.00,23.720
398.00,23.713
399.00,23.702
400.00,23.727
401.00,23.712
402.00,23.730
403.00,23.729
404.00,23.746
405.00,23.724
406.00,23.605
407.00,23.660
408.00,23.619
409.00,23.600
410.00,23.548
411.00,23.557
412.00,23.481
413.00,23.491
414.00,23.477
415.00,23.417
416.00,23.538
417.00,23.470
418.00,23.583
419.00,23.631
420.00,23.666
421.00,23.648
422.00,23.693
423.00,23.749
424.00,23.765
425.00,23.830
426.00,23.853
427.00,23.920
428.00,23.934
429.00,23.969
430.00,24.029
431.00,24.103
432.00,24.126
433.00,24.183
434.00,24.219
435.00,24.301
436.00,24.337
437.00,24.433
438.00,24.486
439.00,24.548
440.00,24.663
441.00,24.744
442.00,24.788
443.00,24.896
444.00,25.002
445.00,25.072
446.00,25.184
447.00,25.276
448.00,25.385
449.00,25.475
450.00,25.587
451.00,25.686
452.00,25.802
453.00,25.906
454.00,25.986
455.00,26.118
456.00,26.249
457.00,26.334
458.00,26.445
459.00,26.611
460.00,26.730
461.00,26.868
462.00,26.964
463.00,27.132
464.00,27.229
465.00,27.326
466.00,27.578
467.00,27.635
468.00,27.735
469.00,27.836
470.00,27.934
471.00,28.035
472.00,28.153
473.00,28.240
474.00,28.357
475.00,28.455
476.00,28.603
477.00,28.653
478.00,28.770
479.00,28.898
480.00,29.092
481.00,29.187
482.00,29.430
483.00,29.575
484.00,29.755
485.00,29.875
486.00,30.006
487.00,30.152
488.00,30.282
489.00,30.462
490.00,30.633
491.00,30.759
492.00,31.007
493.00,31.142
494.00,31.093
495.00,31.240
496.00,31.369
497.00,31.467
498.00,31.622
499.00,31.732
500.00,31.941
501.00,32.016
502.00,32.117
503.00,32.307
504.00,32.306
505.00,32.437
506.00,32.549
507.00,32.674
508.00,32.778
509.00,32.962
510.00,33.096
511.00,33.175
512.00,33.348
513.00,33.479
514.00,33.537
515.00,33.698
516.00,33.839
517.00,33.885
518.00,33.992
519.00,34.029
520.00,34.074
521.00,34.225
522.00,34.274
523.00,34.382
524.00,34.459
525.00,34.574
526.00,34.663
527.00,34.726
528.00,34.804
529.00,34.970
530.00,35.133
531.00,35.224
532.00,35.234
533.00,35.365
534.00,35.467
535.00,35.574
536.00,35.643
537.00,35.715
538.00,35.755
539.00,35.829
540.00,35.906
541.00,35.955
542.00,36.013
543.00,36.099
544.00,36.162
545.00,36.207
546.00,36.261
547.00,36.381
548.00,36.457
549.00,36.519
550.00,36.603
551.00,36.674
552.00,36.759
553.00,36.787
554.00,36.867
555.00,36.884
556.00,36.985
557.00,37.058
558.00,37.106
559.00,37.155
560.00,37.231
561.00,37.279
562.00,37.364
563.00,37.371
564.00,37.443
565.00,37.448
566.00,37.451
567.00,37.464
568.00,37.563
569.00,37.620
570.00,37.594
571.00,37.703
572.00,37.683
573.00,37.664
574.00,37.687
575.00,37.713
576.00,37.700
577.00,37.742
578.00,37.875
579.00,37.957
580.00,37.922
581.00,38.066
582.00,38.159
583.00,38.175
584.00,38.261
585.00,38.336
586.00,38.355
587.00,38.435
588.00,38.427
589.00,38.389
590.00,38.514
591.00,38.609
592.00,38.534
593.00,38.592
594.00,38.660
595.00,38.761
596.00,38.858
597.00,39.008
598.00,38.930
599.00,38.930
600.00,38.995
601.00,38.993
602.00,38.949
603.00,39.015
604.00,39.105
605.00,39.163
606.00,39.172
607.00,39.148
608.00,39.367
609.00,39.455
610.00,39.265
611.00,39.351
612.00,39.391
613.00,39.451
614.00,39.504
615.00,39.616
616.00,39.720
617.00,39.675
618.00,39.670
619.00,39.753
620.00,39.768
621.00,39.871
622.00,39.949
623.00,39.994
624.00,40.027
625.00,40.161
626.00,40.104
627.00,40.158
628.00,40.181
629.00,40.180
630.00,40.206
631.00,40.286
632.00,40.418
633.00,40.505
634.00,40.574
635.00,40.516
636.00,40.506
637.00,40.704
638.00,40.935
639.00,41.124
640.00,40.996
641.00,41.033
642.00,41.132
643.00,41.184
644.00,41.297
645.00,41.305
646.00,41.490
647.00,41.546
648.00,41.549
649.00,41.574
650.00,41.602
651.00,41.785
652.00,41.869
653.00,41.824
654.00,41.888
655.00,42.088
656.00,42.365
657.00,42.281
658.00,42.292
659.00,42.394
660.00,42.374
661.00,42.439
662.00,42.571
663.00,42.675
664.00,42.903
665.00,43.111
666.00,43.019
667.00,43.101
668.00,43.013
669.00,43.258
670.00,43.539
671.00,43.343
672.00,43.372
673.00,43.709
674.00,43.752
675.00,43.711
676.00,43.983
677.00,44.122
678.00,43.899
679.00,44.139
680.00,44.231
681.00,44.412
682.00,44.466
683.00,44.299
684.00,44.529
685.00,44.601
686.00,44.623
687.00,44.687
688.00,44.708
689.00,44.686
690.00,45.065
691.00,45.232
692.00,45.019
693.00,45.008
694.00,45.059
695.00,45.388
696.00,45.526
697.00,45.423
698.00,45.488
699.00,45.715
700.00,45.902
701.00,45.832
702.00,45.810
703.00,46.076
704.00,46.025
705.00,46.000
706.00,46.222
707.00,46.177
708.00,46.067
709.00,46.444
710.00,46.834
711.00,46.376
712.00,46.502
713.00,46.575
714.00,46.694
715.00,46.633
716.00,46.736
717.00,46.884
718.00,47.025
719.00,46.961
720.00,46.961
721.00,51.397
722.00,51.487
723.00,51.452
724.00,51.497
725.00,51.459
726.00,51.483
727.00,51.587
728.00,51.547
729.00,51.573
730.00,51.618
731.00,51.625
732.00,51.614
733.00,51.691
734.00,51.700
735.00,51.766
736.00,51.785
737.00,51.788
738.00,51.793
739.00,51.795
740.00,51.812
741.00,51.928
742.00,51.922
743.00,51.842
744.00,51.945
745.00,51.940
746.00,51.898
747.00,51.911
748.00,51.823
749.00,51.897
750.00,51.858
751.00,51.839
752.00,51.919
753.00,51.918
754.00,51.836
755.00,51.889
756.00,51.928
757.00,51.898
758.00,51.899
759.00,51.962
760.00,51.874
761.00,51.927
762.00,51.930
763.00,51.928
764.00,51.913
765.00,51.935
766.00,52.003
767.00,51.952
768.00,51.948
769.00,51.927
770.00,51.971
771.00,51.988
772.00,51.950
773.00,51.982
774.00,51.954
775.00,52.018
776.00,51.969
777.00,52.001
778.00,51.992
779.00,52.017
780.00,51.963
781.00,52.065
782.00,51.998
783.00,51.902
784.00,52.050
785.00,51.811
786.00,51.938
787.00,51.873
788.00,51.864
789.00,51.911
790.00,51.831
791.00,51.932
792.00,51.857
793.00,51.838
794.00,51.851
795.00,51.813
796.00,51.784
797.00,51.691
798.00,51.807
799.00,51.733
800.00,51.755
801.00,51.696
802.00,51.752
803.00,51.621
804.00,51.624
805.00,51.688
806.00,51.595
807.00,51.588
808.00,51.600
809.00,51.599
810.00,51.540
811.00,51.539
812.00,51.643
813.00,51.502
814.00,51.576
815.00,51.461
816.00,51.474
817.00,51.485
818.00,51.371
819.00,51.408
820.00,51.395
821.00,51.358
822.00,51.378
823.00,51.391
824.00,51.383
825.00,51.335
826.00,51.182
827.00,51.448
828.00,51.333
829.00,51.323
830.00,51.324
831.00,53.552
832.00,53.546
833.00,53.441
834.00,53.526
835.00,53.432
836.00,53.486
837.00,53.401
838.00,53.446
839.00,53.393
840.00,53.344
841.00,53.380
842.00,53.330
843.00,53.360
844.00,53.354
845.00,53.216
846.00,53.272
847.00,53.245
848.00,53.105
849.00,53.180
850.00,53.145
851.00,53.065
852.00,53.093
853.00,53.042
854.00,53.023
855.00,52.976
856.00,52.951
857.00,52.955
858.00,52.888
859.00,52.886
860.00,52.889
861.00,52.886
862.00,52.856
863.00,52.873
864.00,52.789
865.00,52.840
866.00,52.794
867.00,52.788
868.00,52.819
869.00,52.759
870.00,52.781
871.00,52.753
872.00,52.711
873.00,52.699
874.00,52.741
875.00,52.675
876.00,52.726
877.00,52.687
878.00,52.723
879.00,52.607
880.00,52.713
881.00,52.616
882.00,52.648
883.00,52.576
884.00,52.547
885.00,52.548
886.00,52.526
887.00,52.518
888.00,52.478
889.00,52.475
890.00,52.456
891.00,52.417
892.00,52.387
893.00,52.371
894.00,52.384
895.00,52.350
896.00,52.355
897.00,52.323
898.00,52.258
899.00,52.299
900.00,52.244
901.00,52.292
902.00,52.255
903.00,52.222
904.00,52.193
905.00,52.204
906.00,52.200
907.00,52.144
908.00,52.103
909.00,52.130
910.00,52.101
911.00,52.065
912.00,52.059
913.00,52.018
914.00,51.993
915.00,51.978
916.00,51.951
917.00,51.937
918.00,51.944
919.00,51.912
920.00,51.872
921.00,51.877
922.00,51.862
923.00,51.839
924.00,51.790
925.00,51.814
926.00,51.787
927.00,51.780
928.00,51.758
929.00,51.766
930.00,51.738
931.00,51.717
932.00,51.653
933.00,51.663
934.00,51.643
935.00,51.620
936.00,51.559
937.00,51.551
938.00,51.546
939.00,51.550
940.00,51.501
941.00,51.494
942.00,51.479
943.00,51.461
944.00,51.425
945.00,51.421
946.00,51.424
947.00,51.351
948.00,51.356
949.00,51.334
950.00,51.321
951.00,51.296
952.00,51.279
953.00,51.248
954.00,51.204
955.00,51.168
956.00,51.204
957.00,51.130
958.00,51.141
959.00,51.098
960.00,51.095
961.00,51.086
962.00,51.084
963.00,51.043
964.00,51.029
965.00,51.041
966.00,51.007
967.00,50.998
968.00,50.983
969.00,50.987
970.00,50.951
971.00,51.004
972.00,50.946
973.00,51.005
974.00,51.009
975.00,50.976
976.00,50.999
977.00,50.965
978.00,51.010
979.00,50.958
980.00,50.967
981.00,50.989
982.00,50.953
983.00,50.976
984.00,50.943
985.00,50.969
986.00,50.913
987.00,50.939
988.00,50.899
989.00,50.886
990.00,50.895
991.00,50.868
992.00,50.899
993.00,50.847
994.00,50.843
995.00,50.821
996.00,50.806
997.00,50.789
998.00,50.767
999.00,50.786
1000.00,50.749
1001.00,50.752
1002.00,50.748
1003.00,50.745
1004.00,50.719
1005.00,50.682
1006.00,50.728
1007.00,50.678
1008.00,50.676
1009.00,50.641
1010.00,50.629
1011.00,50.648
1012.00,50.597
1013.00,50.605
1014.00,50.585
1015.00,50.606
1016.00,50.566
1017.00,50.558
1018.00,50.545
1019.00,50.498
1020.00,50.510
1021.00,50.469
1022.00,50.478
1023.00,50.444
1024.00,50.439
1025.00,50.413
1026.00,50.412
1027.00,50.382
1028.00,50.382
1029.00,50.378
1030.00,50.342
1031.00,50.361
1032.00,50.350
1033.00,50.330
1034.00,50.307
1035.00,50.273
1036.00,50.242
1037.00,50.219
1038.00,50.200
1039.00,50.160
1040.00,50.162
1041.00,50.123
1042.00,50.128
1043.00,50.110
1044.00,50.158
1045.00,50.148
1046.00,50.125
1047.00,50.161
1048.00,50.152
1049.00,50.151
1050.00,50.150
1051.00,50.198
1052.00,50.190
1053.00,50.201
1054.00,50.201
1055.00,50.231
1056.00,50.251
1057.00,50.243
1058.00,50.230
1059.00,50.228
1060.00,50.222
1061.00,50.222
1062.00,50.204
1063.00,50.195
1064.00,50.195
1065.00,50.183
1066.00,50.174
1067.00,50.179
1068.00,50.192
1069.00,50.157
1070.00,50.133
1071.00,50.111
1072.00,50.142
1073.00,50.118
1074.00,50.110
1075.00,50.114
1076.00,50.109
1077.00,50.094
1078.00,50.088
1079.00,50.076
1080.00,50.075
1081.00,50.052
1082.00,50.045
1083.00,50.036
1084.00,50.033
1085.00,50.034
1086.00,50.017
1087.00,50.005
1088.00,49.995
1089.00,49.999
1090.00,49.980
1091.00,49.993
1092.00,49.998
1093.00,49.969
1094.00,49.959
1095.00,49.964
1096.00,49.929
1097.00,49.928
1098.00,49.912
1099.00,49.910
1100.00,49.895
1101.00,49.889
1102.00,49.890
1103.00,49.900
1104.00,49.880
1105.00,49.874
1106.00,49.858
1107.00,49.850
1108.00,49.854
1109.00,49.837
1110.00,49.816
1111.00,49.809
1112.00,49.800
1113.00,49.794
1114.00,49.777
1115.00,49.790
1116.00,49.785
1117.00,49.749
1118.00,49.743
1119.00,49.758
1120.00,49.762
1121.00,49.756
1122.00,49.728
1123.00,49.726
1124.00,49.735
1125.00,49.746
1126.00,49.730
1127.00,49.732
1128.00,49.704
1129.00,49.688
1130.00,49.676
1131.00,49.665
1132.00,49.660
1133.00,49.667
1134.00,49.654
1135.00,49.650
1136.00,49.642
1137.00,49.647
1138.00,49.642
1139.00,49.657
1140.00,49.653
1141.00,49.629
1142.00,49.642
1143.00,49.644
1144.00,49.599
1145.00,49.598
1146.00,49.620
1147.00,49.602
1148.00,49.595
1149.00,49.617
1150.00,49.611
1151.00,49.604
1152.00,49.602
1153.00,49.612
1154.00,49.610
1155.00,49.595
1156.00,49.582
1157.00,49.599
1158.00,49.597
1159.00,49.584
1160.00,49.582
1161.00,49.599
1162.00,49.580
1163.00,49.578
1164.00,49.588
1165.00,49.574
1166.00,49.582
1167.00,49.569
1168.00,49.607
1169.00,49.593
1170.00,49.585
1171.00,49.582
1172.00,49.594
1173.00,49.576
1174.00,49.589
1175.00,49.580
1176.00,49.573
1177.00,49.576
1178.00,49.558
1179.00,49.580
1180.00,49.555
1181.00,49.570
1182.00,49.565
1183.00,49.576
1184.00,49.579
1185.00,49.582
1186.00,49.576
1187.00,49.575
1188.00,49.585
1189.00,49.581
1190.00,49.566
1191.00,49.569
1192.00,49.590
1193.00,49.562
1194.00,49.570
1195.00,49.543
1196.00,49.580
1197.00,49.574
1198.00,49.556
1199.00,49.560
1200.00,49.563
1201.00,49.596
1202.00,49.577
1203.00,49.565
1204.00,49.558
1205.00,49.587
1206.00,49.553
1207.00,49.559
1208.00,49.531
1209.00,49.545
1210.00,49.557
1211.00,49.546
1212.00,49.580
1213.00,49.538
1214.00,49.579
1215.00,49.584
1216.00,49.567
1217.00,49.570
1218.00,49.564
1219.00,49.564
1220.00,49.532
1221.00,49.555
1222.00,49.534
1223.00,49.567
1224.00,49.571
1225.00,49.557
1226.00,49.563
1227.00,49.568
1228.00,49.584
1229.00,49.574
1230.00,49.611
1231.00,49.608
1232.00,49.645
1233.00,49.626
1234.00,49.633
1235.00,49.637
1236.00,49.622
1237.00,49.635
1238.00,49.642
1239.00,49.651
1240.00,49.639
1241.00,49.642
1242.00,49.674
1243.00,49.671
1244.00,49.646
1245.00,49.694
1246.00,49.675
1247.00,49.654
1248.00,49.659
1249.00,49.672
1250.00,49.684
1251.00,49.671
1252.00,49.692
1253.00,49.682
1254.00,49.719
1255.00,49.676
1256.00,49.685
1257.00,49.686
1258.00,49.731
1259.00,49.722
1260.00,49.742
1261.00,49.732
1262.00,49.725
1263.00,49.724
1264.00,49.733
1265.00,49.742
1266.00,49.734
1267.00,49.749
1268.00,49.764
1269.00,49.763
1270.00,49.776
1271.00,49.790
1272.00,49.783
1273.00,49.824
1274.00,49.815
1275.00,49.843
1276.00,49.846
1277.00,49.827
1278.00,49.859
1279.00,49.852
1280.00,49.841
1281.00,49.855
1282.00,49.865
1283.00,49.836
1284.00,49.842
1285.00,49.850
1286.00,49.863
1287.00,49.856
1288.00,49.846
1289.00,49.877
1290.00,49.929
1291.00,49.913
1292.00,49.909
1293.00,49.913
1294.00,49.931
1295.00,49.944
1296.00,49.937
1297.00,49.930
1298.00,49.982
1299.00,49.941
1300.00,49.962
1301.00,49.966
1302.00,49.969
1303.00,49.986
1304.00,49.976
1305.00,49.997
1306.00,49.997
1307.00,50.007
1308.00,50.011
1309.00,50.021
1310.00,50.000
1311.00,49.996
1312.00,50.010
1313.00,50.016
1314.00,50.033
1315.00,50.062
1316.00,50.045
1317.00,50.076
1318.00,50.068
1319.00,50.070
1320.00,50.088
1321.00,50.251
1322.00,50.248
1323.00,50.248
1324.00,50.222
1325.00,50.230
1326.00,50.278
1327.00,50.239
1328.00,50.237
1329.00,50.236
1330.00,50.238
1331.00,50.233
1332.00,50.234
1333.00,50.247
1334.00,50.319
1335.00,50.284
1336.00,50.341
1337.00,50.369
1338.00,50.427
1339.00,50.479
1340.00,50.551
1341.00,50.600
1342.00,50.662
1343.00,50.721
1344.00,50.763
1345.00,50.827
1346.00,50.869
1347.00,50.890
1348.00,50.901
1349.00,50.905
1350.00,50.948
1351.00,50.957
1352.00,50.963
1353.00,51.002
1354.00,50.989
1355.00,50.945
1356.00,51.024
1357.00,51.003
1358.00,51.012
1359.00,51.019
1360.00,51.008
1361.00,51.120
1362.00,50.950
1363.00,51.052
1364.00,51.179
1365.00,51.028
1366.00,51.107
1367.00,51.028
1368.00,50.993
1369.00,51.046
1370.00,51.032
1371.00,50.970
1372.00,51.038
1373.00,51.056
1374.00,51.055
1375.00,51.032
1376.00,51.036
1377.00,51.003
1378.00,51.039
1379.00,51.042
1380.00,51.042
1381.00,51.067
1382.00,51.041
1383.00,51.079
1384.00,51.123
1385.00,51.133
1386.00,51.093
1387.00,50.995
1388.00,51.047
1389.00,51.059
1390.00,51.201
1391.00,50.970
1392.00,51.020
1393.00,50.956
1394.00,51.081
1395.00,51.002
1396.00,50.906
1397.00,50.899
1398.00,51.024
1399.00,51.054
1400.00,51.058
1401.00,50.988
1402.00,51.079
1403.00,51.044
1404.00,51.022
1405.00,51.070
1406.00,51.075
1407.00,51.072
1408.00,51.156
1409.00,51.170
1410.00,51.161
1411.00,50.814
1412.00,51.183
1413.00,51.126
1414.00,51.121
1415.00,51.133
1416.00,51.179
1417.00,51.226
1418.00,51.164
1419.00,51.202
1420.00,51.213
1421.00,51.257
1422.00,51.267
1423.00,51.286
1424.00,51.277
1425.00,51.306
1426.00,51.289
1427.00,51.327
1428.00,51.329
1429.00,51.335
1430.00,51.354
1431.00,51.367
1432.00,51.385
1433.00,51.419
1434.00,51.408
1435.00,51.484
1436.00,51.488
1437.00,51.462
1438.00,51.476
1439.00,51.536
1440.00,51.523
1441.00,51.540
1442.00,51.571
1443.00,51.585
1444.00,51.669
1445.00,51.611
1446.00,51.641
1447.00,51.677
1448.00,51.700
1449.00,51.703
1450.00,51.723
1451.00,51.716
1452.00,51.748
1453.00,51.754
1454.00,51.784
1455.00,51.807
1456.00,51.826
1457.00,51.828
1458.00,51.889
1459.00,51.886
1460.00,51.907
1461.00,51.915
1462.00,51.948
1463.00,51.950
1464.00,51.960
1465.00,51.973
1466.00,51.982
1467.00,52.002
1468.00,52.044
1469.00,52.030
1470.00,52.039
1471.00,52.067
1472.00,52.081
1473.00,52.096
1474.00,52.127
1475.00,52.134
1476.00,52.152
1477.00,52.156
1478.00,52.182
1479.00,52.217
1480.00,52.210
1481.00,52.217
1482.00,52.261
1483.00,52.283
1484.00,52.284
1485.00,52.265
1486.00,52.287
1487.00,52.317
1488.00,52.345
1489.00,52.324
1490.00,52.341
1491.00,52.368
1492.00,52.376
1493.00,52.379
1494.00,52.434
1495.00,52.406
1496.00,52.436
1497.00,52.409
1498.00,52.435
1499.00,52.453
1500.00,52.460
1501.00, 
1502.00, 
1503.00, 
1504.00, 
1505.00, 
1506.00, 
1507.00, 
1508.00, 
1509.00, 
1510.00, 
1511.00, 
1512.00, 
1513.00, 
1514.00, 
1515.00, 
1516.00, 
1517.00, 
1518.00, 
1519.00, 
1520.00, 
1521.00, 
1522.00, 
1523.00, 
1524.00, 
1525.00, 
1526.00, 
1527.00, 
1528.00, 
1529.00, 
1530.00, 
1531.00, 
1532.00, 
1533.00, 
1534.00, 
1535.00, 
1536.00, 
1537.00, 
1538.00, 
1539.00, 
1540.00, 
1541.00, 
1542.00, 
1543.00, 
1544.00, 
1545.00, 
1546.00, 
1547.00, 
1548.00, 
1549.00, 
1550.00, 
1551.00, 
1552.00, 
1553.00, 
1554.00, 
1555.00, 
1556.00, 
1557.00, 
1558.00, 
1559.00, 
1560.00, 
1561.00, 
1562.00, 
1563.00, 
1564.00, 
1565.00, 
1566.00, 
1567.00, 
1568.00, 
1569.00, 
1570.00, 
1571.00, 
1572.00, 
1573.00, 
1574.00, 
1575.00, 
1576.00, 
1577.00, 
1578.00, 
1579.00, 
1580.00, 
1581.00, 
1582.00, 
1583.00, 
1584.00, 
1585.00, 
1586.00, 
1587.00, 
1588.00, 
1589.00, 
1590.00, 
1591.00, 
1592.00, 
1593.00, 
1594.00, 
1595.00, 
1596.00, 
1597.00, 
1598.00, 
1599.00, 
1600.00, 
1601.00, 
1602.00, 
1603.00, 
1604.00, 
1605.00, 
1606.00, 
1607.00, 
1608.00, 
1609.00, 
1610.00, 
1611.00, 
1612.00, 
1613.00, 
1614.00, 
1615.00, 
1616.00, 
1617.00, 
1618.00, 
1619.00, 
1620.00, 
1621.00, 
1622.00, 
1623.00, 
1624.00, 
1625.00, 
1626.00, 
1627.00, 
1628.00, 
1629.00, 
1630.00, 
1631.00, 
1632.00, 
1633.00, 
1634.00, 
1635.00, 
1636.00, 
1637.00, 
1638.00, 
1639.00, 
1640.00, 
1641.00, 
1642.00, 
1643.00, 
1644.00, 
1645.00, 
1646.00, 
1647.00, 
1648.00, 
1649.00, 
1650.00, 
1651.00, 
1652.00, 
1653.00, 
1654.00, 
1655.00, 
1656.00, 
1657.00, 
1658.00, 
1659.00, 
1660.00, 
1661.00, 
1662.00, 
1663.00, 
1664.00, 
1665.00, 
1666.00, 
1667.00, 
1668.00, 
1669.00, 
1670.00, 
1671.00, 
1672.00, 
1673.00, 
1674.00, 
1675.00, 
1676.00, 
1677.00, 
1678.00, 
1679.00, 
1680.00, 
1681.00, 
1682.00, 
1683.00, 
1684.00, 
1685.00, 
1686.00, 
1687.00, 
1688.00, 
1689.00, 
1690.00, 
1691.00, 
1692.00, 
1693.00, 
1694.00, 
1695.00, 
1696.00, 
1697.00, 
1698.00, 
1699.00, 
1700.00, 
1701.00, 
1702.00, 
1703.00, 
1704.00, 
1705.00, 
1706.00, 
1707.00, 
1708.00, 
1709.00, 
1710.00, 
1711.00, 
1712.00, 
1713.00, 
1714.00, 
1715.00, 
1716.00, 
1717.00, 
1718.00, 
1719.00, 
1720.00, 
1721.00, 
1722.00, 
1723.00, 
1724.00, 
1725.00, 
1726.00, 
1727.00, 
1728.00, 
1729.00, 
1730.00, 
1731.00, 
1732.00, 
1733.00, 
1734.00, 
1735.00, 
1736.00, 
1737.00, 
1738.00, 
1739.00, 
1740.00, 
1741.00, 
1742.00, 
1743.00, 
1744.00, 
1745.00, 
1746.00, 
1747.00, 
1748.00, 
1749.00, 
1750.00, 
1751.00, 
1752.00, 
1753.00, 
1754.00, 
1755.00, 
1756.00, 
1757.00, 
1758.00, 
1759.00, 
1760.00, 
1761.00, 
1762.00, 
1763.00, 
1764.00, 
1765.00, 
1766.00, 
1767.00, 
1768.00, 
1769.00, 
1770.00, 
1771.00, 
1772.00, 
1773.00, 
1774.00, 
1775.00, 
1776.00, 
1777.00, 
1778.00, 
1779.00, 
1780.00, 
1781.00, 
1782.00, 
1783.00, 
1784.00, 
1785.00, 
1786.00, 
1787.00, 
1788.00, 
1789.00, 
1790.00, 
1791.00, 
1792.00, 
1793.00, 
1794.00, 
1795.00, 
1796.00, 
1797.00, 
1798.00, 
1799.00, 
1800.00, 
1801.00, 
1802.00, 
1803.00, 
1804.00, 
1805.00, 
1806.00, 
1807.00, 
1808.00, 
1809.00, 
1810.00, 
1811.00, 
1812.00, 
1813.00, 
1814.00, 
1815.00, 
1816.00, 
1817.00, 
1818.00, 
1819.00, 
1820.00, 
1821.00, 
1822.00, 
1823.00, 
1824.00, 
1825.00, 
1826.00, 
1827.00, 
1828.00, 
1829.00, 
1830.00, 
1831.00, 
1832.00, 
1833.00, 
1834.00, 
1835.00, 
1836.00, 
1837.00, 
1838.00, 
1839.00, 
1840.00, 
1841.00, 
1842.00, 
1843.00, 
1844.00, 
1845.00, 
1846.00, 
1847.00, 
1848.00, 
1849.00, 
1850.00, 
1851.00, 
1852.00, 
1853.00, 
1854.00, 
1855.00, 
1856.00, 
1857.00, 
1858.00, 
1859.00, 
1860.00, 
1861.00, 
1862.00, 
1863.00, 
1864.00, 
1865.00, 
1866.00, 
1867.00, 
1868.00, 
1869.00, 
1870.00, 
1871.00, 
1872.00, 
1873.00, 
1874.00, 
1875.00, 
1876.00, 
1877.00, 
1878.00, 
1879.00, 
1880.00, 
1881.00, 
1882.00, 
1883.00, 
1884.00, 
1885.00, 
1886.00, 
1887.00, 
1888.00, 
1889.00, 
1890.00, 
1891.00, 
1892.00, 
1893.00, 
1894.00, 
1895.00, 
1896.00, 
1897.00, 
1898.00, 
1899.00, 
1900.00, 
1901.00, 
1902.00, 
1903.00, 
1904.00, 
1905.00, 
1906.00, 
1907.00, 
1908.00, 
1909.00, 
1910.00, 
1911.00, 
1912.00, 
1913.00, 
1914.00, 
1915.00, 
1916.00, 
1917.00, 
1918.00, 
1919.00, 
1920.00, 
1921.00, 
1922.00, 
1923.00, 
1924.00, 
1925.00, 
1926.00, 
1927.00, 
1928.00, 
1929.00, 
1930.00, 
1931.00, 
1932.00, 
1933.00, 
1934.00, 
1935.00, 
1936.00, 
1937.00, 
1938.00, 
1939.00, 
1940.00, 
1941.00, 
1942.00, 
1943.00, 
1944.00, 
1945.00, 
1946.00, 
1947.00, 
1948.00, 
1949.00, 
1950.00, 
1951.00, 
1952.00, 
1953.00, 
1954.00, 
1955.00, 
1956.00, 
1957.00, 
1958.00, 
1959.00, 
1960.00, 
1961.00, 
1962.00, 
1963.00, 
1964.00, 
1965.00, 
1966.00, 
1967.00, 
1968.00, 
1969.00, 
1970.00, 
1971.00, 
1972.00, 
1973.00, 
1974.00, 
1975.00, 
1976.00, 
1977.00, 
1978.00, 
1979.00, 
1980.00, 
1981.00, 
1982.00, 
1983.00, 
1984.00, 
1985.00, 
1986.00, 
1987.00, 
1988.00, 
1989.00, 
1990.00, 
1991.00, 
1992.00, 
1993.00, 
1994.00, 
1995.00, 
1996.00, 
1997.00, 
1998.00, 
1999.00, 
2000.00, 
2001.00, 
2002.00, 
2003.00, 
2004.00, 
2005.00, 
2006.00, 
2007.00, 
2008.00, 
2009.00, 
2010.00, 
2011.00, 
2012.00, 
2013.00, 
2014.00, 
2015.00, 
2016.00, 
2017.00, 
2018.00, 
2019.00, 
2020.00, 
2021.00, 
2022.00, 
2023.00, 
2024.00, 
2025.00, 
2026.00, 
2027.00, 
2028.00, 
2029.00, 
2030.00, 
2031.00, 
2032.00, 
2033.00, 
2034.00, 
2035.00, 
2036.00, 
2037.00, 
2038.00, 
2039.00, 
2040.00, 
2041.00, 
2042.00, 
2043.00, 
2044.00, 
2045.00, 
2046.00, 
2047.00, 
2048.00, 
2049.00, 
2050.00, 
2051.00, 
2052.00, 
2053.00, 
2054.00, 
2055.00, 
2056.00, 
2057.00, 
2058.00, 
2059.00, 
2060.00, 
2061.00, 
2062.00, 
2063.00, 
2064.00, 
2065.00, 
2066.00, 
2067.00, 
2068.00, 
2069.00, 
2070.00, 
2071.00, 
2072.00, 
2073.00, 
2074.00, 
2075.00, 
2076.00, 
2077.00, 
2078.00, 
2079.00, 
2080.00, 
2081.00, 
2082.00, 
2083.00, 
2084.00, 
2085.00, 
2086.00, 
2087.00, 
2088.00, 
2089.00, 
2090.00, 
2091.00, 
2092.00, 
2093.00, 
2094.00, 
2095.00, 
2096.00, 
2097.00, 
2098.00, 
2099.00, 
2100.00, 
2101.00, 
2102.00, 
2103.00, 
2104.00, 
2105.00, 
2106.00, 
2107.00, 
2108.00, 
2109.00, 
2110.00, 
2111.00, 
2112.00, 
2113.00, 
2114.00, 
2115.00, 
2116.00, 
2117.00, 
2118.00, 
2119.00, 
2120.00, 
2121.00, 
2122.00, 
2123.00, 
2124.00, 
2125.00, 
2126.00, 
2127.00, 
2128.00, 
2129.00, 
2130.00, 
2131.00, 
2132.00, 
2133.00, 
2134.00, 
2135.00, 
2136.00, 
2137.00, 
2138.00, 
2139.00, 
2140.00, 
2141.00, 
2142.00, 
2143.00, 
2144.00, 
2145.00, 
2146.00, 
2147.00, 
2148.00, 
2149.00, 
2150.00, 
2151.00, 
2152.00, 
2153.00, 
2154.00, 
2155.00, 
2156.00, 
2157.00, 
2158.00, 
2159.00, 
2160.00, 
2161.00, 
2162.00, 
2163.00, 
2164.00, 
2165.00, 
2166.00, 
2167.00, 
2168.00, 
2169.00, 
2170.00, 
2171.00, 
2172.00, 
2173.00, 
2174.00, 
2175.00, 
2176.00, 
2177.00, 
2178.00, 
2179.00, 
2180.00, 
2181.00, 
2182.00, 
2183.00, 
2184.00, 
2185.00, 
2186.00, 
2187.00, 
2188.00, 
2189.00, 
2190.00, 
2191.00, 
2192.00, 
2193.00, 
2194.00, 
2195.00, 
2196.00, 
2197.00, 
2198.00, 
2199.00, 
2200.00, 
2201.00, 
2202.00, 
2203.00, 
2204.00, 
2205.00, 
2206.00, 
2207.00, 
2208.00, 
2209.00, 
2210.00, 
2211.00, 
2212.00, 
2213.00, 
2214.00, 
2215.00, 
2216.00, 
2217.00, 
2218.00, 
2219.00, 
2220.00, 
2221.00, 
2222.00, 
2223.00, 
2224.00, 
2225.00, 
2226.00, 
2227.00, 
2228.00, 
2229.00, 
2230.00, 
2231.00, 
2232.00, 
2233.00, 
2234.00, 
2235.00, 
2236.00, 
2237.00, 
2238.00, 
2239.00, 
2240.00, 
2241.00, 
2242.00, 
2243.00, 
2244.00, 
2245.00, 
2246.00, 
2247.00, 
2248.00, 
2249.00, 
2250.00, 
2251.00, 
2252.00, 
2253.00, 
2254.00, 
2255.00, 
2256.00, 
2257.00, 
2258.00, 
2259.00, 
2260.00, 
2261.00, 
2262.00, 
2263.00, 
2264.00, 
2265.00, 
2266.00, 
2267.00, 
2268.00, 
2269.00, 
2270.00, 
2271.00, 
2272.00, 
2273.00, 
2274.00, 
2275.00, 
2276.00, 
2277.00, 
2278.00, 
2279.00, 
2280.00, 
2281.00, 
2282.00, 
2283.00, 
2284.00, 
2285.00, 
2286.00, 
2287.00, 
2288.00, 
2289.00, 
2290.00, 
2291.00, 
2292.00, 
2293.00, 
2294.00, 
2295.00, 
2296.00, 
2297.00, 
2298.00, 
2299.00, 
2300.00, 
2301.00, 
2302.00, 
2303.00, 
2304.00, 
2305.00, 
2306.00, 
2307.00, 
2308.00, 
2309.00, 
2310.00, 
2311.00, 
2312.00, 
2313.00, 
2314.00, 
2315.00, 
2316.00, 
2317.00, 
2318.00, 
2319.00, 
2320.00, 
2321.00, 
2322.00, 
2323.00, 
2324.00, 
2325.00, 
2326.00, 
2327.00, 
2328.00, 
2329.00, 
2330.00, 
2331.00, 
2332.00, 
2333.00, 
2334.00, 
2335.00, 
2336.00, 
2337.00, 
2338.00, 
2339.00, 
2340.00, 
2341.00, 
2342.00, 
2343.00, 
2344.00, 
2345.00, 
2346.00, 
2347.00, 
2348.00, 
2349.00, 
2350.00, 
2351.00, 
2352.00, 
2353.00, 
2354.00, 
2355.00, 
2356.00, 
2357.00, 
2358.00, 
2359.00, 
2360.00, 
2361.00, 
2362.00, 
2363.00, 
2364.00, 
2365.00, 
2366.00, 
2367.00, 
2368.00, 
2369.00, 
2370.00, 
2371.00, 
2372.00, 
2373.00, 
2374.00, 
2375.00, 
2376.00, 
2377.00, 
2378.00, 
2379.00, 
2380.00, 
2381.00, 
2382.00, 
2383.00, 
2384.00, 
2385.00, 
2386.00, 
2387.00, 
2388.00, 
2389.00, 
2390.00, 
2391.00, 
2392.00, 
2393.00, 
2394.00, 
2395.00, 
2396.00, 
2397.00, 
2398.00, 
2399.00, 
2400.00, 
2401.00, 
2402.00, 
2403.00, 
2404.00, 
2405.00, 
2406.00, 
2407.00, 
2408.00, 
2409.00, 
2410.00, 
2411.00, 
2412.00, 
2413.00, 
2414.00, 
2415.00, 
2416.00, 
2417.00, 
2418.00, 
2419.00, 
2420.00, 
2421.00, 
2422.00, 
2423.00, 
2424.00, 
2425.00, 
2426.00, 
2427.00, 
2428.00, 
2429.00, 
2430.00, 
2431.00, 
2432.00, 
2433.00, 
2434.00, 
2435.00, 
2436.00, 
2437.00, 
2438.00, 
2439.00, 
2440.00, 
2441.00, 
2442.00, 
2443.00, 
2444.00, 
2445.00, 
2446.00, 
2447.00, 
2448.00, 
2449.00, 
2450.00, 
2451.00, 
2452.00, 
2453.00, 
2454.00, 
2455.00, 
2456.00, 
2457.00, 
2458.00, 
2459.00, 
2460.00, 
2461.00, 
2462.00, 
2463.00, 
2464.00, 
2465.00, 
2466.00, 
2467.00, 
2468.00, 
2469.00, 
2470.00, 
2471.00, 
2472.00, 
2473.00, 
2474.00, 
2475.00, 
2476.00, 
2477.00, 
2478.00, 
2479.00, 
2480.00, 
2481.00, 
2482.00, 
2483.00, 
2484.00, 
2485.00, 
2486.00, 
2487.00, 
2488.00, 
2489.00, 
2490.00, 
2491.00, 
2492.00, 
2493.00, 
2494.00, 
2495.00, 
2496.00, 
2497.00, 
2498.00, 
2499.00, 
2500.00, 
2501.00, 
2502.00, 
2503.00, 
2504.00, 
2505.00, 
2506.00, 
2507.00, 
2508.00, 
2509.00, 
2510.00, 
2511.00, 
2512.00, 
2513.00, 
2514.00, 
2515.00, 
2516.00, 
2517.00, 
2518.00, 
2519.00, 
2520.00, 
2521.00, 
2522.00, 
2523.00, 
2524.00, 
2525.00, 
2526.00, 
2527.00, 
2528.00, 
2529.00, 
2530.00, 
2531.00, 
2532.00, 
2533.00, 
2534.00, 
2535.00, 
2536.00, 
2537.00, 
2538.00, 
2539.00, 
2540.00, 
2541.00, 
2542.00, 
2543.00, 
2544.00, 
2545.00, 
2546.00, 
2547.00, 
2548.00, 
2549.00, 
2550.00, 
2551.00, 
2552.00, 
2553.00, 
2554.00, 
2555.00, 
2556.00, 
2557.00, 
2558.00, 
2559.00, 
2560.00, 
2561.00, 
2562.00, 
2563.00, 
2564.00, 
2565.00, 
2566.00, 
2567.00, 
2568.00, 
2569.00, 
2570.00, 
2571.00, 
2572.00, 
2573.00, 
2574.00, 
2575.00, 
2576.00, 
2577.00, 
2578.00, 
2579.00, 
2580.00, 
2581.00, 
2582.00, 
2583.00, 
2584.00, 
2585.00, 
2586.00, 
2587.00, 
2588.00, 
2589.00, 
2590.00, 
2591.00, 
2592.00, 
2593.00, 
2594.00, 
2595.00, 
2596.00, 
2597.00, 
2598.00, 
2599.00, 
2600.00, 
