"2cP5 - RawData"
"Wavelength nm.","T%"
200.00,-0.001
201.00,0.003
202.00,0.003
203.00,0.004
204.00,-0.003
205.00,-0.001
206.00,-0.001
207.00,-0.001
208.00,0.001
209.00,0.001
210.00,0.002
211.00,0.002
212.00,-0.001
213.00,0.002
214.00,-0.001
215.00,-0.001
216.00,0.002
217.00,0.002
218.00,0.002
219.00,-0.002
220.00,0.000
221.00,0.001
222.00,0.002
223.00,0.003
224.00,0.002
225.00,0.002
226.00,0.001
227.00,-0.003
228.00,-0.001
229.00,0.001
230.00,-0.000
231.00,0.000
232.00,0.001
233.00,0.003
234.00,0.002
235.00,0.001
236.00,-0.001
237.00,0.001
238.00,-0.000
239.00,0.002
240.00,-0.001
241.00,0.001
242.00,0.002
243.00,0.002
244.00,0.000
245.00,-0.001
246.00,0.001
247.00,-0.001
248.00,0.001
249.00,0.002
250.00,0.002
251.00,0.003
252.00,0.001
253.00,-0.001
254.00,-0.001
255.00,0.000
256.00,0.001
257.00,0.000
258.00,-0.002
259.00,-0.000
260.00,0.002
261.00,-0.001
262.00,0.001
263.00,-0.001
264.00,-0.001
265.00,0.000
266.00,-0.002
267.00,-0.000
268.00,-0.002
269.00,0.000
270.00,0.001
271.00,-0.000
272.00,0.001
273.00,0.001
274.00,-0.000
275.00,-0.000
276.00,0.000
277.00,-0.000
278.00,-0.000
279.00,-0.001
280.00,-0.001
281.00,-0.001
282.00,0.001
283.00,-0.000
284.00,-0.000
285.00,-0.000
286.00,-0.001
287.00,-0.001
288.00,-0.001
289.00,0.000
290.00,0.000
291.00,-0.001
292.00,-0.000
293.00,0.001
294.00,-0.000
295.00,-0.001
296.00,-0.001
297.00,0.000
298.00,0.001
299.00,0.002
300.00,0.002
301.00,0.004
302.00,0.006
303.00,0.008
304.00,0.012
305.00,0.018
306.00,0.025
307.00,0.037
308.00,0.059
309.00,0.091
310.00,0.130
311.00,0.174
312.00,0.240
313.00,0.327
314.00,0.436
315.00,0.549
316.00,0.714
317.00,0.902
318.00,1.095
319.00,1.365
320.00,1.657
321.00,1.983
322.00,2.341
323.00,2.769
324.00,3.193
325.00,3.655
326.00,4.108
327.00,4.643
328.00,5.161
329.00,5.736
330.00,6.323
331.00,6.880
332.00,7.483
333.00,8.116
334.00,8.711
335.00,9.334
336.00,9.931
337.00,10.541
338.00,11.138
339.00,11.690
340.00,12.306
341.00,12.829
342.00,13.349
343.00,13.828
344.00,14.256
345.00,14.809
346.00,15.203
347.00,15.655
348.00,16.011
349.00,16.408
350.00,16.739
351.00,17.049
352.00,17.346
353.00,17.626
354.00,17.880
355.00,18.105
356.00,18.346
357.00,18.539
358.00,18.735
359.00,18.965
360.00,19.152
361.00,19.263
362.00,19.399
363.00,19.572
364.00,19.661
365.00,19.728
366.00,19.805
367.00,19.885
368.00,19.935
369.00,19.988
370.00,20.042
371.00,20.044
372.00,20.047
373.00,20.059
374.00,20.055
375.00,20.088
376.00,20.039
377.00,19.978
378.00,19.882
379.00,19.887
380.00,19.776
381.00,19.841
382.00,19.819
383.00,19.825
384.00,19.856
385.00,19.876
386.00,19.913
387.00,19.944
388.00,19.979
389.00,19.963
390.00,19.974
391.00,20.025
392.00,20.036
393.00,20.059
394.00,20.014
395.00,20.044
396.00,20.060
397.00,20.066
398.00,20.073
399.00,20.058
400.00,20.079
401.00,20.075
402.00,20.083
403.00,20.066
404.00,20.091
405.00,20.083
406.00,20.026
407.00,20.002
408.00,20.009
409.00,20.003
410.00,19.948
411.00,19.948
412.00,19.925
413.00,19.926
414.00,19.930
415.00,19.940
416.00,20.004
417.00,19.967
418.00,20.016
419.00,20.068
420.00,20.126
421.00,20.158
422.00,20.168
423.00,20.231
424.00,20.253
425.00,20.298
426.00,20.326
427.00,20.381
428.00,20.422
429.00,20.456
430.00,20.503
431.00,20.573
432.00,20.637
433.00,20.677
434.00,20.750
435.00,20.830
436.00,20.859
437.00,20.964
438.00,20.999
439.00,21.098
440.00,21.168
441.00,21.221
442.00,21.331
443.00,21.414
444.00,21.497
445.00,21.618
446.00,21.683
447.00,21.800
448.00,21.902
449.00,22.002
450.00,22.123
451.00,22.177
452.00,22.314
453.00,22.435
454.00,22.536
455.00,22.638
456.00,22.777
457.00,22.854
458.00,22.971
459.00,23.121
460.00,23.256
461.00,23.377
462.00,23.512
463.00,23.612
464.00,23.752
465.00,23.904
466.00,24.046
467.00,24.168
468.00,24.300
469.00,24.413
470.00,24.493
471.00,24.602
472.00,24.752
473.00,24.840
474.00,24.978
475.00,25.067
476.00,25.188
477.00,25.314
478.00,25.456
479.00,25.618
480.00,25.773
481.00,25.884
482.00,26.061
483.00,26.178
484.00,26.351
485.00,26.483
486.00,26.673
487.00,26.826
488.00,26.951
489.00,27.160
490.00,27.295
491.00,27.428
492.00,27.672
493.00,27.785
494.00,27.739
495.00,27.957
496.00,28.002
497.00,28.233
498.00,28.358
499.00,28.533
500.00,28.697
501.00,28.802
502.00,28.944
503.00,29.076
504.00,29.133
505.00,29.264
506.00,29.414
507.00,29.513
508.00,29.628
509.00,29.778
510.00,29.945
511.00,30.021
512.00,30.200
513.00,30.321
514.00,30.417
515.00,30.605
516.00,30.719
517.00,30.783
518.00,30.935
519.00,30.967
520.00,31.029
521.00,31.155
522.00,31.244
523.00,31.314
524.00,31.425
525.00,31.548
526.00,31.630
527.00,31.732
528.00,31.787
529.00,31.970
530.00,32.127
531.00,32.239
532.00,32.312
533.00,32.433
534.00,32.522
535.00,32.629
536.00,32.704
537.00,32.761
538.00,32.852
539.00,32.868
540.00,33.004
541.00,33.023
542.00,33.111
543.00,33.157
544.00,33.232
545.00,33.330
546.00,33.387
547.00,33.490
548.00,33.574
549.00,33.625
550.00,33.753
551.00,33.820
552.00,33.880
553.00,33.961
554.00,34.032
555.00,34.044
556.00,34.105
557.00,34.183
558.00,34.258
559.00,34.316
560.00,34.353
561.00,34.452
562.00,34.511
563.00,34.544
564.00,34.621
565.00,34.621
566.00,34.659
567.00,34.685
568.00,34.763
569.00,34.811
570.00,34.828
571.00,34.893
572.00,34.915
573.00,34.934
574.00,34.970
575.00,35.005
576.00,35.014
577.00,35.041
578.00,35.202
579.00,35.232
580.00,35.235
581.00,35.383
582.00,35.483
583.00,35.475
584.00,35.582
585.00,35.686
586.00,35.700
587.00,35.787
588.00,35.796
589.00,35.763
590.00,35.873
591.00,35.938
592.00,35.922
593.00,35.974
594.00,35.989
595.00,36.134
596.00,36.264
597.00,36.335
598.00,36.290
599.00,36.359
600.00,36.385
601.00,36.461
602.00,36.416
603.00,36.423
604.00,36.516
605.00,36.589
606.00,36.586
607.00,36.602
608.00,36.764
609.00,36.902
610.00,36.768
611.00,36.827
612.00,36.855
613.00,36.909
614.00,36.956
615.00,37.073
616.00,37.155
617.00,37.163
618.00,37.191
619.00,37.258
620.00,37.271
621.00,37.400
622.00,37.454
623.00,37.526
624.00,37.622
625.00,37.629
626.00,37.689
627.00,37.771
628.00,37.788
629.00,37.849
630.00,37.925
631.00,38.032
632.00,38.170
633.00,38.193
634.00,38.286
635.00,38.363
636.00,38.365
637.00,38.445
638.00,38.511
639.00,38.647
640.00,38.595
641.00,38.690
642.00,38.759
643.00,38.908
644.00,38.984
645.00,39.069
646.00,39.178
647.00,39.250
648.00,39.318
649.00,39.349
650.00,39.401
651.00,39.556
652.00,39.713
653.00,39.695
654.00,39.736
655.00,39.964
656.00,40.200
657.00,40.159
658.00,40.208
659.00,40.277
660.00,40.272
661.00,40.393
662.00,40.537
663.00,40.632
664.00,40.817
665.00,41.010
666.00,41.065
667.00,41.053
668.00,41.018
669.00,41.400
670.00,41.540
671.00,41.536
672.00,41.668
673.00,41.604
674.00,41.625
675.00,41.812
676.00,42.195
677.00,42.265
678.00,42.126
679.00,42.249
680.00,42.403
681.00,42.574
682.00,42.714
683.00,42.670
684.00,42.769
685.00,42.864
686.00,42.947
687.00,43.092
688.00,43.043
689.00,43.145
690.00,43.351
691.00,43.497
692.00,43.500
693.00,43.615
694.00,43.742
695.00,43.948
696.00,43.884
697.00,43.744
698.00,44.125
699.00,44.557
700.00,44.473
701.00,44.430
702.00,44.477
703.00,44.712
704.00,44.716
705.00,44.645
706.00,44.811
707.00,44.911
708.00,44.754
709.00,45.169
710.00,45.487
711.00,45.210
712.00,45.368
713.00,45.468
714.00,45.688
715.00,45.580
716.00,45.711
717.00,45.826
718.00,45.973
719.00,46.013
720.00,45.988
721.00,50.339
722.00,50.425
723.00,50.497
724.00,50.462
725.00,50.499
726.00,50.496
727.00,50.588
728.00,50.605
729.00,50.692
730.00,50.789
731.00,50.806
732.00,50.799
733.00,50.870
734.00,50.904
735.00,50.996
736.00,51.104
737.00,51.071
738.00,51.067
739.00,51.128
740.00,51.237
741.00,51.329
742.00,51.287
743.00,51.292
744.00,51.378
745.00,51.295
746.00,51.394
747.00,51.333
748.00,51.365
749.00,51.367
750.00,51.421
751.00,51.336
752.00,51.399
753.00,51.396
754.00,51.356
755.00,51.461
756.00,51.570
757.00,51.522
758.00,51.488
759.00,51.542
760.00,51.508
761.00,51.608
762.00,51.625
763.00,51.661
764.00,51.664
765.00,51.662
766.00,51.746
767.00,51.803
768.00,51.718
769.00,51.794
770.00,51.797
771.00,51.849
772.00,51.805
773.00,51.867
774.00,51.844
775.00,51.894
776.00,51.928
777.00,51.936
778.00,51.924
779.00,51.948
780.00,51.966
781.00,51.992
782.00,51.953
783.00,51.900
784.00,51.964
785.00,51.882
786.00,51.965
787.00,51.916
788.00,51.889
789.00,51.924
790.00,51.899
791.00,51.987
792.00,51.904
793.00,51.936
794.00,51.899
795.00,51.957
796.00,51.967
797.00,51.862
798.00,51.933
799.00,51.925
800.00,51.914
801.00,51.821
802.00,51.919
803.00,51.815
804.00,51.874
805.00,51.849
806.00,51.821
807.00,51.768
808.00,51.851
809.00,51.851
810.00,51.723
811.00,51.784
812.00,51.835
813.00,51.783
814.00,51.824
815.00,51.770
816.00,51.828
817.00,51.775
818.00,51.735
819.00,51.690
820.00,51.640
821.00,51.710
822.00,51.609
823.00,51.668
824.00,51.678
825.00,51.676
826.00,51.647
827.00,51.714
828.00,51.619
829.00,51.662
830.00,51.596
831.00,53.802
832.00,53.812
833.00,53.698
834.00,53.756
835.00,53.691
836.00,53.739
837.00,53.687
838.00,53.712
839.00,53.716
840.00,53.630
841.00,53.664
842.00,53.653
843.00,53.667
844.00,53.639
845.00,53.578
846.00,53.613
847.00,53.537
848.00,53.435
849.00,53.489
850.00,53.493
851.00,53.414
852.00,53.434
853.00,53.404
854.00,53.344
855.00,53.321
856.00,53.306
857.00,53.306
858.00,53.240
859.00,53.238
860.00,53.254
861.00,53.226
862.00,53.183
863.00,53.232
864.00,53.151
865.00,53.201
866.00,53.144
867.00,53.176
868.00,53.140
869.00,53.118
870.00,53.160
871.00,53.090
872.00,53.075
873.00,53.197
874.00,53.138
875.00,53.061
876.00,53.093
877.00,53.067
878.00,53.092
879.00,53.007
880.00,53.038
881.00,52.998
882.00,53.001
883.00,52.984
884.00,52.948
885.00,52.922
886.00,52.925
887.00,52.903
888.00,52.890
889.00,52.860
890.00,52.877
891.00,52.834
892.00,52.806
893.00,52.780
894.00,52.793
895.00,52.749
896.00,52.738
897.00,52.720
898.00,52.679
899.00,52.718
900.00,52.692
901.00,52.666
902.00,52.679
903.00,52.630
904.00,52.599
905.00,52.612
906.00,52.625
907.00,52.587
908.00,52.562
909.00,52.569
910.00,52.540
911.00,52.510
912.00,52.522
913.00,52.445
914.00,52.439
915.00,52.433
916.00,52.412
917.00,52.370
918.00,52.382
919.00,52.350
920.00,52.314
921.00,52.325
922.00,52.295
923.00,52.280
924.00,52.253
925.00,52.250
926.00,52.236
927.00,52.231
928.00,52.192
929.00,52.207
930.00,52.149
931.00,52.162
932.00,52.094
933.00,52.121
934.00,52.104
935.00,52.088
936.00,52.038
937.00,52.022
938.00,52.014
939.00,52.024
940.00,51.977
941.00,51.976
942.00,51.948
943.00,51.947
944.00,51.889
945.00,51.897
946.00,51.894
947.00,51.838
948.00,51.836
949.00,51.822
950.00,51.799
951.00,51.785
952.00,51.757
953.00,51.715
954.00,51.716
955.00,51.690
956.00,51.680
957.00,51.618
958.00,51.647
959.00,51.599
960.00,51.584
961.00,51.544
962.00,51.552
963.00,51.502
964.00,51.487
965.00,51.517
966.00,51.487
967.00,51.503
968.00,51.451
969.00,51.481
970.00,51.462
971.00,51.476
972.00,51.421
973.00,51.482
974.00,51.485
975.00,51.454
976.00,51.497
977.00,51.448
978.00,51.502
979.00,51.445
980.00,51.456
981.00,51.484
982.00,51.416
983.00,51.462
984.00,51.434
985.00,51.454
986.00,51.394
987.00,51.448
988.00,51.406
989.00,51.397
990.00,51.413
991.00,51.365
992.00,51.395
993.00,51.363
994.00,51.344
995.00,51.335
996.00,51.298
997.00,51.290
998.00,51.301
999.00,51.288
1000.00,51.242
1001.00,51.258
1002.00,51.231
1003.00,51.210
1004.00,51.254
1005.00,51.168
1006.00,51.218
1007.00,51.172
1008.00,51.162
1009.00,51.153
1010.00,51.129
1011.00,51.126
1012.00,51.100
1013.00,51.100
1014.00,51.072
1015.00,51.081
1016.00,51.049
1017.00,51.033
1018.00,51.023
1019.00,50.993
1020.00,51.004
1021.00,50.965
1022.00,50.971
1023.00,50.924
1024.00,50.912
1025.00,50.903
1026.00,50.904
1027.00,50.873
1028.00,50.860
1029.00,50.861
1030.00,50.821
1031.00,50.840
1032.00,50.795
1033.00,50.801
1034.00,50.783
1035.00,50.728
1036.00,50.708
1037.00,50.692
1038.00,50.678
1039.00,50.650
1040.00,50.643
1041.00,50.613
1042.00,50.609
1043.00,50.586
1044.00,50.602
1045.00,50.605
1046.00,50.565
1047.00,50.597
1048.00,50.612
1049.00,50.621
1050.00,50.616
1051.00,50.658
1052.00,50.648
1053.00,50.663
1054.00,50.646
1055.00,50.683
1056.00,50.703
1057.00,50.670
1058.00,50.676
1059.00,50.678
1060.00,50.666
1061.00,50.659
1062.00,50.653
1063.00,50.641
1064.00,50.658
1065.00,50.655
1066.00,50.623
1067.00,50.612
1068.00,50.628
1069.00,50.607
1070.00,50.597
1071.00,50.564
1072.00,50.590
1073.00,50.575
1074.00,50.563
1075.00,50.561
1076.00,50.549
1077.00,50.535
1078.00,50.516
1079.00,50.518
1080.00,50.514
1081.00,50.483
1082.00,50.476
1083.00,50.472
1084.00,50.455
1085.00,50.448
1086.00,50.448
1087.00,50.438
1088.00,50.422
1089.00,50.418
1090.00,50.402
1091.00,50.420
1092.00,50.424
1093.00,50.398
1094.00,50.391
1095.00,50.369
1096.00,50.344
1097.00,50.350
1098.00,50.332
1099.00,50.323
1100.00,50.311
1101.00,50.299
1102.00,50.307
1103.00,50.312
1104.00,50.282
1105.00,50.293
1106.00,50.282
1107.00,50.279
1108.00,50.272
1109.00,50.253
1110.00,50.245
1111.00,50.238
1112.00,50.214
1113.00,50.212
1114.00,50.210
1115.00,50.204
1116.00,50.197
1117.00,50.182
1118.00,50.166
1119.00,50.170
1120.00,50.161
1121.00,50.172
1122.00,50.151
1123.00,50.131
1124.00,50.127
1125.00,50.151
1126.00,50.133
1127.00,50.115
1128.00,50.102
1129.00,50.079
1130.00,50.064
1131.00,50.057
1132.00,50.038
1133.00,50.041
1134.00,50.045
1135.00,50.035
1136.00,50.032
1137.00,50.031
1138.00,50.033
1139.00,50.034
1140.00,50.027
1141.00,50.036
1142.00,50.031
1143.00,50.014
1144.00,49.995
1145.00,49.993
1146.00,49.993
1147.00,49.977
1148.00,49.974
1149.00,49.990
1150.00,49.972
1151.00,49.972
1152.00,49.962
1153.00,49.972
1154.00,49.982
1155.00,49.962
1156.00,49.932
1157.00,49.934
1158.00,49.942
1159.00,49.930
1160.00,49.924
1161.00,49.929
1162.00,49.923
1163.00,49.920
1164.00,49.923
1165.00,49.920
1166.00,49.933
1167.00,49.916
1168.00,49.937
1169.00,49.929
1170.00,49.919
1171.00,49.898
1172.00,49.896
1173.00,49.896
1174.00,49.909
1175.00,49.909
1176.00,49.909
1177.00,49.911
1178.00,49.898
1179.00,49.908
1180.00,49.902
1181.00,49.925
1182.00,49.917
1183.00,49.893
1184.00,49.905
1185.00,49.890
1186.00,49.876
1187.00,49.897
1188.00,49.879
1189.00,49.865
1190.00,49.864
1191.00,49.857
1192.00,49.872
1193.00,49.866
1194.00,49.869
1195.00,49.846
1196.00,49.870
1197.00,49.876
1198.00,49.866
1199.00,49.873
1200.00,49.855
1201.00,49.891
1202.00,49.880
1203.00,49.855
1204.00,49.845
1205.00,49.857
1206.00,49.849
1207.00,49.859
1208.00,49.829
1209.00,49.829
1210.00,49.845
1211.00,49.832
1212.00,49.844
1213.00,49.818
1214.00,49.824
1215.00,49.831
1216.00,49.821
1217.00,49.836
1218.00,49.844
1219.00,49.837
1220.00,49.822
1221.00,49.844
1222.00,49.815
1223.00,49.833
1224.00,49.838
1225.00,49.825
1226.00,49.833
1227.00,49.816
1228.00,49.837
1229.00,49.848
1230.00,49.864
1231.00,49.873
1232.00,49.890
1233.00,49.863
1234.00,49.869
1235.00,49.872
1236.00,49.853
1237.00,49.854
1238.00,49.868
1239.00,49.880
1240.00,49.882
1241.00,49.879
1242.00,49.896
1243.00,49.902
1244.00,49.873
1245.00,49.908
1246.00,49.914
1247.00,49.881
1248.00,49.893
1249.00,49.901
1250.00,49.912
1251.00,49.906
1252.00,49.908
1253.00,49.900
1254.00,49.927
1255.00,49.906
1256.00,49.881
1257.00,49.882
1258.00,49.926
1259.00,49.919
1260.00,49.931
1261.00,49.931
1262.00,49.931
1263.00,49.922
1264.00,49.919
1265.00,49.928
1266.00,49.901
1267.00,49.924
1268.00,49.946
1269.00,49.937
1270.00,49.938
1271.00,49.946
1272.00,49.956
1273.00,49.975
1274.00,49.973
1275.00,49.979
1276.00,49.992
1277.00,49.990
1278.00,50.010
1279.00,50.015
1280.00,50.006
1281.00,50.018
1282.00,50.016
1283.00,50.005
1284.00,50.013
1285.00,50.013
1286.00,50.010
1287.00,50.017
1288.00,50.012
1289.00,50.013
1290.00,50.037
1291.00,50.034
1292.00,50.036
1293.00,50.037
1294.00,50.047
1295.00,50.061
1296.00,50.051
1297.00,50.054
1298.00,50.079
1299.00,50.045
1300.00,50.051
1301.00,50.068
1302.00,50.095
1303.00,50.113
1304.00,50.083
1305.00,50.088
1306.00,50.116
1307.00,50.098
1308.00,50.113
1309.00,50.131
1310.00,50.105
1311.00,50.102
1312.00,50.118
1313.00,50.122
1314.00,50.144
1315.00,50.159
1316.00,50.146
1317.00,50.181
1318.00,50.165
1319.00,50.163
1320.00,50.191
1321.00,50.337
1322.00,50.348
1323.00,50.357
1324.00,50.328
1325.00,50.325
1326.00,50.344
1327.00,50.320
1328.00,50.305
1329.00,50.314
1330.00,50.306
1331.00,50.322
1332.00,50.307
1333.00,50.306
1334.00,50.342
1335.00,50.354
1336.00,50.387
1337.00,50.440
1338.00,50.480
1339.00,50.531
1340.00,50.590
1341.00,50.648
1342.00,50.707
1343.00,50.749
1344.00,50.781
1345.00,50.856
1346.00,50.888
1347.00,50.919
1348.00,50.943
1349.00,50.948
1350.00,50.962
1351.00,50.983
1352.00,50.956
1353.00,51.100
1354.00,51.018
1355.00,50.963
1356.00,51.030
1357.00,51.017
1358.00,51.001
1359.00,51.080
1360.00,51.029
1361.00,51.105
1362.00,50.984
1363.00,51.121
1364.00,51.222
1365.00,51.039
1366.00,51.050
1367.00,51.040
1368.00,50.962
1369.00,51.053
1370.00,50.981
1371.00,50.979
1372.00,50.996
1373.00,51.014
1374.00,51.003
1375.00,51.001
1376.00,50.956
1377.00,50.940
1378.00,50.988
1379.00,51.016
1380.00,50.989
1381.00,51.050
1382.00,50.956
1383.00,51.017
1384.00,51.046
1385.00,51.028
1386.00,51.029
1387.00,50.966
1388.00,50.942
1389.00,50.912
1390.00,50.969
1391.00,51.042
1392.00,50.986
1393.00,50.871
1394.00,51.011
1395.00,51.087
1396.00,50.907
1397.00,50.830
1398.00,50.957
1399.00,51.069
1400.00,51.016
1401.00,50.950
1402.00,50.907
1403.00,51.035
1404.00,50.984
1405.00,51.025
1406.00,51.023
1407.00,51.021
1408.00,51.089
1409.00,51.021
1410.00,51.048
1411.00,51.045
1412.00,51.050
1413.00,51.070
1414.00,51.086
1415.00,51.023
1416.00,51.111
1417.00,51.125
1418.00,51.087
1419.00,51.116
1420.00,51.100
1421.00,51.131
1422.00,51.160
1423.00,51.183
1424.00,51.183
1425.00,51.188
1426.00,51.183
1427.00,51.239
1428.00,51.223
1429.00,51.204
1430.00,51.256
1431.00,51.261
1432.00,51.267
1433.00,51.291
1434.00,51.277
1435.00,51.320
1436.00,51.336
1437.00,51.317
1438.00,51.346
1439.00,51.383
1440.00,51.383
1441.00,51.397
1442.00,51.399
1443.00,51.403
1444.00,51.472
1445.00,51.435
1446.00,51.455
1447.00,51.473
1448.00,51.488
1449.00,51.511
1450.00,51.521
1451.00,51.530
1452.00,51.558
1453.00,51.554
1454.00,51.571
1455.00,51.597
1456.00,51.602
1457.00,51.600
1458.00,51.614
1459.00,51.616
1460.00,51.665
1461.00,51.662
1462.00,51.704
1463.00,51.721
1464.00,51.719
1465.00,51.734
1466.00,51.734
1467.00,51.756
1468.00,51.792
1469.00,51.791
1470.00,51.791
1471.00,51.821
1472.00,51.832
1473.00,51.838
1474.00,51.857
1475.00,51.858
1476.00,51.887
1477.00,51.886
1478.00,51.904
1479.00,51.946
1480.00,51.931
1481.00,51.931
1482.00,51.959
1483.00,51.976
1484.00,51.972
1485.00,51.995
1486.00,52.004
1487.00,52.000
1488.00,52.029
1489.00,52.044
1490.00,52.026
1491.00,52.055
1492.00,52.082
1493.00,52.059
1494.00,52.089
1495.00,52.086
1496.00,52.106
1497.00,52.088
1498.00,52.098
1499.00,52.131
1500.00,52.138
1501.00, 
1502.00, 
1503.00, 
1504.00, 
1505.00, 
1506.00, 
1507.00, 
1508.00, 
1509.00, 
1510.00, 
1511.00, 
1512.00, 
1513.00, 
1514.00, 
1515.00, 
1516.00, 
1517.00, 
1518.00, 
1519.00, 
1520.00, 
1521.00, 
1522.00, 
1523.00, 
1524.00, 
1525.00, 
1526.00, 
1527.00, 
1528.00, 
1529.00, 
1530.00, 
1531.00, 
1532.00, 
1533.00, 
1534.00, 
1535.00, 
1536.00, 
1537.00, 
1538.00, 
1539.00, 
1540.00, 
1541.00, 
1542.00, 
1543.00, 
1544.00, 
1545.00, 
1546.00, 
1547.00, 
1548.00, 
1549.00, 
1550.00, 
1551.00, 
1552.00, 
1553.00, 
1554.00, 
1555.00, 
1556.00, 
1557.00, 
1558.00, 
1559.00, 
1560.00, 
1561.00, 
1562.00, 
1563.00, 
1564.00, 
1565.00, 
1566.00, 
1567.00, 
1568.00, 
1569.00, 
1570.00, 
1571.00, 
1572.00, 
1573.00, 
1574.00, 
1575.00, 
1576.00, 
1577.00, 
1578.00, 
1579.00, 
1580.00, 
1581.00, 
1582.00, 
1583.00, 
1584.00, 
1585.00, 
1586.00, 
1587.00, 
1588.00, 
1589.00, 
1590.00, 
1591.00, 
1592.00, 
1593.00, 
1594.00, 
1595.00, 
1596.00, 
1597.00, 
1598.00, 
1599.00, 
1600.00, 
1601.00, 
1602.00, 
1603.00, 
1604.00, 
1605.00, 
1606.00, 
1607.00, 
1608.00, 
1609.00, 
1610.00, 
1611.00, 
1612.00, 
1613.00, 
1614.00, 
1615.00, 
1616.00, 
1617.00, 
1618.00, 
1619.00, 
1620.00, 
1621.00, 
1622.00, 
1623.00, 
1624.00, 
1625.00, 
1626.00, 
1627.00, 
1628.00, 
1629.00, 
1630.00, 
1631.00, 
1632.00, 
1633.00, 
1634.00, 
1635.00, 
1636.00, 
1637.00, 
1638.00, 
1639.00, 
1640.00, 
1641.00, 
1642.00, 
1643.00, 
1644.00, 
1645.00, 
1646.00, 
1647.00, 
1648.00, 
1649.00, 
1650.00, 
1651.00, 
1652.00, 
1653.00, 
1654.00, 
1655.00, 
1656.00, 
1657.00, 
1658.00, 
1659.00, 
1660.00, 
1661.00, 
1662.00, 
1663.00, 
1664.00, 
1665.00, 
1666.00, 
1667.00, 
1668.00, 
1669.00, 
1670.00, 
1671.00, 
1672.00, 
1673.00, 
1674.00, 
1675.00, 
1676.00, 
1677.00, 
1678.00, 
1679.00, 
1680.00, 
1681.00, 
1682.00, 
1683.00, 
1684.00, 
1685.00, 
1686.00, 
1687.00, 
1688.00, 
1689.00, 
1690.00, 
1691.00, 
1692.00, 
1693.00, 
1694.00, 
1695.00, 
1696.00, 
1697.00, 
1698.00, 
1699.00, 
1700.00, 
1701.00, 
1702.00, 
1703.00, 
1704.00, 
1705.00, 
1706.00, 
1707.00, 
1708.00, 
1709.00, 
1710.00, 
1711.00, 
1712.00, 
1713.00, 
1714.00, 
1715.00, 
1716.00, 
1717.00, 
1718.00, 
1719.00, 
1720.00, 
1721.00, 
1722.00, 
1723.00, 
1724.00, 
1725.00, 
1726.00, 
1727.00, 
1728.00, 
1729.00, 
1730.00, 
1731.00, 
1732.00, 
1733.00, 
1734.00, 
1735.00, 
1736.00, 
1737.00, 
1738.00, 
1739.00, 
1740.00, 
1741.00, 
1742.00, 
1743.00, 
1744.00, 
1745.00, 
1746.00, 
1747.00, 
1748.00, 
1749.00, 
1750.00, 
1751.00, 
1752.00, 
1753.00, 
1754.00, 
1755.00, 
1756.00, 
1757.00, 
1758.00, 
1759.00, 
1760.00, 
1761.00, 
1762.00, 
1763.00, 
1764.00, 
1765.00, 
1766.00, 
1767.00, 
1768.00, 
1769.00, 
1770.00, 
1771.00, 
1772.00, 
1773.00, 
1774.00, 
1775.00, 
1776.00, 
1777.00, 
1778.00, 
1779.00, 
1780.00, 
1781.00, 
1782.00, 
1783.00, 
1784.00, 
1785.00, 
1786.00, 
1787.00, 
1788.00, 
1789.00, 
1790.00, 
1791.00, 
1792.00, 
1793.00, 
1794.00, 
1795.00, 
1796.00, 
1797.00, 
1798.00, 
1799.00, 
1800.00, 
1801.00, 
1802.00, 
1803.00, 
1804.00, 
1805.00, 
1806.00, 
1807.00, 
1808.00, 
1809.00, 
1810.00, 
1811.00, 
1812.00, 
1813.00, 
1814.00, 
1815.00, 
1816.00, 
1817.00, 
1818.00, 
1819.00, 
1820.00, 
1821.00, 
1822.00, 
1823.00, 
1824.00, 
1825.00, 
1826.00, 
1827.00, 
1828.00, 
1829.00, 
1830.00, 
1831.00, 
1832.00, 
1833.00, 
1834.00, 
1835.00, 
1836.00, 
1837.00, 
1838.00, 
1839.00, 
1840.00, 
1841.00, 
1842.00, 
1843.00, 
1844.00, 
1845.00, 
1846.00, 
1847.00, 
1848.00, 
1849.00, 
1850.00, 
1851.00, 
1852.00, 
1853.00, 
1854.00, 
1855.00, 
1856.00, 
1857.00, 
1858.00, 
1859.00, 
1860.00, 
1861.00, 
1862.00, 
1863.00, 
1864.00, 
1865.00, 
1866.00, 
1867.00, 
1868.00, 
1869.00, 
1870.00, 
1871.00, 
1872.00, 
1873.00, 
1874.00, 
1875.00, 
1876.00, 
1877.00, 
1878.00, 
1879.00, 
1880.00, 
1881.00, 
1882.00, 
1883.00, 
1884.00, 
1885.00, 
1886.00, 
1887.00, 
1888.00, 
1889.00, 
1890.00, 
1891.00, 
1892.00, 
1893.00, 
1894.00, 
1895.00, 
1896.00, 
1897.00, 
1898.00, 
1899.00, 
1900.00, 
1901.00, 
1902.00, 
1903.00, 
1904.00, 
1905.00, 
1906.00, 
1907.00, 
1908.00, 
1909.00, 
1910.00, 
1911.00, 
1912.00, 
1913.00, 
1914.00, 
1915.00, 
1916.00, 
1917.00, 
1918.00, 
1919.00, 
1920.00, 
1921.00, 
1922.00, 
1923.00, 
1924.00, 
1925.00, 
1926.00, 
1927.00, 
1928.00, 
1929.00, 
1930.00, 
1931.00, 
1932.00, 
1933.00, 
1934.00, 
1935.00, 
1936.00, 
1937.00, 
1938.00, 
1939.00, 
1940.00, 
1941.00, 
1942.00, 
1943.00, 
1944.00, 
1945.00, 
1946.00, 
1947.00, 
1948.00, 
1949.00, 
1950.00, 
1951.00, 
1952.00, 
1953.00, 
1954.00, 
1955.00, 
1956.00, 
1957.00, 
1958.00, 
1959.00, 
1960.00, 
1961.00, 
1962.00, 
1963.00, 
1964.00, 
1965.00, 
1966.00, 
1967.00, 
1968.00, 
1969.00, 
1970.00, 
1971.00, 
1972.00, 
1973.00, 
1974.00, 
1975.00, 
1976.00, 
1977.00, 
1978.00, 
1979.00, 
1980.00, 
1981.00, 
1982.00, 
1983.00, 
1984.00, 
1985.00, 
1986.00, 
1987.00, 
1988.00, 
1989.00, 
1990.00, 
1991.00, 
1992.00, 
1993.00, 
1994.00, 
1995.00, 
1996.00, 
1997.00, 
1998.00, 
1999.00, 
2000.00, 
2001.00, 
2002.00, 
2003.00, 
2004.00, 
2005.00, 
2006.00, 
2007.00, 
2008.00, 
2009.00, 
2010.00, 
2011.00, 
2012.00, 
2013.00, 
2014.00, 
2015.00, 
2016.00, 
2017.00, 
2018.00, 
2019.00, 
2020.00, 
2021.00, 
2022.00, 
2023.00, 
2024.00, 
2025.00, 
2026.00, 
2027.00, 
2028.00, 
2029.00, 
2030.00, 
2031.00, 
2032.00, 
2033.00, 
2034.00, 
2035.00, 
2036.00, 
2037.00, 
2038.00, 
2039.00, 
2040.00, 
2041.00, 
2042.00, 
2043.00, 
2044.00, 
2045.00, 
2046.00, 
2047.00, 
2048.00, 
2049.00, 
2050.00, 
2051.00, 
2052.00, 
2053.00, 
2054.00, 
2055.00, 
2056.00, 
2057.00, 
2058.00, 
2059.00, 
2060.00, 
2061.00, 
2062.00, 
2063.00, 
2064.00, 
2065.00, 
2066.00, 
2067.00, 
2068.00, 
2069.00, 
2070.00, 
2071.00, 
2072.00, 
2073.00, 
2074.00, 
2075.00, 
2076.00, 
2077.00, 
2078.00, 
2079.00, 
2080.00, 
2081.00, 
2082.00, 
2083.00, 
2084.00, 
2085.00, 
2086.00, 
2087.00, 
2088.00, 
2089.00, 
2090.00, 
2091.00, 
2092.00, 
2093.00, 
2094.00, 
2095.00, 
2096.00, 
2097.00, 
2098.00, 
2099.00, 
2100.00, 
2101.00, 
2102.00, 
2103.00, 
2104.00, 
2105.00, 
2106.00, 
2107.00, 
2108.00, 
2109.00, 
2110.00, 
2111.00, 
2112.00, 
2113.00, 
2114.00, 
2115.00, 
2116.00, 
2117.00, 
2118.00, 
2119.00, 
2120.00, 
2121.00, 
2122.00, 
2123.00, 
2124.00, 
2125.00, 
2126.00, 
2127.00, 
2128.00, 
2129.00, 
2130.00, 
2131.00, 
2132.00, 
2133.00, 
2134.00, 
2135.00, 
2136.00, 
2137.00, 
2138.00, 
2139.00, 
2140.00, 
2141.00, 
2142.00, 
2143.00, 
2144.00, 
2145.00, 
2146.00, 
2147.00, 
2148.00, 
2149.00, 
2150.00, 
2151.00, 
2152.00, 
2153.00, 
2154.00, 
2155.00, 
2156.00, 
2157.00, 
2158.00, 
2159.00, 
2160.00, 
2161.00, 
2162.00, 
2163.00, 
2164.00, 
2165.00, 
2166.00, 
2167.00, 
2168.00, 
2169.00, 
2170.00, 
2171.00, 
2172.00, 
2173.00, 
2174.00, 
2175.00, 
2176.00, 
2177.00, 
2178.00, 
2179.00, 
2180.00, 
2181.00, 
2182.00, 
2183.00, 
2184.00, 
2185.00, 
2186.00, 
2187.00, 
2188.00, 
2189.00, 
2190.00, 
2191.00, 
2192.00, 
2193.00, 
2194.00, 
2195.00, 
2196.00, 
2197.00, 
2198.00, 
2199.00, 
2200.00, 
2201.00, 
2202.00, 
2203.00, 
2204.00, 
2205.00, 
2206.00, 
2207.00, 
2208.00, 
2209.00, 
2210.00, 
2211.00, 
2212.00, 
2213.00, 
2214.00, 
2215.00, 
2216.00, 
2217.00, 
2218.00, 
2219.00, 
2220.00, 
2221.00, 
2222.00, 
2223.00, 
2224.00, 
2225.00, 
2226.00, 
2227.00, 
2228.00, 
2229.00, 
2230.00, 
2231.00, 
2232.00, 
2233.00, 
2234.00, 
2235.00, 
2236.00, 
2237.00, 
2238.00, 
2239.00, 
2240.00, 
2241.00, 
2242.00, 
2243.00, 
2244.00, 
2245.00, 
2246.00, 
2247.00, 
2248.00, 
2249.00, 
2250.00, 
2251.00, 
2252.00, 
2253.00, 
2254.00, 
2255.00, 
2256.00, 
2257.00, 
2258.00, 
2259.00, 
2260.00, 
2261.00, 
2262.00, 
2263.00, 
2264.00, 
2265.00, 
2266.00, 
2267.00, 
2268.00, 
2269.00, 
2270.00, 
2271.00, 
2272.00, 
2273.00, 
2274.00, 
2275.00, 
2276.00, 
2277.00, 
2278.00, 
2279.00, 
2280.00, 
2281.00, 
2282.00, 
2283.00, 
2284.00, 
2285.00, 
2286.00, 
2287.00, 
2288.00, 
2289.00, 
2290.00, 
2291.00, 
2292.00, 
2293.00, 
2294.00, 
2295.00, 
2296.00, 
2297.00, 
2298.00, 
2299.00, 
2300.00, 
2301.00, 
2302.00, 
2303.00, 
2304.00, 
2305.00, 
2306.00, 
2307.00, 
2308.00, 
2309.00, 
2310.00, 
2311.00, 
2312.00, 
2313.00, 
2314.00, 
2315.00, 
2316.00, 
2317.00, 
2318.00, 
2319.00, 
2320.00, 
2321.00, 
2322.00, 
2323.00, 
2324.00, 
2325.00, 
2326.00, 
2327.00, 
2328.00, 
2329.00, 
2330.00, 
2331.00, 
2332.00, 
2333.00, 
2334.00, 
2335.00, 
2336.00, 
2337.00, 
2338.00, 
2339.00, 
2340.00, 
2341.00, 
2342.00, 
2343.00, 
2344.00, 
2345.00, 
2346.00, 
2347.00, 
2348.00, 
2349.00, 
2350.00, 
2351.00, 
2352.00, 
2353.00, 
2354.00, 
2355.00, 
2356.00, 
2357.00, 
2358.00, 
2359.00, 
2360.00, 
2361.00, 
2362.00, 
2363.00, 
2364.00, 
2365.00, 
2366.00, 
2367.00, 
2368.00, 
2369.00, 
2370.00, 
2371.00, 
2372.00, 
2373.00, 
2374.00, 
2375.00, 
2376.00, 
2377.00, 
2378.00, 
2379.00, 
2380.00, 
2381.00, 
2382.00, 
2383.00, 
2384.00, 
2385.00, 
2386.00, 
2387.00, 
2388.00, 
2389.00, 
2390.00, 
2391.00, 
2392.00, 
2393.00, 
2394.00, 
2395.00, 
2396.00, 
2397.00, 
2398.00, 
2399.00, 
2400.00, 
2401.00, 
2402.00, 
2403.00, 
2404.00, 
2405.00, 
2406.00, 
2407.00, 
2408.00, 
2409.00, 
2410.00, 
2411.00, 
2412.00, 
2413.00, 
2414.00, 
2415.00, 
2416.00, 
2417.00, 
2418.00, 
2419.00, 
2420.00, 
2421.00, 
2422.00, 
2423.00, 
2424.00, 
2425.00, 
2426.00, 
2427.00, 
2428.00, 
2429.00, 
2430.00, 
2431.00, 
2432.00, 
2433.00, 
2434.00, 
2435.00, 
2436.00, 
2437.00, 
2438.00, 
2439.00, 
2440.00, 
2441.00, 
2442.00, 
2443.00, 
2444.00, 
2445.00, 
2446.00, 
2447.00, 
2448.00, 
2449.00, 
2450.00, 
2451.00, 
2452.00, 
2453.00, 
2454.00, 
2455.00, 
2456.00, 
2457.00, 
2458.00, 
2459.00, 
2460.00, 
2461.00, 
2462.00, 
2463.00, 
2464.00, 
2465.00, 
2466.00, 
2467.00, 
2468.00, 
2469.00, 
2470.00, 
2471.00, 
2472.00, 
2473.00, 
2474.00, 
2475.00, 
2476.00, 
2477.00, 
2478.00, 
2479.00, 
2480.00, 
2481.00, 
2482.00, 
2483.00, 
2484.00, 
2485.00, 
2486.00, 
2487.00, 
2488.00, 
2489.00, 
2490.00, 
2491.00, 
2492.00, 
2493.00, 
2494.00, 
2495.00, 
2496.00, 
2497.00, 
2498.00, 
2499.00, 
2500.00, 
2501.00, 
2502.00, 
2503.00, 
2504.00, 
2505.00, 
2506.00, 
2507.00, 
2508.00, 
2509.00, 
2510.00, 
2511.00, 
2512.00, 
2513.00, 
2514.00, 
2515.00, 
2516.00, 
2517.00, 
2518.00, 
2519.00, 
2520.00, 
2521.00, 
2522.00, 
2523.00, 
2524.00, 
2525.00, 
2526.00, 
2527.00, 
2528.00, 
2529.00, 
2530.00, 
2531.00, 
2532.00, 
2533.00, 
2534.00, 
2535.00, 
2536.00, 
2537.00, 
2538.00, 
2539.00, 
2540.00, 
2541.00, 
2542.00, 
2543.00, 
2544.00, 
2545.00, 
2546.00, 
2547.00, 
2548.00, 
2549.00, 
2550.00, 
2551.00, 
2552.00, 
2553.00, 
2554.00, 
2555.00, 
2556.00, 
2557.00, 
2558.00, 
2559.00, 
2560.00, 
2561.00, 
2562.00, 
2563.00, 
2564.00, 
2565.00, 
2566.00, 
2567.00, 
2568.00, 
2569.00, 
2570.00, 
2571.00, 
2572.00, 
2573.00, 
2574.00, 
2575.00, 
2576.00, 
2577.00, 
2578.00, 
2579.00, 
2580.00, 
2581.00, 
2582.00, 
2583.00, 
2584.00, 
2585.00, 
2586.00, 
2587.00, 
2588.00, 
2589.00, 
2590.00, 
2591.00, 
2592.00, 
2593.00, 
2594.00, 
2595.00, 
2596.00, 
2597.00, 
2598.00, 
2599.00, 
2600.00, 
