"1cP3 - RawData"
"Wavelength nm.","T%"
200.00,-0.000
201.00,0.001
202.00,0.007
203.00,-0.002
204.00,-0.001
205.00,0.001
206.00,0.001
207.00,0.002
208.00,0.000
209.00,0.002
210.00,-0.000
211.00,0.001
212.00,-0.003
213.00,-0.001
214.00,0.000
215.00,0.001
216.00,-0.002
217.00,0.003
218.00,0.002
219.00,0.002
220.00,0.003
221.00,-0.001
222.00,-0.000
223.00,0.001
224.00,-0.001
225.00,0.000
226.00,-0.001
227.00,-0.001
228.00,0.003
229.00,0.000
230.00,0.000
231.00,0.002
232.00,0.001
233.00,0.000
234.00,0.003
235.00,0.000
236.00,-0.001
237.00,0.000
238.00,-0.001
239.00,0.002
240.00,0.002
241.00,0.001
242.00,-0.000
243.00,0.000
244.00,0.001
245.00,-0.002
246.00,0.001
247.00,-0.000
248.00,-0.001
249.00,0.002
250.00,0.001
251.00,0.000
252.00,0.000
253.00,0.001
254.00,-0.000
255.00,0.003
256.00,-0.001
257.00,-0.000
258.00,0.000
259.00,0.001
260.00,-0.001
261.00,-0.001
262.00,-0.000
263.00,0.002
264.00,0.000
265.00,0.000
266.00,0.000
267.00,0.002
268.00,0.001
269.00,0.001
270.00,0.001
271.00,0.001
272.00,-0.000
273.00,0.000
274.00,0.001
275.00,-0.001
276.00,0.001
277.00,0.000
278.00,-0.002
279.00,0.000
280.00,0.001
281.00,-0.000
282.00,0.001
283.00,-0.001
284.00,0.002
285.00,-0.000
286.00,0.002
287.00,0.001
288.00,0.003
289.00,0.001
290.00,0.001
291.00,-0.001
292.00,-0.000
293.00,0.000
294.00,-0.001
295.00,0.001
296.00,0.000
297.00,-0.000
298.00,0.001
299.00,0.001
300.00,-0.001
301.00,0.000
302.00,-0.000
303.00,0.001
304.00,0.001
305.00,0.001
306.00,0.001
307.00,0.003
308.00,0.006
309.00,0.013
310.00,0.018
311.00,0.032
312.00,0.048
313.00,0.070
314.00,0.107
315.00,0.154
316.00,0.220
317.00,0.307
318.00,0.425
319.00,0.575
320.00,0.770
321.00,0.992
322.00,1.264
323.00,1.601
324.00,1.982
325.00,2.395
326.00,2.825
327.00,3.374
328.00,3.969
329.00,4.566
330.00,5.218
331.00,5.906
332.00,6.629
333.00,7.445
334.00,8.173
335.00,9.006
336.00,9.799
337.00,10.693
338.00,11.511
339.00,12.277
340.00,13.125
341.00,13.942
342.00,14.690
343.00,15.450
344.00,16.077
345.00,16.782
346.00,17.585
347.00,18.230
348.00,18.800
349.00,19.372
350.00,19.967
351.00,20.429
352.00,20.883
353.00,21.330
354.00,21.799
355.00,22.195
356.00,22.583
357.00,22.900
358.00,23.241
359.00,23.625
360.00,23.910
361.00,24.116
362.00,24.400
363.00,24.619
364.00,24.759
365.00,24.884
366.00,25.063
367.00,25.178
368.00,25.219
369.00,25.419
370.00,25.377
371.00,25.523
372.00,25.492
373.00,25.492
374.00,25.519
375.00,25.486
376.00,25.428
377.00,25.327
378.00,25.212
379.00,25.143
380.00,25.152
381.00,25.162
382.00,25.183
383.00,25.190
384.00,25.252
385.00,25.352
386.00,25.421
387.00,25.561
388.00,25.659
389.00,25.683
390.00,25.734
391.00,25.852
392.00,25.876
393.00,25.909
394.00,25.953
395.00,26.031
396.00,26.035
397.00,26.066
398.00,26.070
399.00,26.056
400.00,26.094
401.00,26.064
402.00,26.111
403.00,26.081
404.00,26.069
405.00,26.047
406.00,26.039
407.00,26.020
408.00,25.990
409.00,25.960
410.00,25.869
411.00,25.860
412.00,25.814
413.00,25.863
414.00,25.821
415.00,25.791
416.00,25.888
417.00,25.832
418.00,25.860
419.00,25.950
420.00,25.973
421.00,25.979
422.00,25.989
423.00,26.029
424.00,26.053
425.00,26.093
426.00,26.115
427.00,26.147
428.00,26.170
429.00,26.191
430.00,26.251
431.00,26.295
432.00,26.303
433.00,26.362
434.00,26.445
435.00,26.493
436.00,26.483
437.00,26.516
438.00,26.608
439.00,26.631
440.00,26.787
441.00,26.826
442.00,26.920
443.00,27.007
444.00,27.120
445.00,27.165
446.00,27.248
447.00,27.276
448.00,27.427
449.00,27.524
450.00,27.594
451.00,27.692
452.00,27.774
453.00,27.912
454.00,28.031
455.00,28.082
456.00,28.201
457.00,28.301
458.00,28.387
459.00,28.524
460.00,28.648
461.00,28.746
462.00,28.815
463.00,29.003
464.00,29.008
465.00,29.210
466.00,29.381
467.00,29.502
468.00,29.562
469.00,29.624
470.00,29.709
471.00,29.825
472.00,29.933
473.00,30.002
474.00,30.108
475.00,30.202
476.00,30.287
477.00,30.407
478.00,30.519
479.00,30.693
480.00,30.834
481.00,30.927
482.00,31.082
483.00,31.215
484.00,31.339
485.00,31.530
486.00,31.658
487.00,31.770
488.00,31.886
489.00,32.063
490.00,32.218
491.00,32.329
492.00,32.483
493.00,32.686
494.00,32.822
495.00,32.853
496.00,33.101
497.00,33.038
498.00,33.183
499.00,33.315
500.00,33.422
501.00,33.536
502.00,33.681
503.00,33.781
504.00,33.795
505.00,33.930
506.00,34.057
507.00,34.153
508.00,34.292
509.00,34.454
510.00,34.595
511.00,34.658
512.00,34.769
513.00,34.979
514.00,35.058
515.00,35.194
516.00,35.296
517.00,35.331
518.00,35.520
519.00,35.549
520.00,35.569
521.00,35.706
522.00,35.825
523.00,35.796
524.00,35.930
525.00,36.088
526.00,36.198
527.00,36.231
528.00,36.256
529.00,36.491
530.00,36.617
531.00,36.740
532.00,36.832
533.00,36.930
534.00,37.018
535.00,37.143
536.00,37.175
537.00,37.258
538.00,37.318
539.00,37.348
540.00,37.472
541.00,37.518
542.00,37.569
543.00,37.628
544.00,37.702
545.00,37.777
546.00,37.845
547.00,37.964
548.00,38.066
549.00,38.114
550.00,38.245
551.00,38.334
552.00,38.387
553.00,38.419
554.00,38.486
555.00,38.572
556.00,38.597
557.00,38.693
558.00,38.745
559.00,38.802
560.00,38.883
561.00,38.967
562.00,39.076
563.00,39.081
564.00,39.125
565.00,39.173
566.00,39.204
567.00,39.230
568.00,39.283
569.00,39.314
570.00,39.319
571.00,39.472
572.00,39.437
573.00,39.410
574.00,39.496
575.00,39.495
576.00,39.593
577.00,39.696
578.00,39.666
579.00,39.735
580.00,39.772
581.00,39.969
582.00,40.061
583.00,40.033
584.00,40.186
585.00,40.176
586.00,40.187
587.00,40.323
588.00,40.291
589.00,40.256
590.00,40.433
591.00,40.452
592.00,40.393
593.00,40.374
594.00,40.446
595.00,40.550
596.00,40.661
597.00,40.607
598.00,40.645
599.00,40.629
600.00,40.850
601.00,40.982
602.00,40.861
603.00,40.932
604.00,41.009
605.00,41.114
606.00,41.078
607.00,41.095
608.00,41.287
609.00,41.357
610.00,41.216
611.00,41.275
612.00,41.334
613.00,41.362
614.00,41.315
615.00,41.464
616.00,41.561
617.00,41.561
618.00,41.499
619.00,41.568
620.00,41.516
621.00,41.771
622.00,41.932
623.00,41.844
624.00,41.939
625.00,41.996
626.00,42.018
627.00,42.087
628.00,42.120
629.00,42.140
630.00,42.230
631.00,42.205
632.00,42.339
633.00,42.408
634.00,42.431
635.00,42.466
636.00,42.561
637.00,42.642
638.00,42.722
639.00,42.802
640.00,42.721
641.00,42.907
642.00,42.957
643.00,42.997
644.00,43.102
645.00,43.085
646.00,43.258
647.00,43.231
648.00,43.302
649.00,43.313
650.00,43.349
651.00,43.541
652.00,43.635
653.00,43.560
654.00,43.671
655.00,43.832
656.00,44.052
657.00,43.997
658.00,44.017
659.00,44.060
660.00,44.250
661.00,44.199
662.00,44.155
663.00,44.313
664.00,44.487
665.00,44.654
666.00,44.688
667.00,44.686
668.00,44.686
669.00,44.849
670.00,45.104
671.00,44.884
672.00,45.032
673.00,45.117
674.00,45.133
675.00,45.139
676.00,45.436
677.00,45.529
678.00,45.377
679.00,45.430
680.00,45.588
681.00,45.729
682.00,45.686
683.00,45.605
684.00,45.814
685.00,45.801
686.00,45.499
687.00,46.094
688.00,46.342
689.00,45.933
690.00,46.282
691.00,46.584
692.00,46.263
693.00,46.278
694.00,46.464
695.00,46.650
696.00,46.613
697.00,46.529
698.00,46.647
699.00,46.930
700.00,46.912
701.00,46.890
702.00,46.943
703.00,47.124
704.00,47.085
705.00,47.015
706.00,47.161
707.00,47.144
708.00,47.038
709.00,47.585
710.00,47.870
711.00,47.247
712.00,47.374
713.00,47.591
714.00,47.660
715.00,47.730
716.00,47.702
717.00,47.795
718.00,47.899
719.00,47.857
720.00,47.911
721.00,52.484
722.00,52.394
723.00,52.453
724.00,52.456
725.00,52.505
726.00,52.541
727.00,52.493
728.00,52.500
729.00,52.514
730.00,52.530
731.00,52.497
732.00,52.546
733.00,52.479
734.00,52.536
735.00,52.644
736.00,52.587
737.00,52.561
738.00,52.631
739.00,52.682
740.00,52.726
741.00,52.607
742.00,52.700
743.00,52.674
744.00,52.651
745.00,52.656
746.00,52.669
747.00,52.644
748.00,52.651
749.00,52.570
750.00,52.657
751.00,52.513
752.00,52.663
753.00,52.648
754.00,52.594
755.00,52.532
756.00,52.563
757.00,52.559
758.00,52.543
759.00,52.585
760.00,52.599
761.00,52.607
762.00,52.623
763.00,52.602
764.00,52.616
765.00,52.618
766.00,52.642
767.00,52.554
768.00,52.563
769.00,52.611
770.00,52.643
771.00,52.632
772.00,52.697
773.00,52.552
774.00,52.552
775.00,52.635
776.00,52.613
777.00,52.540
778.00,52.551
779.00,52.643
780.00,52.576
781.00,52.473
782.00,52.524
783.00,52.523
784.00,52.483
785.00,52.404
786.00,52.517
787.00,52.530
788.00,52.459
789.00,52.473
790.00,52.367
791.00,52.455
792.00,52.358
793.00,52.340
794.00,52.311
795.00,52.275
796.00,52.378
797.00,52.278
798.00,52.346
799.00,52.166
800.00,52.228
801.00,52.258
802.00,52.283
803.00,52.245
804.00,52.110
805.00,52.170
806.00,52.055
807.00,52.144
808.00,52.093
809.00,52.051
810.00,52.041
811.00,51.999
812.00,52.106
813.00,51.985
814.00,51.993
815.00,51.977
816.00,51.977
817.00,51.944
818.00,51.909
819.00,51.894
820.00,51.901
821.00,51.885
822.00,51.819
823.00,51.873
824.00,51.829
825.00,51.684
826.00,51.805
827.00,51.762
828.00,51.798
829.00,51.649
830.00,51.742
831.00,54.126
832.00,54.092
833.00,54.062
834.00,54.069
835.00,54.051
836.00,54.044
837.00,53.976
838.00,53.936
839.00,53.938
840.00,53.876
841.00,53.886
842.00,53.879
843.00,53.815
844.00,53.831
845.00,53.762
846.00,53.807
847.00,53.749
848.00,53.734
849.00,53.688
850.00,53.687
851.00,53.661
852.00,53.617
853.00,53.539
854.00,53.557
855.00,53.502
856.00,53.504
857.00,53.489
858.00,53.438
859.00,53.397
860.00,53.406
861.00,53.416
862.00,53.387
863.00,53.315
864.00,53.324
865.00,53.316
866.00,53.288
867.00,53.272
868.00,53.281
869.00,53.262
870.00,53.258
871.00,53.247
872.00,53.228
873.00,53.212
874.00,53.198
875.00,53.169
876.00,53.157
877.00,53.129
878.00,53.126
879.00,53.098
880.00,53.113
881.00,53.080
882.00,53.068
883.00,53.039
884.00,53.025
885.00,52.972
886.00,52.983
887.00,52.972
888.00,52.944
889.00,52.910
890.00,52.875
891.00,52.915
892.00,52.859
893.00,52.810
894.00,52.804
895.00,52.782
896.00,52.748
897.00,52.760
898.00,52.707
899.00,52.706
900.00,52.695
901.00,52.661
902.00,52.771
903.00,52.630
904.00,52.638
905.00,52.616
906.00,52.617
907.00,52.578
908.00,52.559
909.00,52.522
910.00,52.503
911.00,52.489
912.00,52.484
913.00,52.547
914.00,52.433
915.00,52.378
916.00,52.401
917.00,52.331
918.00,52.359
919.00,52.319
920.00,52.289
921.00,52.300
922.00,52.264
923.00,52.244
924.00,52.222
925.00,52.196
926.00,52.194
927.00,52.149
928.00,52.126
929.00,52.150
930.00,52.098
931.00,52.076
932.00,52.036
933.00,52.065
934.00,52.059
935.00,52.025
936.00,51.994
937.00,51.949
938.00,52.120
939.00,51.936
940.00,51.930
941.00,51.912
942.00,51.878
943.00,51.852
944.00,51.811
945.00,51.830
946.00,51.813
947.00,51.777
948.00,51.774
949.00,51.757
950.00,51.711
951.00,51.746
952.00,51.685
953.00,51.648
954.00,51.622
955.00,51.582
956.00,51.563
957.00,51.515
958.00,51.521
959.00,51.476
960.00,51.477
961.00,51.455
962.00,51.471
963.00,51.429
964.00,51.429
965.00,51.417
966.00,51.392
967.00,51.385
968.00,51.379
969.00,51.385
970.00,51.379
971.00,51.373
972.00,51.328
973.00,51.414
974.00,51.390
975.00,51.337
976.00,51.351
977.00,51.362
978.00,51.397
979.00,51.353
980.00,51.342
981.00,51.355
982.00,51.309
983.00,51.320
984.00,51.325
985.00,51.338
986.00,51.295
987.00,51.321
988.00,51.253
989.00,51.281
990.00,51.262
991.00,51.247
992.00,51.256
993.00,51.222
994.00,51.205
995.00,51.200
996.00,51.191
997.00,51.171
998.00,51.151
999.00,51.161
1000.00,51.106
1001.00,51.121
1002.00,51.095
1003.00,51.088
1004.00,51.090
1005.00,51.026
1006.00,51.083
1007.00,51.049
1008.00,51.024
1009.00,51.005
1010.00,51.020
1011.00,51.001
1012.00,50.977
1013.00,50.955
1014.00,50.939
1015.00,50.953
1016.00,50.904
1017.00,50.919
1018.00,50.904
1019.00,50.874
1020.00,50.922
1021.00,50.839
1022.00,50.857
1023.00,50.820
1024.00,50.798
1025.00,50.781
1026.00,50.771
1027.00,50.733
1028.00,50.717
1029.00,50.701
1030.00,50.668
1031.00,50.688
1032.00,50.648
1033.00,50.658
1034.00,50.634
1035.00,50.588
1036.00,50.577
1037.00,50.569
1038.00,50.539
1039.00,50.517
1040.00,50.514
1041.00,50.477
1042.00,50.484
1043.00,50.464
1044.00,50.490
1045.00,50.471
1046.00,50.447
1047.00,50.477
1048.00,50.476
1049.00,50.475
1050.00,50.502
1051.00,50.543
1052.00,50.528
1053.00,50.541
1054.00,50.536
1055.00,50.567
1056.00,50.564
1057.00,50.560
1058.00,50.553
1059.00,50.563
1060.00,50.561
1061.00,50.557
1062.00,50.547
1063.00,50.554
1064.00,50.566
1065.00,50.550
1066.00,50.521
1067.00,50.517
1068.00,50.521
1069.00,50.493
1070.00,50.467
1071.00,50.438
1072.00,50.480
1073.00,50.448
1074.00,50.445
1075.00,50.434
1076.00,50.444
1077.00,50.419
1078.00,50.413
1079.00,50.410
1080.00,50.445
1081.00,50.434
1082.00,50.391
1083.00,50.400
1084.00,50.382
1085.00,50.382
1086.00,50.363
1087.00,50.363
1088.00,50.355
1089.00,50.347
1090.00,50.336
1091.00,50.341
1092.00,50.335
1093.00,50.302
1094.00,50.281
1095.00,50.286
1096.00,50.260
1097.00,50.256
1098.00,50.235
1099.00,50.230
1100.00,50.224
1101.00,50.211
1102.00,50.231
1103.00,50.223
1104.00,50.206
1105.00,50.191
1106.00,50.186
1107.00,50.180
1108.00,50.165
1109.00,50.157
1110.00,50.153
1111.00,50.148
1112.00,50.130
1113.00,50.143
1114.00,50.118
1115.00,50.104
1116.00,50.126
1117.00,50.103
1118.00,50.091
1119.00,50.100
1120.00,50.103
1121.00,50.097
1122.00,50.075
1123.00,50.083
1124.00,50.082
1125.00,50.082
1126.00,50.058
1127.00,50.067
1128.00,50.046
1129.00,50.020
1130.00,50.014
1131.00,50.009
1132.00,50.016
1133.00,50.040
1134.00,50.003
1135.00,49.996
1136.00,49.985
1137.00,49.973
1138.00,49.984
1139.00,49.988
1140.00,49.985
1141.00,49.986
1142.00,49.959
1143.00,49.983
1144.00,49.950
1145.00,49.947
1146.00,49.956
1147.00,49.954
1148.00,49.933
1149.00,49.964
1150.00,49.951
1151.00,49.940
1152.00,49.934
1153.00,49.930
1154.00,49.921
1155.00,49.938
1156.00,49.916
1157.00,49.931
1158.00,49.918
1159.00,49.914
1160.00,49.925
1161.00,49.935
1162.00,49.907
1163.00,49.925
1164.00,49.930
1165.00,49.925
1166.00,49.935
1167.00,49.908
1168.00,49.932
1169.00,49.907
1170.00,49.899
1171.00,49.900
1172.00,49.902
1173.00,49.886
1174.00,49.899
1175.00,49.893
1176.00,49.893
1177.00,49.892
1178.00,49.891
1179.00,49.905
1180.00,49.898
1181.00,49.916
1182.00,49.906
1183.00,49.898
1184.00,49.890
1185.00,49.897
1186.00,49.886
1187.00,49.899
1188.00,49.881
1189.00,49.865
1190.00,49.865
1191.00,49.859
1192.00,49.859
1193.00,49.877
1194.00,49.883
1195.00,49.849
1196.00,49.884
1197.00,49.880
1198.00,49.891
1199.00,49.883
1200.00,49.916
1201.00,49.931
1202.00,49.884
1203.00,49.887
1204.00,49.864
1205.00,49.891
1206.00,49.873
1207.00,49.892
1208.00,49.897
1209.00,49.888
1210.00,49.887
1211.00,49.868
1212.00,49.903
1213.00,49.872
1214.00,49.881
1215.00,49.883
1216.00,49.884
1217.00,49.886
1218.00,49.895
1219.00,49.891
1220.00,49.877
1221.00,49.895
1222.00,49.880
1223.00,49.917
1224.00,49.907
1225.00,49.884
1226.00,49.907
1227.00,49.892
1228.00,49.893
1229.00,49.898
1230.00,49.923
1231.00,49.916
1232.00,49.952
1233.00,49.948
1234.00,49.959
1235.00,49.962
1236.00,49.945
1237.00,49.961
1238.00,49.960
1239.00,49.959
1240.00,49.951
1241.00,49.963
1242.00,49.970
1243.00,49.985
1244.00,49.960
1245.00,50.000
1246.00,49.992
1247.00,49.971
1248.00,49.986
1249.00,50.004
1250.00,50.009
1251.00,49.998
1252.00,50.024
1253.00,50.000
1254.00,50.033
1255.00,50.014
1256.00,50.020
1257.00,49.998
1258.00,50.028
1259.00,50.048
1260.00,50.072
1261.00,50.057
1262.00,50.057
1263.00,50.050
1264.00,50.062
1265.00,50.072
1266.00,50.068
1267.00,50.083
1268.00,50.085
1269.00,50.093
1270.00,50.123
1271.00,50.120
1272.00,50.107
1273.00,50.132
1274.00,50.123
1275.00,50.134
1276.00,50.142
1277.00,50.132
1278.00,50.147
1279.00,50.157
1280.00,50.132
1281.00,50.166
1282.00,50.175
1283.00,50.171
1284.00,50.193
1285.00,50.169
1286.00,50.188
1287.00,50.184
1288.00,50.176
1289.00,50.186
1290.00,50.220
1291.00,50.189
1292.00,50.228
1293.00,50.215
1294.00,50.242
1295.00,50.267
1296.00,50.281
1297.00,50.286
1298.00,50.322
1299.00,50.280
1300.00,50.293
1301.00,50.290
1302.00,50.302
1303.00,50.301
1304.00,50.294
1305.00,50.304
1306.00,50.324
1307.00,50.316
1308.00,50.332
1309.00,50.369
1310.00,50.340
1311.00,50.342
1312.00,50.352
1313.00,50.360
1314.00,50.387
1315.00,50.408
1316.00,50.410
1317.00,50.437
1318.00,50.437
1319.00,50.450
1320.00,50.458
1321.00,50.612
1322.00,50.586
1323.00,50.578
1324.00,50.564
1325.00,50.572
1326.00,50.624
1327.00,50.588
1328.00,50.611
1329.00,50.605
1330.00,50.586
1331.00,50.603
1332.00,50.612
1333.00,50.615
1334.00,50.663
1335.00,50.679
1336.00,50.717
1337.00,50.731
1338.00,50.788
1339.00,50.844
1340.00,50.896
1341.00,50.940
1342.00,51.026
1343.00,51.066
1344.00,51.101
1345.00,51.185
1346.00,51.207
1347.00,51.224
1348.00,51.250
1349.00,51.253
1350.00,51.284
1351.00,51.311
1352.00,51.310
1353.00,51.227
1354.00,51.342
1355.00,51.286
1356.00,51.376
1357.00,51.352
1358.00,51.370
1359.00,51.377
1360.00,51.433
1361.00,51.472
1362.00,51.336
1363.00,51.415
1364.00,51.469
1365.00,51.398
1366.00,51.439
1367.00,51.325
1368.00,51.285
1369.00,51.437
1370.00,51.423
1371.00,51.348
1372.00,51.384
1373.00,51.419
1374.00,51.426
1375.00,51.410
1376.00,51.400
1377.00,51.388
1378.00,51.524
1379.00,51.439
1380.00,51.441
1381.00,51.463
1382.00,51.398
1383.00,51.433
1384.00,51.358
1385.00,51.365
1386.00,51.449
1387.00,51.366
1388.00,51.343
1389.00,51.340
1390.00,51.388
1391.00,51.397
1392.00,51.386
1393.00,51.453
1394.00,51.462
1395.00,51.291
1396.00,51.337
1397.00,51.422
1398.00,51.451
1399.00,51.417
1400.00,51.302
1401.00,51.384
1402.00,51.535
1403.00,51.456
1404.00,51.442
1405.00,51.482
1406.00,51.528
1407.00,51.470
1408.00,51.467
1409.00,51.496
1410.00,51.513
1411.00,51.486
1412.00,51.585
1413.00,51.509
1414.00,51.476
1415.00,51.550
1416.00,51.584
1417.00,51.633
1418.00,51.571
1419.00,51.572
1420.00,51.611
1421.00,51.660
1422.00,51.671
1423.00,51.672
1424.00,51.685
1425.00,51.704
1426.00,51.690
1427.00,51.733
1428.00,51.729
1429.00,51.749
1430.00,51.778
1431.00,51.796
1432.00,51.821
1433.00,51.838
1434.00,51.827
1435.00,51.895
1436.00,51.897
1437.00,51.870
1438.00,51.906
1439.00,51.950
1440.00,51.947
1441.00,51.969
1442.00,51.977
1443.00,52.019
1444.00,52.083
1445.00,52.004
1446.00,52.048
1447.00,52.079
1448.00,52.112
1449.00,52.119
1450.00,52.137
1451.00,52.138
1452.00,52.174
1453.00,52.182
1454.00,52.205
1455.00,52.239
1456.00,52.238
1457.00,52.270
1458.00,52.287
1459.00,52.285
1460.00,52.341
1461.00,52.309
1462.00,52.347
1463.00,52.369
1464.00,52.365
1465.00,52.394
1466.00,52.407
1467.00,52.433
1468.00,52.483
1469.00,52.470
1470.00,52.475
1471.00,52.501
1472.00,52.506
1473.00,52.518
1474.00,52.576
1475.00,52.558
1476.00,52.574
1477.00,52.587
1478.00,52.599
1479.00,52.625
1480.00,52.635
1481.00,52.630
1482.00,52.678
1483.00,52.703
1484.00,52.695
1485.00,52.706
1486.00,52.725
1487.00,52.751
1488.00,52.781
1489.00,52.752
1490.00,52.791
1491.00,52.807
1492.00,52.817
1493.00,52.807
1494.00,52.850
1495.00,52.812
1496.00,52.856
1497.00,52.843
1498.00,52.852
1499.00,52.890
1500.00,52.909
1501.00, 
1502.00, 
1503.00, 
1504.00, 
1505.00, 
1506.00, 
1507.00, 
1508.00, 
1509.00, 
1510.00, 
1511.00, 
1512.00, 
1513.00, 
1514.00, 
1515.00, 
1516.00, 
1517.00, 
1518.00, 
1519.00, 
1520.00, 
1521.00, 
1522.00, 
1523.00, 
1524.00, 
1525.00, 
1526.00, 
1527.00, 
1528.00, 
1529.00, 
1530.00, 
1531.00, 
1532.00, 
1533.00, 
1534.00, 
1535.00, 
1536.00, 
1537.00, 
1538.00, 
1539.00, 
1540.00, 
1541.00, 
1542.00, 
1543.00, 
1544.00, 
1545.00, 
1546.00, 
1547.00, 
1548.00, 
1549.00, 
1550.00, 
1551.00, 
1552.00, 
1553.00, 
1554.00, 
1555.00, 
1556.00, 
1557.00, 
1558.00, 
1559.00, 
1560.00, 
1561.00, 
1562.00, 
1563.00, 
1564.00, 
1565.00, 
1566.00, 
1567.00, 
1568.00, 
1569.00, 
1570.00, 
1571.00, 
1572.00, 
1573.00, 
1574.00, 
1575.00, 
1576.00, 
1577.00, 
1578.00, 
1579.00, 
1580.00, 
1581.00, 
1582.00, 
1583.00, 
1584.00, 
1585.00, 
1586.00, 
1587.00, 
1588.00, 
1589.00, 
1590.00, 
1591.00, 
1592.00, 
1593.00, 
1594.00, 
1595.00, 
1596.00, 
1597.00, 
1598.00, 
1599.00, 
1600.00, 
1601.00, 
1602.00, 
1603.00, 
1604.00, 
1605.00, 
1606.00, 
1607.00, 
1608.00, 
1609.00, 
1610.00, 
1611.00, 
1612.00, 
1613.00, 
1614.00, 
1615.00, 
1616.00, 
1617.00, 
1618.00, 
1619.00, 
1620.00, 
1621.00, 
1622.00, 
1623.00, 
1624.00, 
1625.00, 
1626.00, 
1627.00, 
1628.00, 
1629.00, 
1630.00, 
1631.00, 
1632.00, 
1633.00, 
1634.00, 
1635.00, 
1636.00, 
1637.00, 
1638.00, 
1639.00, 
1640.00, 
1641.00, 
1642.00, 
1643.00, 
1644.00, 
1645.00, 
1646.00, 
1647.00, 
1648.00, 
1649.00, 
1650.00, 
1651.00, 
1652.00, 
1653.00, 
1654.00, 
1655.00, 
1656.00, 
1657.00, 
1658.00, 
1659.00, 
1660.00, 
1661.00, 
1662.00, 
1663.00, 
1664.00, 
1665.00, 
1666.00, 
1667.00, 
1668.00, 
1669.00, 
1670.00, 
1671.00, 
1672.00, 
1673.00, 
1674.00, 
1675.00, 
1676.00, 
1677.00, 
1678.00, 
1679.00, 
1680.00, 
1681.00, 
1682.00, 
1683.00, 
1684.00, 
1685.00, 
1686.00, 
1687.00, 
1688.00, 
1689.00, 
1690.00, 
1691.00, 
1692.00, 
1693.00, 
1694.00, 
1695.00, 
1696.00, 
1697.00, 
1698.00, 
1699.00, 
1700.00, 
1701.00, 
1702.00, 
1703.00, 
1704.00, 
1705.00, 
1706.00, 
1707.00, 
1708.00, 
1709.00, 
1710.00, 
1711.00, 
1712.00, 
1713.00, 
1714.00, 
1715.00, 
1716.00, 
1717.00, 
1718.00, 
1719.00, 
1720.00, 
1721.00, 
1722.00, 
1723.00, 
1724.00, 
1725.00, 
1726.00, 
1727.00, 
1728.00, 
1729.00, 
1730.00, 
1731.00, 
1732.00, 
1733.00, 
1734.00, 
1735.00, 
1736.00, 
1737.00, 
1738.00, 
1739.00, 
1740.00, 
1741.00, 
1742.00, 
1743.00, 
1744.00, 
1745.00, 
1746.00, 
1747.00, 
1748.00, 
1749.00, 
1750.00, 
1751.00, 
1752.00, 
1753.00, 
1754.00, 
1755.00, 
1756.00, 
1757.00, 
1758.00, 
1759.00, 
1760.00, 
1761.00, 
1762.00, 
1763.00, 
1764.00, 
1765.00, 
1766.00, 
1767.00, 
1768.00, 
1769.00, 
1770.00, 
1771.00, 
1772.00, 
1773.00, 
1774.00, 
1775.00, 
1776.00, 
1777.00, 
1778.00, 
1779.00, 
1780.00, 
1781.00, 
1782.00, 
1783.00, 
1784.00, 
1785.00, 
1786.00, 
1787.00, 
1788.00, 
1789.00, 
1790.00, 
1791.00, 
1792.00, 
1793.00, 
1794.00, 
1795.00, 
1796.00, 
1797.00, 
1798.00, 
1799.00, 
1800.00, 
1801.00, 
1802.00, 
1803.00, 
1804.00, 
1805.00, 
1806.00, 
1807.00, 
1808.00, 
1809.00, 
1810.00, 
1811.00, 
1812.00, 
1813.00, 
1814.00, 
1815.00, 
1816.00, 
1817.00, 
1818.00, 
1819.00, 
1820.00, 
1821.00, 
1822.00, 
1823.00, 
1824.00, 
1825.00, 
1826.00, 
1827.00, 
1828.00, 
1829.00, 
1830.00, 
1831.00, 
1832.00, 
1833.00, 
1834.00, 
1835.00, 
1836.00, 
1837.00, 
1838.00, 
1839.00, 
1840.00, 
1841.00, 
1842.00, 
1843.00, 
1844.00, 
1845.00, 
1846.00, 
1847.00, 
1848.00, 
1849.00, 
1850.00, 
1851.00, 
1852.00, 
1853.00, 
1854.00, 
1855.00, 
1856.00, 
1857.00, 
1858.00, 
1859.00, 
1860.00, 
1861.00, 
1862.00, 
1863.00, 
1864.00, 
1865.00, 
1866.00, 
1867.00, 
1868.00, 
1869.00, 
1870.00, 
1871.00, 
1872.00, 
1873.00, 
1874.00, 
1875.00, 
1876.00, 
1877.00, 
1878.00, 
1879.00, 
1880.00, 
1881.00, 
1882.00, 
1883.00, 
1884.00, 
1885.00, 
1886.00, 
1887.00, 
1888.00, 
1889.00, 
1890.00, 
1891.00, 
1892.00, 
1893.00, 
1894.00, 
1895.00, 
1896.00, 
1897.00, 
1898.00, 
1899.00, 
1900.00, 
1901.00, 
1902.00, 
1903.00, 
1904.00, 
1905.00, 
1906.00, 
1907.00, 
1908.00, 
1909.00, 
1910.00, 
1911.00, 
1912.00, 
1913.00, 
1914.00, 
1915.00, 
1916.00, 
1917.00, 
1918.00, 
1919.00, 
1920.00, 
1921.00, 
1922.00, 
1923.00, 
1924.00, 
1925.00, 
1926.00, 
1927.00, 
1928.00, 
1929.00, 
1930.00, 
1931.00, 
1932.00, 
1933.00, 
1934.00, 
1935.00, 
1936.00, 
1937.00, 
1938.00, 
1939.00, 
1940.00, 
1941.00, 
1942.00, 
1943.00, 
1944.00, 
1945.00, 
1946.00, 
1947.00, 
1948.00, 
1949.00, 
1950.00, 
1951.00, 
1952.00, 
1953.00, 
1954.00, 
1955.00, 
1956.00, 
1957.00, 
1958.00, 
1959.00, 
1960.00, 
1961.00, 
1962.00, 
1963.00, 
1964.00, 
1965.00, 
1966.00, 
1967.00, 
1968.00, 
1969.00, 
1970.00, 
1971.00, 
1972.00, 
1973.00, 
1974.00, 
1975.00, 
1976.00, 
1977.00, 
1978.00, 
1979.00, 
1980.00, 
1981.00, 
1982.00, 
1983.00, 
1984.00, 
1985.00, 
1986.00, 
1987.00, 
1988.00, 
1989.00, 
1990.00, 
1991.00, 
1992.00, 
1993.00, 
1994.00, 
1995.00, 
1996.00, 
1997.00, 
1998.00, 
1999.00, 
2000.00, 
2001.00, 
2002.00, 
2003.00, 
2004.00, 
2005.00, 
2006.00, 
2007.00, 
2008.00, 
2009.00, 
2010.00, 
2011.00, 
2012.00, 
2013.00, 
2014.00, 
2015.00, 
2016.00, 
2017.00, 
2018.00, 
2019.00, 
2020.00, 
2021.00, 
2022.00, 
2023.00, 
2024.00, 
2025.00, 
2026.00, 
2027.00, 
2028.00, 
2029.00, 
2030.00, 
2031.00, 
2032.00, 
2033.00, 
2034.00, 
2035.00, 
2036.00, 
2037.00, 
2038.00, 
2039.00, 
2040.00, 
2041.00, 
2042.00, 
2043.00, 
2044.00, 
2045.00, 
2046.00, 
2047.00, 
2048.00, 
2049.00, 
2050.00, 
2051.00, 
2052.00, 
2053.00, 
2054.00, 
2055.00, 
2056.00, 
2057.00, 
2058.00, 
2059.00, 
2060.00, 
2061.00, 
2062.00, 
2063.00, 
2064.00, 
2065.00, 
2066.00, 
2067.00, 
2068.00, 
2069.00, 
2070.00, 
2071.00, 
2072.00, 
2073.00, 
2074.00, 
2075.00, 
2076.00, 
2077.00, 
2078.00, 
2079.00, 
2080.00, 
2081.00, 
2082.00, 
2083.00, 
2084.00, 
2085.00, 
2086.00, 
2087.00, 
2088.00, 
2089.00, 
2090.00, 
2091.00, 
2092.00, 
2093.00, 
2094.00, 
2095.00, 
2096.00, 
2097.00, 
2098.00, 
2099.00, 
2100.00, 
2101.00, 
2102.00, 
2103.00, 
2104.00, 
2105.00, 
2106.00, 
2107.00, 
2108.00, 
2109.00, 
2110.00, 
2111.00, 
2112.00, 
2113.00, 
2114.00, 
2115.00, 
2116.00, 
2117.00, 
2118.00, 
2119.00, 
2120.00, 
2121.00, 
2122.00, 
2123.00, 
2124.00, 
2125.00, 
2126.00, 
2127.00, 
2128.00, 
2129.00, 
2130.00, 
2131.00, 
2132.00, 
2133.00, 
2134.00, 
2135.00, 
2136.00, 
2137.00, 
2138.00, 
2139.00, 
2140.00, 
2141.00, 
2142.00, 
2143.00, 
2144.00, 
2145.00, 
2146.00, 
2147.00, 
2148.00, 
2149.00, 
2150.00, 
2151.00, 
2152.00, 
2153.00, 
2154.00, 
2155.00, 
2156.00, 
2157.00, 
2158.00, 
2159.00, 
2160.00, 
2161.00, 
2162.00, 
2163.00, 
2164.00, 
2165.00, 
2166.00, 
2167.00, 
2168.00, 
2169.00, 
2170.00, 
2171.00, 
2172.00, 
2173.00, 
2174.00, 
2175.00, 
2176.00, 
2177.00, 
2178.00, 
2179.00, 
2180.00, 
2181.00, 
2182.00, 
2183.00, 
2184.00, 
2185.00, 
2186.00, 
2187.00, 
2188.00, 
2189.00, 
2190.00, 
2191.00, 
2192.00, 
2193.00, 
2194.00, 
2195.00, 
2196.00, 
2197.00, 
2198.00, 
2199.00, 
2200.00, 
2201.00, 
2202.00, 
2203.00, 
2204.00, 
2205.00, 
2206.00, 
2207.00, 
2208.00, 
2209.00, 
2210.00, 
2211.00, 
2212.00, 
2213.00, 
2214.00, 
2215.00, 
2216.00, 
2217.00, 
2218.00, 
2219.00, 
2220.00, 
2221.00, 
2222.00, 
2223.00, 
2224.00, 
2225.00, 
2226.00, 
2227.00, 
2228.00, 
2229.00, 
2230.00, 
2231.00, 
2232.00, 
2233.00, 
2234.00, 
2235.00, 
2236.00, 
2237.00, 
2238.00, 
2239.00, 
2240.00, 
2241.00, 
2242.00, 
2243.00, 
2244.00, 
2245.00, 
2246.00, 
2247.00, 
2248.00, 
2249.00, 
2250.00, 
2251.00, 
2252.00, 
2253.00, 
2254.00, 
2255.00, 
2256.00, 
2257.00, 
2258.00, 
2259.00, 
2260.00, 
2261.00, 
2262.00, 
2263.00, 
2264.00, 
2265.00, 
2266.00, 
2267.00, 
2268.00, 
2269.00, 
2270.00, 
2271.00, 
2272.00, 
2273.00, 
2274.00, 
2275.00, 
2276.00, 
2277.00, 
2278.00, 
2279.00, 
2280.00, 
2281.00, 
2282.00, 
2283.00, 
2284.00, 
2285.00, 
2286.00, 
2287.00, 
2288.00, 
2289.00, 
2290.00, 
2291.00, 
2292.00, 
2293.00, 
2294.00, 
2295.00, 
2296.00, 
2297.00, 
2298.00, 
2299.00, 
2300.00, 
2301.00, 
2302.00, 
2303.00, 
2304.00, 
2305.00, 
2306.00, 
2307.00, 
2308.00, 
2309.00, 
2310.00, 
2311.00, 
2312.00, 
2313.00, 
2314.00, 
2315.00, 
2316.00, 
2317.00, 
2318.00, 
2319.00, 
2320.00, 
2321.00, 
2322.00, 
2323.00, 
2324.00, 
2325.00, 
2326.00, 
2327.00, 
2328.00, 
2329.00, 
2330.00, 
2331.00, 
2332.00, 
2333.00, 
2334.00, 
2335.00, 
2336.00, 
2337.00, 
2338.00, 
2339.00, 
2340.00, 
2341.00, 
2342.00, 
2343.00, 
2344.00, 
2345.00, 
2346.00, 
2347.00, 
2348.00, 
2349.00, 
2350.00, 
2351.00, 
2352.00, 
2353.00, 
2354.00, 
2355.00, 
2356.00, 
2357.00, 
2358.00, 
2359.00, 
2360.00, 
2361.00, 
2362.00, 
2363.00, 
2364.00, 
2365.00, 
2366.00, 
2367.00, 
2368.00, 
2369.00, 
2370.00, 
2371.00, 
2372.00, 
2373.00, 
2374.00, 
2375.00, 
2376.00, 
2377.00, 
2378.00, 
2379.00, 
2380.00, 
2381.00, 
2382.00, 
2383.00, 
2384.00, 
2385.00, 
2386.00, 
2387.00, 
2388.00, 
2389.00, 
2390.00, 
2391.00, 
2392.00, 
2393.00, 
2394.00, 
2395.00, 
2396.00, 
2397.00, 
2398.00, 
2399.00, 
2400.00, 
2401.00, 
2402.00, 
2403.00, 
2404.00, 
2405.00, 
2406.00, 
2407.00, 
2408.00, 
2409.00, 
2410.00, 
2411.00, 
2412.00, 
2413.00, 
2414.00, 
2415.00, 
2416.00, 
2417.00, 
2418.00, 
2419.00, 
2420.00, 
2421.00, 
2422.00, 
2423.00, 
2424.00, 
2425.00, 
2426.00, 
2427.00, 
2428.00, 
2429.00, 
2430.00, 
2431.00, 
2432.00, 
2433.00, 
2434.00, 
2435.00, 
2436.00, 
2437.00, 
2438.00, 
2439.00, 
2440.00, 
2441.00, 
2442.00, 
2443.00, 
2444.00, 
2445.00, 
2446.00, 
2447.00, 
2448.00, 
2449.00, 
2450.00, 
2451.00, 
2452.00, 
2453.00, 
2454.00, 
2455.00, 
2456.00, 
2457.00, 
2458.00, 
2459.00, 
2460.00, 
2461.00, 
2462.00, 
2463.00, 
2464.00, 
2465.00, 
2466.00, 
2467.00, 
2468.00, 
2469.00, 
2470.00, 
2471.00, 
2472.00, 
2473.00, 
2474.00, 
2475.00, 
2476.00, 
2477.00, 
2478.00, 
2479.00, 
2480.00, 
2481.00, 
2482.00, 
2483.00, 
2484.00, 
2485.00, 
2486.00, 
2487.00, 
2488.00, 
2489.00, 
2490.00, 
2491.00, 
2492.00, 
2493.00, 
2494.00, 
2495.00, 
2496.00, 
2497.00, 
2498.00, 
2499.00, 
2500.00, 
2501.00, 
2502.00, 
2503.00, 
2504.00, 
2505.00, 
2506.00, 
2507.00, 
2508.00, 
2509.00, 
2510.00, 
2511.00, 
2512.00, 
2513.00, 
2514.00, 
2515.00, 
2516.00, 
2517.00, 
2518.00, 
2519.00, 
2520.00, 
2521.00, 
2522.00, 
2523.00, 
2524.00, 
2525.00, 
2526.00, 
2527.00, 
2528.00, 
2529.00, 
2530.00, 
2531.00, 
2532.00, 
2533.00, 
2534.00, 
2535.00, 
2536.00, 
2537.00, 
2538.00, 
2539.00, 
2540.00, 
2541.00, 
2542.00, 
2543.00, 
2544.00, 
2545.00, 
2546.00, 
2547.00, 
2548.00, 
2549.00, 
2550.00, 
2551.00, 
2552.00, 
2553.00, 
2554.00, 
2555.00, 
2556.00, 
2557.00, 
2558.00, 
2559.00, 
2560.00, 
2561.00, 
2562.00, 
2563.00, 
2564.00, 
2565.00, 
2566.00, 
2567.00, 
2568.00, 
2569.00, 
2570.00, 
2571.00, 
2572.00, 
2573.00, 
2574.00, 
2575.00, 
2576.00, 
2577.00, 
2578.00, 
2579.00, 
2580.00, 
2581.00, 
2582.00, 
2583.00, 
2584.00, 
2585.00, 
2586.00, 
2587.00, 
2588.00, 
2589.00, 
2590.00, 
2591.00, 
2592.00, 
2593.00, 
2594.00, 
2595.00, 
2596.00, 
2597.00, 
2598.00, 
2599.00, 
2600.00, 
