"2cP1 - RawData"
"Wavelength nm.","T%"
200.00,0.003
201.00,0.002
202.00,0.003
203.00,0.003
204.00,-0.001
205.00,0.003
206.00,0.001
207.00,0.003
208.00,0.002
209.00,-0.000
210.00,-0.000
211.00,0.003
212.00,0.001
213.00,0.004
214.00,-0.001
215.00,0.000
216.00,-0.001
217.00,-0.001
218.00,0.004
219.00,0.004
220.00,-0.000
221.00,0.004
222.00,0.003
223.00,0.000
224.00,-0.001
225.00,0.001
226.00,0.002
227.00,-0.001
228.00,0.001
229.00,0.001
230.00,-0.001
231.00,0.001
232.00,0.002
233.00,0.002
234.00,-0.001
235.00,0.000
236.00,0.002
237.00,0.001
238.00,0.003
239.00,0.001
240.00,0.001
241.00,0.000
242.00,0.000
243.00,-0.001
244.00,0.001
245.00,0.002
246.00,0.002
247.00,-0.000
248.00,0.001
249.00,0.001
250.00,0.000
251.00,0.001
252.00,0.001
253.00,0.001
254.00,0.000
255.00,-0.000
256.00,0.002
257.00,0.001
258.00,-0.000
259.00,-0.000
260.00,0.002
261.00,-0.001
262.00,0.002
263.00,0.002
264.00,0.002
265.00,0.001
266.00,-0.000
267.00,0.002
268.00,0.000
269.00,-0.000
270.00,-0.000
271.00,-0.000
272.00,0.000
273.00,0.001
274.00,-0.001
275.00,0.000
276.00,-0.000
277.00,0.001
278.00,-0.001
279.00,0.000
280.00,0.000
281.00,0.001
282.00,0.000
283.00,-0.002
284.00,-0.002
285.00,0.001
286.00,0.001
287.00,-0.000
288.00,0.000
289.00,0.000
290.00,0.002
291.00,-0.002
292.00,0.001
293.00,0.001
294.00,-0.000
295.00,0.001
296.00,-0.000
297.00,-0.000
298.00,-0.000
299.00,0.001
300.00,0.000
301.00,0.004
302.00,0.007
303.00,0.007
304.00,0.009
305.00,0.017
306.00,0.023
307.00,0.037
308.00,0.060
309.00,0.096
310.00,0.130
311.00,0.183
312.00,0.243
313.00,0.327
314.00,0.432
315.00,0.565
316.00,0.715
317.00,0.913
318.00,1.127
319.00,1.385
320.00,1.683
321.00,1.999
322.00,2.401
323.00,2.821
324.00,3.261
325.00,3.711
326.00,4.196
327.00,4.754
328.00,5.301
329.00,5.850
330.00,6.452
331.00,7.053
332.00,7.699
333.00,8.263
334.00,8.947
335.00,9.568
336.00,10.205
337.00,10.815
338.00,11.453
339.00,12.005
340.00,12.601
341.00,13.152
342.00,13.686
343.00,14.191
344.00,14.710
345.00,15.216
346.00,15.594
347.00,16.054
348.00,16.477
349.00,16.849
350.00,17.217
351.00,17.531
352.00,17.828
353.00,18.105
354.00,18.422
355.00,18.661
356.00,18.902
357.00,19.171
358.00,19.345
359.00,19.529
360.00,19.731
361.00,19.859
362.00,20.051
363.00,20.196
364.00,20.285
365.00,20.401
366.00,20.527
367.00,20.586
368.00,20.627
369.00,20.695
370.00,20.758
371.00,20.760
372.00,20.790
373.00,20.734
374.00,20.745
375.00,20.734
376.00,20.694
377.00,20.657
378.00,20.610
379.00,20.587
380.00,20.519
381.00,20.514
382.00,20.479
383.00,20.545
384.00,20.554
385.00,20.585
386.00,20.612
387.00,20.671
388.00,20.701
389.00,20.725
390.00,20.733
391.00,20.773
392.00,20.815
393.00,20.795
394.00,20.828
395.00,20.807
396.00,20.804
397.00,20.793
398.00,20.808
399.00,20.781
400.00,20.845
401.00,20.831
402.00,20.829
403.00,20.835
404.00,20.812
405.00,20.779
406.00,20.783
407.00,20.761
408.00,20.745
409.00,20.700
410.00,20.682
411.00,20.672
412.00,20.607
413.00,20.626
414.00,20.663
415.00,20.665
416.00,20.685
417.00,20.668
418.00,20.686
419.00,20.692
420.00,20.713
421.00,20.797
422.00,20.848
423.00,20.861
424.00,20.892
425.00,20.926
426.00,20.945
427.00,20.994
428.00,21.029
429.00,21.054
430.00,21.099
431.00,21.145
432.00,21.185
433.00,21.251
434.00,21.289
435.00,21.341
436.00,21.420
437.00,21.475
438.00,21.574
439.00,21.609
440.00,21.703
441.00,21.766
442.00,21.840
443.00,21.922
444.00,22.026
445.00,22.069
446.00,22.162
447.00,22.243
448.00,22.329
449.00,22.439
450.00,22.529
451.00,22.624
452.00,22.710
453.00,22.840
454.00,22.940
455.00,23.028
456.00,23.157
457.00,23.255
458.00,23.349
459.00,23.517
460.00,23.593
461.00,23.703
462.00,23.857
463.00,23.942
464.00,24.079
465.00,24.218
466.00,24.343
467.00,24.461
468.00,24.560
469.00,24.675
470.00,24.748
471.00,24.880
472.00,24.999
473.00,25.080
474.00,25.222
475.00,25.313
476.00,25.427
477.00,25.564
478.00,25.697
479.00,25.836
480.00,25.995
481.00,26.161
482.00,26.270
483.00,26.419
484.00,26.540
485.00,26.706
486.00,26.842
487.00,26.973
488.00,27.133
489.00,27.289
490.00,27.428
491.00,27.550
492.00,27.704
493.00,27.874
494.00,27.967
495.00,28.057
496.00,28.311
497.00,28.288
498.00,28.447
499.00,28.593
500.00,28.692
501.00,28.843
502.00,28.971
503.00,29.105
504.00,29.208
505.00,29.358
506.00,29.454
507.00,29.583
508.00,29.732
509.00,29.844
510.00,29.988
511.00,30.091
512.00,30.241
513.00,30.351
514.00,30.447
515.00,30.592
516.00,30.730
517.00,30.820
518.00,30.945
519.00,31.020
520.00,31.110
521.00,31.182
522.00,31.279
523.00,31.396
524.00,31.502
525.00,31.587
526.00,31.696
527.00,31.759
528.00,31.780
529.00,31.947
530.00,32.011
531.00,32.219
532.00,32.310
533.00,32.383
534.00,32.490
535.00,32.583
536.00,32.653
537.00,32.765
538.00,32.878
539.00,32.902
540.00,33.003
541.00,33.091
542.00,33.166
543.00,33.255
544.00,33.292
545.00,33.371
546.00,33.446
547.00,33.546
548.00,33.605
549.00,33.677
550.00,33.828
551.00,33.873
552.00,33.968
553.00,34.013
554.00,34.124
555.00,34.188
556.00,34.197
557.00,34.292
558.00,34.350
559.00,34.401
560.00,34.468
561.00,34.532
562.00,34.606
563.00,34.617
564.00,34.689
565.00,34.749
566.00,34.775
567.00,34.825
568.00,34.842
569.00,34.907
570.00,34.977
571.00,35.014
572.00,35.067
573.00,35.086
574.00,35.143
575.00,35.201
576.00,35.300
577.00,35.363
578.00,35.383
579.00,35.446
580.00,35.486
581.00,35.607
582.00,35.677
583.00,35.773
584.00,35.772
585.00,35.854
586.00,35.946
587.00,35.932
588.00,35.997
589.00,36.003
590.00,36.106
591.00,36.208
592.00,36.300
593.00,36.256
594.00,36.352
595.00,36.363
596.00,36.440
597.00,36.551
598.00,36.641
599.00,36.603
600.00,36.646
601.00,36.725
602.00,36.741
603.00,36.833
604.00,36.867
605.00,36.956
606.00,36.988
607.00,36.981
608.00,37.070
609.00,37.070
610.00,37.157
611.00,37.159
612.00,37.261
613.00,37.329
614.00,37.305
615.00,37.392
616.00,37.488
617.00,37.507
618.00,37.588
619.00,37.621
620.00,37.636
621.00,37.719
622.00,37.760
623.00,37.794
624.00,37.903
625.00,37.903
626.00,37.971
627.00,38.047
628.00,38.094
629.00,38.193
630.00,38.147
631.00,38.221
632.00,38.397
633.00,38.496
634.00,38.561
635.00,38.626
636.00,38.754
637.00,38.812
638.00,38.882
639.00,39.023
640.00,38.964
641.00,39.123
642.00,39.208
643.00,39.172
644.00,39.318
645.00,39.277
646.00,39.440
647.00,39.553
648.00,39.636
649.00,39.732
650.00,39.822
651.00,39.914
652.00,40.019
653.00,40.057
654.00,40.203
655.00,40.248
656.00,40.325
657.00,40.453
658.00,40.618
659.00,40.671
660.00,40.778
661.00,40.859
662.00,40.865
663.00,40.941
664.00,41.104
665.00,41.156
666.00,41.142
667.00,41.354
668.00,41.345
669.00,41.476
670.00,41.637
671.00,41.700
672.00,41.810
673.00,41.941
674.00,41.964
675.00,42.018
676.00,42.170
677.00,42.237
678.00,42.380
679.00,42.351
680.00,42.550
681.00,42.668
682.00,42.757
683.00,42.800
684.00,43.061
685.00,43.089
686.00,43.039
687.00,43.061
688.00,43.193
689.00,43.264
690.00,43.466
691.00,43.570
692.00,43.595
693.00,43.742
694.00,43.759
695.00,43.906
696.00,44.029
697.00,44.081
698.00,44.247
699.00,44.332
700.00,44.462
701.00,44.513
702.00,44.536
703.00,44.616
704.00,44.684
705.00,44.844
706.00,44.923
707.00,44.931
708.00,44.904
709.00,45.165
710.00,45.317
711.00,45.272
712.00,45.343
713.00,45.416
714.00,45.444
715.00,45.676
716.00,45.629
717.00,45.594
718.00,45.698
719.00,45.792
720.00,45.899
721.00,49.971
722.00,49.962
723.00,49.932
724.00,50.037
725.00,50.089
726.00,50.089
727.00,50.114
728.00,50.154
729.00,50.200
730.00,50.233
731.00,50.216
732.00,50.351
733.00,50.236
734.00,50.363
735.00,50.416
736.00,50.402
737.00,50.373
738.00,50.500
739.00,50.527
740.00,50.650
741.00,50.588
742.00,50.661
743.00,50.611
744.00,50.610
745.00,50.584
746.00,50.617
747.00,50.651
748.00,50.644
749.00,50.656
750.00,50.716
751.00,50.715
752.00,50.740
753.00,50.778
754.00,50.699
755.00,50.690
756.00,50.786
757.00,50.707
758.00,50.811
759.00,50.815
760.00,50.794
761.00,50.813
762.00,50.864
763.00,50.899
764.00,50.910
765.00,50.961
766.00,50.967
767.00,50.955
768.00,50.947
769.00,50.946
770.00,51.017
771.00,51.056
772.00,51.046
773.00,51.018
774.00,51.029
775.00,51.138
776.00,51.078
777.00,51.075
778.00,51.068
779.00,51.139
780.00,51.033
781.00,51.074
782.00,51.108
783.00,51.061
784.00,51.112
785.00,51.061
786.00,51.113
787.00,51.074
788.00,51.061
789.00,51.074
790.00,51.034
791.00,51.135
792.00,51.074
793.00,51.035
794.00,51.142
795.00,51.015
796.00,51.104
797.00,51.035
798.00,51.054
799.00,50.920
800.00,51.003
801.00,50.959
802.00,50.963
803.00,51.015
804.00,50.979
805.00,50.955
806.00,50.931
807.00,50.948
808.00,50.950
809.00,50.874
810.00,50.925
811.00,50.889
812.00,50.894
813.00,50.904
814.00,50.963
815.00,50.905
816.00,50.900
817.00,50.790
818.00,50.788
819.00,50.723
820.00,50.761
821.00,50.712
822.00,50.715
823.00,50.832
824.00,50.745
825.00,50.687
826.00,50.805
827.00,50.840
828.00,50.725
829.00,50.702
830.00,50.652
831.00,53.197
832.00,53.205
833.00,53.181
834.00,53.150
835.00,53.165
836.00,53.101
837.00,53.080
838.00,53.048
839.00,53.055
840.00,53.010
841.00,53.059
842.00,53.003
843.00,52.949
844.00,52.997
845.00,52.966
846.00,52.964
847.00,52.940
848.00,52.893
849.00,52.876
850.00,52.836
851.00,52.819
852.00,52.787
853.00,52.717
854.00,52.724
855.00,52.650
856.00,52.697
857.00,52.626
858.00,52.545
859.00,52.645
860.00,52.575
861.00,52.597
862.00,52.559
863.00,52.518
864.00,52.507
865.00,52.517
866.00,52.482
867.00,52.490
868.00,52.488
869.00,52.466
870.00,52.462
871.00,52.467
872.00,52.430
873.00,52.421
874.00,52.407
875.00,52.401
876.00,52.343
877.00,52.491
878.00,52.340
879.00,52.346
880.00,52.353
881.00,52.311
882.00,52.334
883.00,52.302
884.00,52.307
885.00,52.267
886.00,52.264
887.00,52.255
888.00,52.235
889.00,52.205
890.00,52.167
891.00,52.219
892.00,52.143
893.00,52.072
894.00,52.083
895.00,52.057
896.00,52.031
897.00,52.041
898.00,52.011
899.00,51.996
900.00,52.014
901.00,51.993
902.00,51.972
903.00,51.943
904.00,51.947
905.00,51.928
906.00,51.905
907.00,51.877
908.00,51.886
909.00,51.831
910.00,51.826
911.00,51.793
912.00,51.826
913.00,51.755
914.00,51.730
915.00,51.710
916.00,51.716
917.00,51.649
918.00,51.668
919.00,51.644
920.00,51.646
921.00,51.637
922.00,51.591
923.00,51.589
924.00,51.578
925.00,51.554
926.00,51.534
927.00,51.499
928.00,51.488
929.00,51.493
930.00,51.447
931.00,51.430
932.00,51.467
933.00,51.407
934.00,51.404
935.00,51.374
936.00,51.352
937.00,51.357
938.00,51.318
939.00,51.310
940.00,51.279
941.00,51.265
942.00,51.218
943.00,51.226
944.00,51.190
945.00,51.200
946.00,51.183
947.00,51.145
948.00,51.128
949.00,51.120
950.00,51.101
951.00,51.077
952.00,51.034
953.00,51.025
954.00,50.997
955.00,50.940
956.00,50.938
957.00,50.907
958.00,50.905
959.00,50.875
960.00,50.877
961.00,50.933
962.00,50.862
963.00,50.819
964.00,50.812
965.00,50.800
966.00,50.792
967.00,50.798
968.00,50.770
969.00,50.775
970.00,50.765
971.00,50.753
972.00,50.731
973.00,50.761
974.00,50.766
975.00,50.740
976.00,50.774
977.00,50.760
978.00,50.794
979.00,50.749
980.00,50.762
981.00,50.778
982.00,50.746
983.00,50.750
984.00,50.742
985.00,50.741
986.00,50.705
987.00,50.725
988.00,50.701
989.00,50.690
990.00,50.700
991.00,50.659
992.00,50.681
993.00,50.686
994.00,50.632
995.00,50.630
996.00,50.619
997.00,50.612
998.00,50.577
999.00,50.585
1000.00,50.539
1001.00,50.556
1002.00,50.539
1003.00,50.541
1004.00,50.515
1005.00,50.484
1006.00,50.510
1007.00,50.480
1008.00,50.468
1009.00,50.465
1010.00,50.439
1011.00,50.434
1012.00,50.409
1013.00,50.408
1014.00,50.372
1015.00,50.386
1016.00,50.352
1017.00,50.359
1018.00,50.332
1019.00,50.306
1020.00,50.295
1021.00,50.273
1022.00,50.278
1023.00,50.245
1024.00,50.237
1025.00,50.228
1026.00,50.222
1027.00,50.181
1028.00,50.172
1029.00,50.149
1030.00,50.129
1031.00,50.138
1032.00,50.099
1033.00,50.109
1034.00,50.073
1035.00,50.038
1036.00,50.036
1037.00,50.001
1038.00,49.976
1039.00,49.948
1040.00,49.951
1041.00,49.920
1042.00,49.915
1043.00,49.900
1044.00,49.921
1045.00,49.907
1046.00,49.896
1047.00,49.919
1048.00,49.912
1049.00,49.928
1050.00,49.945
1051.00,49.942
1052.00,49.971
1053.00,49.963
1054.00,49.959
1055.00,50.008
1056.00,49.994
1057.00,49.999
1058.00,49.981
1059.00,49.975
1060.00,49.972
1061.00,49.970
1062.00,49.947
1063.00,49.956
1064.00,49.944
1065.00,49.934
1066.00,49.939
1067.00,49.922
1068.00,49.927
1069.00,49.910
1070.00,49.879
1071.00,49.850
1072.00,49.885
1073.00,49.844
1074.00,49.847
1075.00,49.840
1076.00,49.821
1077.00,49.822
1078.00,49.808
1079.00,49.790
1080.00,49.813
1081.00,49.779
1082.00,49.779
1083.00,49.774
1084.00,49.759
1085.00,49.754
1086.00,49.742
1087.00,49.727
1088.00,49.718
1089.00,49.709
1090.00,49.704
1091.00,49.703
1092.00,49.691
1093.00,49.672
1094.00,49.670
1095.00,49.655
1096.00,49.646
1097.00,49.637
1098.00,49.626
1099.00,49.626
1100.00,49.627
1101.00,49.584
1102.00,49.599
1103.00,49.576
1104.00,49.562
1105.00,49.557
1106.00,49.548
1107.00,49.542
1108.00,49.550
1109.00,49.523
1110.00,49.533
1111.00,49.519
1112.00,49.502
1113.00,49.503
1114.00,49.487
1115.00,49.487
1116.00,49.498
1117.00,49.451
1118.00,49.457
1119.00,49.459
1120.00,49.460
1121.00,49.444
1122.00,49.431
1123.00,49.425
1124.00,49.422
1125.00,49.396
1126.00,49.393
1127.00,49.389
1128.00,49.373
1129.00,49.354
1130.00,49.351
1131.00,49.347
1132.00,49.351
1133.00,49.360
1134.00,49.344
1135.00,49.334
1136.00,49.321
1137.00,49.307
1138.00,49.326
1139.00,49.316
1140.00,49.308
1141.00,49.297
1142.00,49.290
1143.00,49.297
1144.00,49.279
1145.00,49.274
1146.00,49.303
1147.00,49.266
1148.00,49.259
1149.00,49.266
1150.00,49.263
1151.00,49.265
1152.00,49.251
1153.00,49.247
1154.00,49.241
1155.00,49.253
1156.00,49.223
1157.00,49.239
1158.00,49.220
1159.00,49.216
1160.00,49.215
1161.00,49.213
1162.00,49.207
1163.00,49.217
1164.00,49.202
1165.00,49.205
1166.00,49.208
1167.00,49.195
1168.00,49.202
1169.00,49.186
1170.00,49.184
1171.00,49.171
1172.00,49.170
1173.00,49.172
1174.00,49.180
1175.00,49.170
1176.00,49.179
1177.00,49.178
1178.00,49.166
1179.00,49.184
1180.00,49.167
1181.00,49.177
1182.00,49.181
1183.00,49.160
1184.00,49.154
1185.00,49.174
1186.00,49.153
1187.00,49.165
1188.00,49.142
1189.00,49.141
1190.00,49.145
1191.00,49.151
1192.00,49.163
1193.00,49.149
1194.00,49.149
1195.00,49.127
1196.00,49.148
1197.00,49.131
1198.00,49.128
1199.00,49.134
1200.00,49.105
1201.00,49.137
1202.00,49.116
1203.00,49.106
1204.00,49.106
1205.00,49.105
1206.00,49.104
1207.00,49.122
1208.00,49.097
1209.00,49.103
1210.00,49.106
1211.00,49.096
1212.00,49.117
1213.00,49.080
1214.00,49.092
1215.00,49.091
1216.00,49.091
1217.00,49.097
1218.00,49.088
1219.00,49.110
1220.00,49.106
1221.00,49.111
1222.00,49.099
1223.00,49.114
1224.00,49.101
1225.00,49.090
1226.00,49.102
1227.00,49.072
1228.00,49.087
1229.00,49.104
1230.00,49.132
1231.00,49.128
1232.00,49.146
1233.00,49.136
1234.00,49.142
1235.00,49.144
1236.00,49.138
1237.00,49.135
1238.00,49.139
1239.00,49.141
1240.00,49.146
1241.00,49.137
1242.00,49.143
1243.00,49.158
1244.00,49.131
1245.00,49.156
1246.00,49.156
1247.00,49.145
1248.00,49.147
1249.00,49.144
1250.00,49.156
1251.00,49.168
1252.00,49.178
1253.00,49.168
1254.00,49.187
1255.00,49.182
1256.00,49.171
1257.00,49.139
1258.00,49.176
1259.00,49.188
1260.00,49.191
1261.00,49.191
1262.00,49.195
1263.00,49.184
1264.00,49.196
1265.00,49.206
1266.00,49.200
1267.00,49.205
1268.00,49.220
1269.00,49.206
1270.00,49.217
1271.00,49.211
1272.00,49.222
1273.00,49.233
1274.00,49.218
1275.00,49.228
1276.00,49.234
1277.00,49.224
1278.00,49.239
1279.00,49.245
1280.00,49.237
1281.00,49.251
1282.00,49.253
1283.00,49.283
1284.00,49.248
1285.00,49.241
1286.00,49.266
1287.00,49.261
1288.00,49.262
1289.00,49.277
1290.00,49.280
1291.00,49.269
1292.00,49.321
1293.00,49.279
1294.00,49.297
1295.00,49.313
1296.00,49.312
1297.00,49.328
1298.00,49.344
1299.00,49.321
1300.00,49.337
1301.00,49.332
1302.00,49.337
1303.00,49.365
1304.00,49.324
1305.00,49.348
1306.00,49.366
1307.00,49.362
1308.00,49.375
1309.00,49.390
1310.00,49.385
1311.00,49.386
1312.00,49.376
1313.00,49.368
1314.00,49.393
1315.00,49.387
1316.00,49.398
1317.00,49.418
1318.00,49.398
1319.00,49.413
1320.00,49.431
1321.00,49.590
1322.00,49.613
1323.00,49.590
1324.00,49.585
1325.00,49.574
1326.00,49.606
1327.00,49.579
1328.00,49.589
1329.00,49.589
1330.00,49.578
1331.00,49.601
1332.00,49.585
1333.00,49.591
1334.00,49.621
1335.00,49.630
1336.00,49.669
1337.00,49.688
1338.00,49.752
1339.00,49.796
1340.00,49.852
1341.00,49.912
1342.00,50.000
1343.00,50.079
1344.00,50.066
1345.00,50.143
1346.00,50.180
1347.00,50.195
1348.00,50.222
1349.00,50.240
1350.00,50.259
1351.00,50.268
1352.00,50.264
1353.00,50.325
1354.00,50.288
1355.00,50.239
1356.00,50.296
1357.00,50.294
1358.00,50.295
1359.00,50.335
1360.00,50.371
1361.00,50.264
1362.00,50.278
1363.00,50.360
1364.00,50.281
1365.00,50.283
1366.00,50.302
1367.00,50.213
1368.00,50.152
1369.00,50.315
1370.00,50.292
1371.00,50.227
1372.00,50.257
1373.00,50.270
1374.00,50.275
1375.00,50.277
1376.00,50.254
1377.00,50.252
1378.00,50.338
1379.00,50.305
1380.00,50.264
1381.00,50.304
1382.00,50.255
1383.00,50.249
1384.00,50.217
1385.00,50.198
1386.00,50.292
1387.00,50.223
1388.00,50.206
1389.00,50.199
1390.00,50.301
1391.00,50.219
1392.00,50.235
1393.00,50.297
1394.00,50.235
1395.00,50.174
1396.00,50.162
1397.00,50.292
1398.00,50.247
1399.00,50.235
1400.00,50.107
1401.00,50.231
1402.00,50.246
1403.00,50.210
1404.00,50.208
1405.00,50.288
1406.00,50.248
1407.00,50.277
1408.00,50.243
1409.00,50.251
1410.00,50.287
1411.00,50.295
1412.00,50.319
1413.00,50.307
1414.00,50.259
1415.00,50.336
1416.00,50.380
1417.00,50.370
1418.00,50.346
1419.00,50.333
1420.00,50.377
1421.00,50.396
1422.00,50.406
1423.00,50.406
1424.00,50.432
1425.00,50.437
1426.00,50.439
1427.00,50.470
1428.00,50.464
1429.00,50.476
1430.00,50.518
1431.00,50.491
1432.00,50.530
1433.00,50.550
1434.00,50.544
1435.00,50.589
1436.00,50.585
1437.00,50.578
1438.00,50.600
1439.00,50.627
1440.00,50.634
1441.00,50.637
1442.00,50.649
1443.00,50.685
1444.00,50.703
1445.00,50.692
1446.00,50.706
1447.00,50.746
1448.00,50.777
1449.00,50.799
1450.00,50.812
1451.00,50.775
1452.00,50.795
1453.00,50.810
1454.00,50.819
1455.00,50.854
1456.00,50.862
1457.00,50.873
1458.00,50.886
1459.00,50.898
1460.00,50.916
1461.00,50.904
1462.00,50.933
1463.00,50.965
1464.00,50.953
1465.00,50.968
1466.00,50.984
1467.00,51.016
1468.00,51.042
1469.00,51.051
1470.00,51.040
1471.00,51.073
1472.00,51.075
1473.00,51.072
1474.00,51.118
1475.00,51.110
1476.00,51.115
1477.00,51.131
1478.00,51.140
1479.00,51.164
1480.00,51.169
1481.00,51.170
1482.00,51.205
1483.00,51.199
1484.00,51.199
1485.00,51.233
1486.00,51.224
1487.00,51.252
1488.00,51.266
1489.00,51.266
1490.00,51.293
1491.00,51.294
1492.00,51.308
1493.00,51.313
1494.00,51.319
1495.00,51.326
1496.00,51.344
1497.00,51.348
1498.00,51.330
1499.00,51.369
1500.00,51.388
1501.00, 
1502.00, 
1503.00, 
1504.00, 
1505.00, 
1506.00, 
1507.00, 
1508.00, 
1509.00, 
1510.00, 
1511.00, 
1512.00, 
1513.00, 
1514.00, 
1515.00, 
1516.00, 
1517.00, 
1518.00, 
1519.00, 
1520.00, 
1521.00, 
1522.00, 
1523.00, 
1524.00, 
1525.00, 
1526.00, 
1527.00, 
1528.00, 
1529.00, 
1530.00, 
1531.00, 
1532.00, 
1533.00, 
1534.00, 
1535.00, 
1536.00, 
1537.00, 
1538.00, 
1539.00, 
1540.00, 
1541.00, 
1542.00, 
1543.00, 
1544.00, 
1545.00, 
1546.00, 
1547.00, 
1548.00, 
1549.00, 
1550.00, 
1551.00, 
1552.00, 
1553.00, 
1554.00, 
1555.00, 
1556.00, 
1557.00, 
1558.00, 
1559.00, 
1560.00, 
1561.00, 
1562.00, 
1563.00, 
1564.00, 
1565.00, 
1566.00, 
1567.00, 
1568.00, 
1569.00, 
1570.00, 
1571.00, 
1572.00, 
1573.00, 
1574.00, 
1575.00, 
1576.00, 
1577.00, 
1578.00, 
1579.00, 
1580.00, 
1581.00, 
1582.00, 
1583.00, 
1584.00, 
1585.00, 
1586.00, 
1587.00, 
1588.00, 
1589.00, 
1590.00, 
1591.00, 
1592.00, 
1593.00, 
1594.00, 
1595.00, 
1596.00, 
1597.00, 
1598.00, 
1599.00, 
1600.00, 
1601.00, 
1602.00, 
1603.00, 
1604.00, 
1605.00, 
1606.00, 
1607.00, 
1608.00, 
1609.00, 
1610.00, 
1611.00, 
1612.00, 
1613.00, 
1614.00, 
1615.00, 
1616.00, 
1617.00, 
1618.00, 
1619.00, 
1620.00, 
1621.00, 
1622.00, 
1623.00, 
1624.00, 
1625.00, 
1626.00, 
1627.00, 
1628.00, 
1629.00, 
1630.00, 
1631.00, 
1632.00, 
1633.00, 
1634.00, 
1635.00, 
1636.00, 
1637.00, 
1638.00, 
1639.00, 
1640.00, 
1641.00, 
1642.00, 
1643.00, 
1644.00, 
1645.00, 
1646.00, 
1647.00, 
1648.00, 
1649.00, 
1650.00, 
1651.00, 
1652.00, 
1653.00, 
1654.00, 
1655.00, 
1656.00, 
1657.00, 
1658.00, 
1659.00, 
1660.00, 
1661.00, 
1662.00, 
1663.00, 
1664.00, 
1665.00, 
1666.00, 
1667.00, 
1668.00, 
1669.00, 
1670.00, 
1671.00, 
1672.00, 
1673.00, 
1674.00, 
1675.00, 
1676.00, 
1677.00, 
1678.00, 
1679.00, 
1680.00, 
1681.00, 
1682.00, 
1683.00, 
1684.00, 
1685.00, 
1686.00, 
1687.00, 
1688.00, 
1689.00, 
1690.00, 
1691.00, 
1692.00, 
1693.00, 
1694.00, 
1695.00, 
1696.00, 
1697.00, 
1698.00, 
1699.00, 
1700.00, 
1701.00, 
1702.00, 
1703.00, 
1704.00, 
1705.00, 
1706.00, 
1707.00, 
1708.00, 
1709.00, 
1710.00, 
1711.00, 
1712.00, 
1713.00, 
1714.00, 
1715.00, 
1716.00, 
1717.00, 
1718.00, 
1719.00, 
1720.00, 
1721.00, 
1722.00, 
1723.00, 
1724.00, 
1725.00, 
1726.00, 
1727.00, 
1728.00, 
1729.00, 
1730.00, 
1731.00, 
1732.00, 
1733.00, 
1734.00, 
1735.00, 
1736.00, 
1737.00, 
1738.00, 
1739.00, 
1740.00, 
1741.00, 
1742.00, 
1743.00, 
1744.00, 
1745.00, 
1746.00, 
1747.00, 
1748.00, 
1749.00, 
1750.00, 
1751.00, 
1752.00, 
1753.00, 
1754.00, 
1755.00, 
1756.00, 
1757.00, 
1758.00, 
1759.00, 
1760.00, 
1761.00, 
1762.00, 
1763.00, 
1764.00, 
1765.00, 
1766.00, 
1767.00, 
1768.00, 
1769.00, 
1770.00, 
1771.00, 
1772.00, 
1773.00, 
1774.00, 
1775.00, 
1776.00, 
1777.00, 
1778.00, 
1779.00, 
1780.00, 
1781.00, 
1782.00, 
1783.00, 
1784.00, 
1785.00, 
1786.00, 
1787.00, 
1788.00, 
1789.00, 
1790.00, 
1791.00, 
1792.00, 
1793.00, 
1794.00, 
1795.00, 
1796.00, 
1797.00, 
1798.00, 
1799.00, 
1800.00, 
1801.00, 
1802.00, 
1803.00, 
1804.00, 
1805.00, 
1806.00, 
1807.00, 
1808.00, 
1809.00, 
1810.00, 
1811.00, 
1812.00, 
1813.00, 
1814.00, 
1815.00, 
1816.00, 
1817.00, 
1818.00, 
1819.00, 
1820.00, 
1821.00, 
1822.00, 
1823.00, 
1824.00, 
1825.00, 
1826.00, 
1827.00, 
1828.00, 
1829.00, 
1830.00, 
1831.00, 
1832.00, 
1833.00, 
1834.00, 
1835.00, 
1836.00, 
1837.00, 
1838.00, 
1839.00, 
1840.00, 
1841.00, 
1842.00, 
1843.00, 
1844.00, 
1845.00, 
1846.00, 
1847.00, 
1848.00, 
1849.00, 
1850.00, 
1851.00, 
1852.00, 
1853.00, 
1854.00, 
1855.00, 
1856.00, 
1857.00, 
1858.00, 
1859.00, 
1860.00, 
1861.00, 
1862.00, 
1863.00, 
1864.00, 
1865.00, 
1866.00, 
1867.00, 
1868.00, 
1869.00, 
1870.00, 
1871.00, 
1872.00, 
1873.00, 
1874.00, 
1875.00, 
1876.00, 
1877.00, 
1878.00, 
1879.00, 
1880.00, 
1881.00, 
1882.00, 
1883.00, 
1884.00, 
1885.00, 
1886.00, 
1887.00, 
1888.00, 
1889.00, 
1890.00, 
1891.00, 
1892.00, 
1893.00, 
1894.00, 
1895.00, 
1896.00, 
1897.00, 
1898.00, 
1899.00, 
1900.00, 
1901.00, 
1902.00, 
1903.00, 
1904.00, 
1905.00, 
1906.00, 
1907.00, 
1908.00, 
1909.00, 
1910.00, 
1911.00, 
1912.00, 
1913.00, 
1914.00, 
1915.00, 
1916.00, 
1917.00, 
1918.00, 
1919.00, 
1920.00, 
1921.00, 
1922.00, 
1923.00, 
1924.00, 
1925.00, 
1926.00, 
1927.00, 
1928.00, 
1929.00, 
1930.00, 
1931.00, 
1932.00, 
1933.00, 
1934.00, 
1935.00, 
1936.00, 
1937.00, 
1938.00, 
1939.00, 
1940.00, 
1941.00, 
1942.00, 
1943.00, 
1944.00, 
1945.00, 
1946.00, 
1947.00, 
1948.00, 
1949.00, 
1950.00, 
1951.00, 
1952.00, 
1953.00, 
1954.00, 
1955.00, 
1956.00, 
1957.00, 
1958.00, 
1959.00, 
1960.00, 
1961.00, 
1962.00, 
1963.00, 
1964.00, 
1965.00, 
1966.00, 
1967.00, 
1968.00, 
1969.00, 
1970.00, 
1971.00, 
1972.00, 
1973.00, 
1974.00, 
1975.00, 
1976.00, 
1977.00, 
1978.00, 
1979.00, 
1980.00, 
1981.00, 
1982.00, 
1983.00, 
1984.00, 
1985.00, 
1986.00, 
1987.00, 
1988.00, 
1989.00, 
1990.00, 
1991.00, 
1992.00, 
1993.00, 
1994.00, 
1995.00, 
1996.00, 
1997.00, 
1998.00, 
1999.00, 
2000.00, 
2001.00, 
2002.00, 
2003.00, 
2004.00, 
2005.00, 
2006.00, 
2007.00, 
2008.00, 
2009.00, 
2010.00, 
2011.00, 
2012.00, 
2013.00, 
2014.00, 
2015.00, 
2016.00, 
2017.00, 
2018.00, 
2019.00, 
2020.00, 
2021.00, 
2022.00, 
2023.00, 
2024.00, 
2025.00, 
2026.00, 
2027.00, 
2028.00, 
2029.00, 
2030.00, 
2031.00, 
2032.00, 
2033.00, 
2034.00, 
2035.00, 
2036.00, 
2037.00, 
2038.00, 
2039.00, 
2040.00, 
2041.00, 
2042.00, 
2043.00, 
2044.00, 
2045.00, 
2046.00, 
2047.00, 
2048.00, 
2049.00, 
2050.00, 
2051.00, 
2052.00, 
2053.00, 
2054.00, 
2055.00, 
2056.00, 
2057.00, 
2058.00, 
2059.00, 
2060.00, 
2061.00, 
2062.00, 
2063.00, 
2064.00, 
2065.00, 
2066.00, 
2067.00, 
2068.00, 
2069.00, 
2070.00, 
2071.00, 
2072.00, 
2073.00, 
2074.00, 
2075.00, 
2076.00, 
2077.00, 
2078.00, 
2079.00, 
2080.00, 
2081.00, 
2082.00, 
2083.00, 
2084.00, 
2085.00, 
2086.00, 
2087.00, 
2088.00, 
2089.00, 
2090.00, 
2091.00, 
2092.00, 
2093.00, 
2094.00, 
2095.00, 
2096.00, 
2097.00, 
2098.00, 
2099.00, 
2100.00, 
2101.00, 
2102.00, 
2103.00, 
2104.00, 
2105.00, 
2106.00, 
2107.00, 
2108.00, 
2109.00, 
2110.00, 
2111.00, 
2112.00, 
2113.00, 
2114.00, 
2115.00, 
2116.00, 
2117.00, 
2118.00, 
2119.00, 
2120.00, 
2121.00, 
2122.00, 
2123.00, 
2124.00, 
2125.00, 
2126.00, 
2127.00, 
2128.00, 
2129.00, 
2130.00, 
2131.00, 
2132.00, 
2133.00, 
2134.00, 
2135.00, 
2136.00, 
2137.00, 
2138.00, 
2139.00, 
2140.00, 
2141.00, 
2142.00, 
2143.00, 
2144.00, 
2145.00, 
2146.00, 
2147.00, 
2148.00, 
2149.00, 
2150.00, 
2151.00, 
2152.00, 
2153.00, 
2154.00, 
2155.00, 
2156.00, 
2157.00, 
2158.00, 
2159.00, 
2160.00, 
2161.00, 
2162.00, 
2163.00, 
2164.00, 
2165.00, 
2166.00, 
2167.00, 
2168.00, 
2169.00, 
2170.00, 
2171.00, 
2172.00, 
2173.00, 
2174.00, 
2175.00, 
2176.00, 
2177.00, 
2178.00, 
2179.00, 
2180.00, 
2181.00, 
2182.00, 
2183.00, 
2184.00, 
2185.00, 
2186.00, 
2187.00, 
2188.00, 
2189.00, 
2190.00, 
2191.00, 
2192.00, 
2193.00, 
2194.00, 
2195.00, 
2196.00, 
2197.00, 
2198.00, 
2199.00, 
2200.00, 
2201.00, 
2202.00, 
2203.00, 
2204.00, 
2205.00, 
2206.00, 
2207.00, 
2208.00, 
2209.00, 
2210.00, 
2211.00, 
2212.00, 
2213.00, 
2214.00, 
2215.00, 
2216.00, 
2217.00, 
2218.00, 
2219.00, 
2220.00, 
2221.00, 
2222.00, 
2223.00, 
2224.00, 
2225.00, 
2226.00, 
2227.00, 
2228.00, 
2229.00, 
2230.00, 
2231.00, 
2232.00, 
2233.00, 
2234.00, 
2235.00, 
2236.00, 
2237.00, 
2238.00, 
2239.00, 
2240.00, 
2241.00, 
2242.00, 
2243.00, 
2244.00, 
2245.00, 
2246.00, 
2247.00, 
2248.00, 
2249.00, 
2250.00, 
2251.00, 
2252.00, 
2253.00, 
2254.00, 
2255.00, 
2256.00, 
2257.00, 
2258.00, 
2259.00, 
2260.00, 
2261.00, 
2262.00, 
2263.00, 
2264.00, 
2265.00, 
2266.00, 
2267.00, 
2268.00, 
2269.00, 
2270.00, 
2271.00, 
2272.00, 
2273.00, 
2274.00, 
2275.00, 
2276.00, 
2277.00, 
2278.00, 
2279.00, 
2280.00, 
2281.00, 
2282.00, 
2283.00, 
2284.00, 
2285.00, 
2286.00, 
2287.00, 
2288.00, 
2289.00, 
2290.00, 
2291.00, 
2292.00, 
2293.00, 
2294.00, 
2295.00, 
2296.00, 
2297.00, 
2298.00, 
2299.00, 
2300.00, 
2301.00, 
2302.00, 
2303.00, 
2304.00, 
2305.00, 
2306.00, 
2307.00, 
2308.00, 
2309.00, 
2310.00, 
2311.00, 
2312.00, 
2313.00, 
2314.00, 
2315.00, 
2316.00, 
2317.00, 
2318.00, 
2319.00, 
2320.00, 
2321.00, 
2322.00, 
2323.00, 
2324.00, 
2325.00, 
2326.00, 
2327.00, 
2328.00, 
2329.00, 
2330.00, 
2331.00, 
2332.00, 
2333.00, 
2334.00, 
2335.00, 
2336.00, 
2337.00, 
2338.00, 
2339.00, 
2340.00, 
2341.00, 
2342.00, 
2343.00, 
2344.00, 
2345.00, 
2346.00, 
2347.00, 
2348.00, 
2349.00, 
2350.00, 
2351.00, 
2352.00, 
2353.00, 
2354.00, 
2355.00, 
2356.00, 
2357.00, 
2358.00, 
2359.00, 
2360.00, 
2361.00, 
2362.00, 
2363.00, 
2364.00, 
2365.00, 
2366.00, 
2367.00, 
2368.00, 
2369.00, 
2370.00, 
2371.00, 
2372.00, 
2373.00, 
2374.00, 
2375.00, 
2376.00, 
2377.00, 
2378.00, 
2379.00, 
2380.00, 
2381.00, 
2382.00, 
2383.00, 
2384.00, 
2385.00, 
2386.00, 
2387.00, 
2388.00, 
2389.00, 
2390.00, 
2391.00, 
2392.00, 
2393.00, 
2394.00, 
2395.00, 
2396.00, 
2397.00, 
2398.00, 
2399.00, 
2400.00, 
2401.00, 
2402.00, 
2403.00, 
2404.00, 
2405.00, 
2406.00, 
2407.00, 
2408.00, 
2409.00, 
2410.00, 
2411.00, 
2412.00, 
2413.00, 
2414.00, 
2415.00, 
2416.00, 
2417.00, 
2418.00, 
2419.00, 
2420.00, 
2421.00, 
2422.00, 
2423.00, 
2424.00, 
2425.00, 
2426.00, 
2427.00, 
2428.00, 
2429.00, 
2430.00, 
2431.00, 
2432.00, 
2433.00, 
2434.00, 
2435.00, 
2436.00, 
2437.00, 
2438.00, 
2439.00, 
2440.00, 
2441.00, 
2442.00, 
2443.00, 
2444.00, 
2445.00, 
2446.00, 
2447.00, 
2448.00, 
2449.00, 
2450.00, 
2451.00, 
2452.00, 
2453.00, 
2454.00, 
2455.00, 
2456.00, 
2457.00, 
2458.00, 
2459.00, 
2460.00, 
2461.00, 
2462.00, 
2463.00, 
2464.00, 
2465.00, 
2466.00, 
2467.00, 
2468.00, 
2469.00, 
2470.00, 
2471.00, 
2472.00, 
2473.00, 
2474.00, 
2475.00, 
2476.00, 
2477.00, 
2478.00, 
2479.00, 
2480.00, 
2481.00, 
2482.00, 
2483.00, 
2484.00, 
2485.00, 
2486.00, 
2487.00, 
2488.00, 
2489.00, 
2490.00, 
2491.00, 
2492.00, 
2493.00, 
2494.00, 
2495.00, 
2496.00, 
2497.00, 
2498.00, 
2499.00, 
2500.00, 
2501.00, 
2502.00, 
2503.00, 
2504.00, 
2505.00, 
2506.00, 
2507.00, 
2508.00, 
2509.00, 
2510.00, 
2511.00, 
2512.00, 
2513.00, 
2514.00, 
2515.00, 
2516.00, 
2517.00, 
2518.00, 
2519.00, 
2520.00, 
2521.00, 
2522.00, 
2523.00, 
2524.00, 
2525.00, 
2526.00, 
2527.00, 
2528.00, 
2529.00, 
2530.00, 
2531.00, 
2532.00, 
2533.00, 
2534.00, 
2535.00, 
2536.00, 
2537.00, 
2538.00, 
2539.00, 
2540.00, 
2541.00, 
2542.00, 
2543.00, 
2544.00, 
2545.00, 
2546.00, 
2547.00, 
2548.00, 
2549.00, 
2550.00, 
2551.00, 
2552.00, 
2553.00, 
2554.00, 
2555.00, 
2556.00, 
2557.00, 
2558.00, 
2559.00, 
2560.00, 
2561.00, 
2562.00, 
2563.00, 
2564.00, 
2565.00, 
2566.00, 
2567.00, 
2568.00, 
2569.00, 
2570.00, 
2571.00, 
2572.00, 
2573.00, 
2574.00, 
2575.00, 
2576.00, 
2577.00, 
2578.00, 
2579.00, 
2580.00, 
2581.00, 
2582.00, 
2583.00, 
2584.00, 
2585.00, 
2586.00, 
2587.00, 
2588.00, 
2589.00, 
2590.00, 
2591.00, 
2592.00, 
2593.00, 
2594.00, 
2595.00, 
2596.00, 
2597.00, 
2598.00, 
2599.00, 
2600.00, 
