"2cP5 - RawData"
"Wavelength nm.","T%"
200.00,0.006
201.00,0.006
202.00,0.001
203.00,-0.001
204.00,0.003
205.00,-0.001
206.00,-0.001
207.00,0.002
208.00,-0.000
209.00,0.003
210.00,0.002
211.00,0.002
212.00,0.001
213.00,-0.002
214.00,-0.001
215.00,0.000
216.00,0.000
217.00,-0.000
218.00,0.006
219.00,0.001
220.00,0.001
221.00,0.005
222.00,-0.001
223.00,-0.000
224.00,0.001
225.00,0.001
226.00,-0.000
227.00,0.001
228.00,-0.002
229.00,-0.000
230.00,-0.001
231.00,0.002
232.00,0.002
233.00,0.002
234.00,0.001
235.00,0.001
236.00,0.002
237.00,0.001
238.00,0.000
239.00,0.003
240.00,-0.000
241.00,0.001
242.00,-0.000
243.00,-0.000
244.00,0.001
245.00,0.000
246.00,0.002
247.00,-0.000
248.00,-0.000
249.00,-0.001
250.00,0.001
251.00,0.000
252.00,0.000
253.00,0.000
254.00,-0.001
255.00,0.000
256.00,0.001
257.00,0.000
258.00,-0.001
259.00,0.000
260.00,0.001
261.00,0.002
262.00,-0.002
263.00,0.002
264.00,0.001
265.00,0.002
266.00,0.000
267.00,0.000
268.00,0.001
269.00,0.001
270.00,0.000
271.00,0.001
272.00,-0.001
273.00,-0.000
274.00,0.001
275.00,0.000
276.00,0.000
277.00,0.001
278.00,0.001
279.00,-0.000
280.00,-0.001
281.00,-0.001
282.00,0.000
283.00,0.001
284.00,0.001
285.00,0.001
286.00,-0.001
287.00,0.002
288.00,0.001
289.00,-0.001
290.00,-0.001
291.00,-0.001
292.00,0.000
293.00,-0.000
294.00,0.000
295.00,-0.000
296.00,0.001
297.00,0.001
298.00,0.001
299.00,0.002
300.00,0.002
301.00,0.001
302.00,0.003
303.00,0.007
304.00,0.008
305.00,0.017
306.00,0.025
307.00,0.038
308.00,0.057
309.00,0.090
310.00,0.123
311.00,0.168
312.00,0.233
313.00,0.316
314.00,0.395
315.00,0.530
316.00,0.679
317.00,0.859
318.00,1.060
319.00,1.312
320.00,1.580
321.00,1.894
322.00,2.252
323.00,2.664
324.00,3.072
325.00,3.470
326.00,3.932
327.00,4.450
328.00,4.981
329.00,5.512
330.00,6.051
331.00,6.602
332.00,7.190
333.00,7.805
334.00,8.364
335.00,8.962
336.00,9.531
337.00,10.116
338.00,10.696
339.00,11.201
340.00,11.711
341.00,12.271
342.00,12.763
343.00,13.251
344.00,13.720
345.00,14.189
346.00,14.579
347.00,14.964
348.00,15.331
349.00,15.677
350.00,15.959
351.00,16.296
352.00,16.521
353.00,16.837
354.00,17.064
355.00,17.336
356.00,17.559
357.00,17.712
358.00,17.938
359.00,18.102
360.00,18.303
361.00,18.479
362.00,18.557
363.00,18.711
364.00,18.739
365.00,18.832
366.00,18.886
367.00,18.996
368.00,19.025
369.00,19.102
370.00,19.109
371.00,19.124
372.00,19.141
373.00,19.117
374.00,19.136
375.00,19.136
376.00,19.047
377.00,19.045
378.00,18.951
379.00,18.930
380.00,18.915
381.00,18.902
382.00,18.897
383.00,18.876
384.00,18.901
385.00,18.925
386.00,18.909
387.00,18.942
388.00,18.999
389.00,19.033
390.00,18.952
391.00,19.030
392.00,18.996
393.00,19.044
394.00,19.078
395.00,19.074
396.00,19.067
397.00,19.089
398.00,19.158
399.00,19.058
400.00,19.047
401.00,19.051
402.00,19.052
403.00,19.049
404.00,19.030
405.00,19.039
406.00,19.025
407.00,18.973
408.00,18.984
409.00,18.952
410.00,18.922
411.00,18.903
412.00,18.925
413.00,18.902
414.00,18.898
415.00,18.884
416.00,18.948
417.00,18.957
418.00,18.944
419.00,19.046
420.00,19.083
421.00,19.151
422.00,19.164
423.00,19.223
424.00,19.293
425.00,19.224
426.00,19.272
427.00,19.332
428.00,19.379
429.00,19.442
430.00,19.476
431.00,19.552
432.00,19.565
433.00,19.632
434.00,19.725
435.00,19.770
436.00,19.830
437.00,19.910
438.00,19.989
439.00,20.016
440.00,20.119
441.00,20.202
442.00,20.262
443.00,20.360
444.00,20.443
445.00,20.539
446.00,20.639
447.00,20.755
448.00,20.836
449.00,20.900
450.00,21.015
451.00,21.099
452.00,21.224
453.00,21.357
454.00,21.441
455.00,21.568
456.00,21.708
457.00,21.809
458.00,21.918
459.00,22.056
460.00,22.168
461.00,22.323
462.00,22.437
463.00,22.596
464.00,22.651
465.00,22.898
466.00,22.894
467.00,23.112
468.00,23.222
469.00,23.341
470.00,23.453
471.00,23.563
472.00,23.682
473.00,23.774
474.00,23.916
475.00,24.041
476.00,24.134
477.00,24.274
478.00,24.414
479.00,24.559
480.00,24.695
481.00,24.819
482.00,25.013
483.00,25.143
484.00,25.343
485.00,25.480
486.00,25.642
487.00,25.780
488.00,25.937
489.00,26.112
490.00,26.269
491.00,26.384
492.00,26.626
493.00,26.765
494.00,26.809
495.00,26.965
496.00,27.083
497.00,27.199
498.00,27.373
499.00,27.501
500.00,27.640
501.00,27.734
502.00,27.922
503.00,28.058
504.00,28.158
505.00,28.290
506.00,28.360
507.00,28.501
508.00,28.652
509.00,28.778
510.00,28.924
511.00,29.044
512.00,29.173
513.00,29.301
514.00,29.428
515.00,29.545
516.00,29.744
517.00,29.827
518.00,29.957
519.00,30.043
520.00,30.097
521.00,30.240
522.00,30.275
523.00,30.331
524.00,30.456
525.00,30.562
526.00,30.678
527.00,30.799
528.00,30.849
529.00,30.993
530.00,31.139
531.00,31.301
532.00,31.388
533.00,31.478
534.00,31.570
535.00,31.691
536.00,31.759
537.00,31.843
538.00,31.922
539.00,32.013
540.00,32.120
541.00,32.083
542.00,32.145
543.00,32.224
544.00,32.343
545.00,32.393
546.00,32.466
547.00,32.557
548.00,32.629
549.00,32.746
550.00,32.789
551.00,32.893
552.00,32.973
553.00,33.010
554.00,33.119
555.00,33.255
556.00,33.205
557.00,33.194
558.00,33.312
559.00,33.407
560.00,33.565
561.00,33.576
562.00,33.635
563.00,33.653
564.00,33.747
565.00,33.752
566.00,33.754
567.00,33.786
568.00,33.871
569.00,33.907
570.00,33.970
571.00,34.014
572.00,34.069
573.00,34.050
574.00,34.098
575.00,34.119
576.00,34.168
577.00,34.199
578.00,34.276
579.00,34.399
580.00,34.434
581.00,34.528
582.00,34.626
583.00,34.651
584.00,34.806
585.00,34.850
586.00,34.834
587.00,34.922
588.00,34.960
589.00,34.888
590.00,35.004
591.00,35.065
592.00,35.054
593.00,35.118
594.00,35.174
595.00,35.221
596.00,35.333
597.00,35.351
598.00,35.478
599.00,35.508
600.00,35.562
601.00,35.585
602.00,35.536
603.00,35.635
604.00,35.699
605.00,35.716
606.00,35.780
607.00,35.788
608.00,35.943
609.00,36.025
610.00,35.880
611.00,35.978
612.00,36.045
613.00,36.113
614.00,36.037
615.00,36.118
616.00,36.409
617.00,36.354
618.00,36.355
619.00,36.502
620.00,36.549
621.00,36.571
622.00,36.643
623.00,36.742
624.00,36.837
625.00,36.874
626.00,36.928
627.00,36.952
628.00,37.017
629.00,37.085
630.00,37.118
631.00,37.224
632.00,37.270
633.00,37.431
634.00,37.458
635.00,37.550
636.00,37.641
637.00,37.755
638.00,37.791
639.00,37.858
640.00,37.924
641.00,37.964
642.00,38.041
643.00,38.163
644.00,38.271
645.00,38.341
646.00,38.508
647.00,38.506
648.00,38.619
649.00,38.701
650.00,38.699
651.00,38.816
652.00,38.917
653.00,38.961
654.00,39.091
655.00,39.225
656.00,39.454
657.00,39.497
658.00,39.534
659.00,39.648
660.00,39.737
661.00,39.697
662.00,39.809
663.00,39.962
664.00,40.117
665.00,40.370
666.00,40.188
667.00,40.201
668.00,40.450
669.00,41.108
670.00,40.889
671.00,40.906
672.00,40.945
673.00,41.047
674.00,41.241
675.00,41.335
676.00,41.546
677.00,41.620
678.00,41.504
679.00,41.644
680.00,41.804
681.00,41.984
682.00,42.030
683.00,42.125
684.00,42.289
685.00,42.321
686.00,42.323
687.00,42.423
688.00,42.635
689.00,42.715
690.00,42.870
691.00,43.044
692.00,42.998
693.00,43.080
694.00,43.197
695.00,43.345
696.00,43.387
697.00,43.562
698.00,43.594
699.00,43.776
700.00,43.911
701.00,43.938
702.00,44.005
703.00,44.191
704.00,44.296
705.00,44.255
706.00,44.440
707.00,44.556
708.00,44.417
709.00,44.722
710.00,45.044
711.00,44.674
712.00,44.833
713.00,45.215
714.00,45.139
715.00,45.269
716.00,45.258
717.00,45.329
718.00,45.545
719.00,45.567
720.00,45.671
721.00,50.015
722.00,50.026
723.00,50.044
724.00,50.104
725.00,50.104
726.00,50.175
727.00,50.196
728.00,50.234
729.00,50.408
730.00,50.351
731.00,50.446
732.00,50.458
733.00,50.546
734.00,50.611
735.00,50.591
736.00,50.671
737.00,50.697
738.00,50.739
739.00,50.834
740.00,50.812
741.00,50.899
742.00,50.920
743.00,50.929
744.00,50.958
745.00,50.952
746.00,51.027
747.00,51.063
748.00,50.957
749.00,51.043
750.00,51.109
751.00,51.083
752.00,51.115
753.00,51.149
754.00,51.215
755.00,51.206
756.00,51.229
757.00,51.227
758.00,51.335
759.00,51.318
760.00,51.348
761.00,51.355
762.00,51.341
763.00,51.504
764.00,51.429
765.00,51.443
766.00,51.568
767.00,51.589
768.00,51.481
769.00,51.569
770.00,51.623
771.00,51.592
772.00,51.618
773.00,51.640
774.00,51.654
775.00,51.703
776.00,51.623
777.00,51.752
778.00,51.753
779.00,51.858
780.00,51.755
781.00,51.722
782.00,51.798
783.00,51.827
784.00,51.848
785.00,51.812
786.00,51.896
787.00,51.781
788.00,51.772
789.00,51.812
790.00,51.833
791.00,51.841
792.00,51.795
793.00,51.808
794.00,51.780
795.00,51.726
796.00,51.752
797.00,51.780
798.00,51.812
799.00,51.705
800.00,51.716
801.00,51.724
802.00,51.768
803.00,51.775
804.00,51.779
805.00,51.754
806.00,51.686
807.00,51.716
808.00,51.739
809.00,51.682
810.00,51.685
811.00,51.739
812.00,51.758
813.00,51.704
814.00,51.710
815.00,51.681
816.00,51.701
817.00,51.662
818.00,51.590
819.00,51.584
820.00,51.627
821.00,51.618
822.00,51.623
823.00,51.652
824.00,51.605
825.00,51.541
826.00,51.521
827.00,51.611
828.00,51.631
829.00,51.643
830.00,51.354
831.00,53.715
832.00,53.703
833.00,53.654
834.00,53.703
835.00,53.659
836.00,53.656
837.00,53.627
838.00,53.628
839.00,53.628
840.00,53.572
841.00,53.608
842.00,53.558
843.00,53.557
844.00,53.557
845.00,53.475
846.00,53.494
847.00,53.524
848.00,53.485
849.00,53.425
850.00,53.453
851.00,53.373
852.00,53.409
853.00,53.368
854.00,53.340
855.00,53.259
856.00,53.289
857.00,53.229
858.00,53.212
859.00,53.183
860.00,53.194
861.00,53.178
862.00,53.113
863.00,53.147
864.00,53.148
865.00,53.143
866.00,53.116
867.00,53.120
868.00,53.132
869.00,53.095
870.00,53.067
871.00,53.095
872.00,53.076
873.00,53.059
874.00,53.043
875.00,53.039
876.00,53.041
877.00,52.933
878.00,53.024
879.00,52.994
880.00,52.975
881.00,52.960
882.00,53.014
883.00,52.946
884.00,52.916
885.00,52.917
886.00,52.913
887.00,52.895
888.00,52.813
889.00,52.825
890.00,52.817
891.00,52.794
892.00,52.774
893.00,52.735
894.00,52.752
895.00,52.703
896.00,52.693
897.00,52.673
898.00,52.653
899.00,52.669
900.00,52.667
901.00,52.623
902.00,52.634
903.00,52.618
904.00,52.612
905.00,52.594
906.00,52.584
907.00,52.553
908.00,52.548
909.00,52.502
910.00,52.471
911.00,52.473
912.00,52.485
913.00,52.429
914.00,52.433
915.00,52.392
916.00,52.380
917.00,52.345
918.00,52.347
919.00,52.308
920.00,52.273
921.00,52.267
922.00,52.279
923.00,52.264
924.00,52.204
925.00,52.230
926.00,52.228
927.00,52.180
928.00,52.174
929.00,52.180
930.00,52.133
931.00,52.123
932.00,52.081
933.00,52.100
934.00,52.081
935.00,52.045
936.00,52.031
937.00,52.007
938.00,51.980
939.00,51.992
940.00,51.966
941.00,51.959
942.00,51.918
943.00,51.932
944.00,51.881
945.00,51.879
946.00,51.883
947.00,51.853
948.00,51.821
949.00,51.815
950.00,51.798
951.00,51.785
952.00,51.749
953.00,51.779
954.00,51.699
955.00,51.667
956.00,51.652
957.00,51.617
958.00,51.640
959.00,51.574
960.00,51.554
961.00,51.542
962.00,51.551
963.00,51.501
964.00,51.490
965.00,51.502
966.00,51.487
967.00,51.487
968.00,51.477
969.00,51.485
970.00,51.450
971.00,51.465
972.00,51.404
973.00,51.469
974.00,51.497
975.00,51.456
976.00,51.489
977.00,51.473
978.00,51.502
979.00,51.440
980.00,51.478
981.00,51.482
982.00,51.433
983.00,51.455
984.00,51.506
985.00,51.468
986.00,51.413
987.00,51.440
988.00,51.411
989.00,51.408
990.00,51.403
991.00,51.393
992.00,51.394
993.00,51.349
994.00,51.342
995.00,51.346
996.00,51.319
997.00,51.300
998.00,51.277
999.00,51.300
1000.00,51.260
1001.00,51.268
1002.00,51.255
1003.00,51.255
1004.00,51.236
1005.00,51.216
1006.00,51.227
1007.00,51.178
1008.00,51.167
1009.00,51.160
1010.00,51.169
1011.00,51.145
1012.00,51.105
1013.00,51.120
1014.00,51.087
1015.00,51.106
1016.00,51.070
1017.00,51.054
1018.00,51.038
1019.00,51.009
1020.00,51.004
1021.00,50.995
1022.00,50.969
1023.00,50.929
1024.00,50.949
1025.00,50.911
1026.00,50.905
1027.00,50.885
1028.00,50.861
1029.00,50.859
1030.00,50.814
1031.00,50.829
1032.00,50.791
1033.00,50.799
1034.00,50.782
1035.00,50.756
1036.00,50.742
1037.00,50.739
1038.00,50.719
1039.00,50.651
1040.00,50.655
1041.00,50.612
1042.00,50.607
1043.00,50.600
1044.00,50.644
1045.00,50.620
1046.00,50.603
1047.00,50.626
1048.00,50.637
1049.00,50.651
1050.00,50.648
1051.00,50.667
1052.00,50.671
1053.00,50.676
1054.00,50.679
1055.00,50.697
1056.00,50.710
1057.00,50.713
1058.00,50.694
1059.00,50.699
1060.00,50.709
1061.00,50.706
1062.00,50.701
1063.00,50.699
1064.00,50.677
1065.00,50.659
1066.00,50.663
1067.00,50.645
1068.00,50.661
1069.00,50.612
1070.00,50.595
1071.00,50.577
1072.00,50.579
1073.00,50.575
1074.00,50.562
1075.00,50.559
1076.00,50.569
1077.00,50.535
1078.00,50.525
1079.00,50.528
1080.00,50.528
1081.00,50.518
1082.00,50.518
1083.00,50.491
1084.00,50.474
1085.00,50.476
1086.00,50.470
1087.00,50.467
1088.00,50.446
1089.00,50.424
1090.00,50.431
1091.00,50.440
1092.00,50.421
1093.00,50.406
1094.00,50.392
1095.00,50.387
1096.00,50.362
1097.00,50.367
1098.00,50.351
1099.00,50.340
1100.00,50.327
1101.00,50.335
1102.00,50.319
1103.00,50.317
1104.00,50.311
1105.00,50.288
1106.00,50.293
1107.00,50.278
1108.00,50.262
1109.00,50.259
1110.00,50.255
1111.00,50.242
1112.00,50.233
1113.00,50.225
1114.00,50.212
1115.00,50.221
1116.00,50.200
1117.00,50.184
1118.00,50.180
1119.00,50.164
1120.00,50.179
1121.00,50.187
1122.00,50.190
1123.00,50.151
1124.00,50.140
1125.00,50.145
1126.00,50.134
1127.00,50.135
1128.00,50.115
1129.00,50.092
1130.00,50.085
1131.00,50.074
1132.00,50.047
1133.00,50.107
1134.00,50.066
1135.00,50.044
1136.00,50.043
1137.00,50.041
1138.00,50.028
1139.00,50.045
1140.00,50.027
1141.00,50.017
1142.00,50.013
1143.00,50.025
1144.00,49.984
1145.00,50.001
1146.00,49.988
1147.00,49.984
1148.00,49.977
1149.00,49.979
1150.00,49.989
1151.00,49.986
1152.00,49.959
1153.00,49.974
1154.00,49.952
1155.00,49.957
1156.00,49.969
1157.00,49.965
1158.00,49.954
1159.00,49.958
1160.00,49.946
1161.00,49.956
1162.00,49.948
1163.00,49.946
1164.00,49.960
1165.00,49.949
1166.00,49.938
1167.00,49.944
1168.00,49.951
1169.00,49.938
1170.00,49.945
1171.00,49.919
1172.00,49.920
1173.00,49.917
1174.00,49.917
1175.00,49.916
1176.00,49.912
1177.00,49.888
1178.00,49.911
1179.00,49.919
1180.00,49.918
1181.00,49.934
1182.00,49.908
1183.00,49.922
1184.00,49.885
1185.00,49.897
1186.00,49.893
1187.00,49.881
1188.00,49.878
1189.00,49.889
1190.00,49.886
1191.00,49.892
1192.00,49.905
1193.00,49.894
1194.00,49.895
1195.00,49.868
1196.00,49.892
1197.00,49.895
1198.00,49.884
1199.00,49.869
1200.00,49.891
1201.00,49.884
1202.00,49.864
1203.00,49.869
1204.00,49.849
1205.00,49.872
1206.00,49.853
1207.00,49.857
1208.00,49.856
1209.00,49.856
1210.00,49.854
1211.00,49.846
1212.00,49.867
1213.00,49.824
1214.00,49.855
1215.00,49.838
1216.00,49.836
1217.00,49.844
1218.00,49.831
1219.00,49.858
1220.00,49.843
1221.00,49.859
1222.00,49.847
1223.00,49.868
1224.00,49.863
1225.00,49.849
1226.00,49.849
1227.00,49.836
1228.00,49.860
1229.00,49.874
1230.00,49.907
1231.00,49.876
1232.00,49.883
1233.00,49.889
1234.00,49.881
1235.00,49.882
1236.00,49.890
1237.00,49.879
1238.00,49.875
1239.00,49.881
1240.00,49.878
1241.00,49.881
1242.00,49.881
1243.00,49.900
1244.00,49.890
1245.00,49.902
1246.00,49.901
1247.00,49.915
1248.00,49.905
1249.00,49.908
1250.00,49.914
1251.00,49.900
1252.00,49.916
1253.00,49.911
1254.00,49.927
1255.00,49.917
1256.00,49.904
1257.00,49.906
1258.00,49.950
1259.00,49.921
1260.00,49.926
1261.00,49.932
1262.00,49.926
1263.00,49.932
1264.00,49.934
1265.00,49.936
1266.00,49.939
1267.00,49.934
1268.00,49.959
1269.00,49.949
1270.00,49.958
1271.00,49.959
1272.00,49.974
1273.00,49.989
1274.00,49.984
1275.00,50.000
1276.00,49.994
1277.00,49.991
1278.00,49.991
1279.00,49.991
1280.00,50.001
1281.00,49.995
1282.00,50.013
1283.00,50.001
1284.00,50.009
1285.00,50.006
1286.00,50.025
1287.00,50.011
1288.00,50.018
1289.00,50.015
1290.00,50.039
1291.00,50.033
1292.00,50.027
1293.00,50.033
1294.00,50.046
1295.00,50.049
1296.00,50.066
1297.00,50.065
1298.00,50.077
1299.00,50.065
1300.00,50.077
1301.00,50.073
1302.00,50.094
1303.00,50.103
1304.00,50.092
1305.00,50.099
1306.00,50.113
1307.00,50.125
1308.00,50.110
1309.00,50.080
1310.00,50.165
1311.00,50.109
1312.00,50.108
1313.00,50.129
1314.00,50.139
1315.00,50.152
1316.00,50.145
1317.00,50.168
1318.00,50.164
1319.00,50.177
1320.00,50.184
1321.00,50.330
1322.00,50.338
1323.00,50.337
1324.00,50.343
1325.00,50.331
1326.00,50.346
1327.00,50.340
1328.00,50.332
1329.00,50.322
1330.00,50.328
1331.00,50.324
1332.00,50.316
1333.00,50.312
1334.00,50.355
1335.00,50.371
1336.00,50.392
1337.00,50.416
1338.00,50.489
1339.00,50.521
1340.00,50.560
1341.00,50.636
1342.00,50.710
1343.00,50.792
1344.00,50.788
1345.00,50.842
1346.00,50.889
1347.00,50.914
1348.00,50.921
1349.00,50.948
1350.00,50.961
1351.00,50.974
1352.00,50.979
1353.00,51.002
1354.00,50.998
1355.00,51.003
1356.00,51.008
1357.00,51.027
1358.00,51.019
1359.00,51.030
1360.00,51.070
1361.00,51.048
1362.00,51.011
1363.00,51.047
1364.00,51.045
1365.00,51.016
1366.00,51.065
1367.00,51.006
1368.00,50.999
1369.00,51.033
1370.00,50.995
1371.00,50.957
1372.00,50.998
1373.00,50.985
1374.00,51.014
1375.00,50.997
1376.00,50.994
1377.00,50.956
1378.00,50.964
1379.00,51.029
1380.00,51.013
1381.00,51.029
1382.00,50.924
1383.00,51.017
1384.00,50.956
1385.00,50.960
1386.00,51.017
1387.00,50.980
1388.00,50.943
1389.00,50.927
1390.00,50.982
1391.00,51.005
1392.00,50.947
1393.00,51.024
1394.00,50.989
1395.00,50.976
1396.00,50.942
1397.00,51.006
1398.00,51.030
1399.00,50.970
1400.00,50.980
1401.00,50.979
1402.00,51.013
1403.00,50.981
1404.00,51.026
1405.00,51.011
1406.00,51.028
1407.00,51.047
1408.00,51.037
1409.00,51.018
1410.00,51.047
1411.00,51.067
1412.00,51.145
1413.00,51.287
1414.00,51.076
1415.00,51.102
1416.00,51.101
1417.00,51.117
1418.00,51.123
1419.00,51.123
1420.00,51.135
1421.00,51.160
1422.00,51.167
1423.00,51.186
1424.00,51.192
1425.00,51.195
1426.00,51.211
1427.00,51.240
1428.00,51.237
1429.00,51.235
1430.00,51.257
1431.00,51.268
1432.00,51.286
1433.00,51.304
1434.00,51.289
1435.00,51.331
1436.00,51.337
1437.00,51.337
1438.00,51.356
1439.00,51.381
1440.00,51.386
1441.00,51.393
1442.00,51.412
1443.00,51.405
1444.00,51.470
1445.00,51.440
1446.00,51.460
1447.00,51.488
1448.00,51.513
1449.00,51.526
1450.00,51.530
1451.00,51.541
1452.00,51.560
1453.00,51.564
1454.00,51.593
1455.00,51.608
1456.00,51.628
1457.00,51.630
1458.00,51.682
1459.00,51.679
1460.00,51.685
1461.00,51.691
1462.00,51.711
1463.00,51.720
1464.00,51.721
1465.00,51.739
1466.00,51.741
1467.00,51.744
1468.00,51.795
1469.00,51.777
1470.00,51.805
1471.00,51.819
1472.00,51.827
1473.00,51.850
1474.00,51.872
1475.00,51.893
1476.00,51.904
1477.00,51.889
1478.00,51.921
1479.00,51.938
1480.00,51.916
1481.00,51.922
1482.00,51.943
1483.00,51.944
1484.00,51.953
1485.00,51.979
1486.00,51.987
1487.00,52.006
1488.00,52.022
1489.00,52.021
1490.00,52.045
1491.00,52.044
1492.00,52.061
1493.00,52.064
1494.00,52.088
1495.00,52.090
1496.00,52.085
1497.00,52.084
1498.00,52.126
1499.00,52.125
1500.00,52.135
1501.00, 
1502.00, 
1503.00, 
1504.00, 
1505.00, 
1506.00, 
1507.00, 
1508.00, 
1509.00, 
1510.00, 
1511.00, 
1512.00, 
1513.00, 
1514.00, 
1515.00, 
1516.00, 
1517.00, 
1518.00, 
1519.00, 
1520.00, 
1521.00, 
1522.00, 
1523.00, 
1524.00, 
1525.00, 
1526.00, 
1527.00, 
1528.00, 
1529.00, 
1530.00, 
1531.00, 
1532.00, 
1533.00, 
1534.00, 
1535.00, 
1536.00, 
1537.00, 
1538.00, 
1539.00, 
1540.00, 
1541.00, 
1542.00, 
1543.00, 
1544.00, 
1545.00, 
1546.00, 
1547.00, 
1548.00, 
1549.00, 
1550.00, 
1551.00, 
1552.00, 
1553.00, 
1554.00, 
1555.00, 
1556.00, 
1557.00, 
1558.00, 
1559.00, 
1560.00, 
1561.00, 
1562.00, 
1563.00, 
1564.00, 
1565.00, 
1566.00, 
1567.00, 
1568.00, 
1569.00, 
1570.00, 
1571.00, 
1572.00, 
1573.00, 
1574.00, 
1575.00, 
1576.00, 
1577.00, 
1578.00, 
1579.00, 
1580.00, 
1581.00, 
1582.00, 
1583.00, 
1584.00, 
1585.00, 
1586.00, 
1587.00, 
1588.00, 
1589.00, 
1590.00, 
1591.00, 
1592.00, 
1593.00, 
1594.00, 
1595.00, 
1596.00, 
1597.00, 
1598.00, 
1599.00, 
1600.00, 
1601.00, 
1602.00, 
1603.00, 
1604.00, 
1605.00, 
1606.00, 
1607.00, 
1608.00, 
1609.00, 
1610.00, 
1611.00, 
1612.00, 
1613.00, 
1614.00, 
1615.00, 
1616.00, 
1617.00, 
1618.00, 
1619.00, 
1620.00, 
1621.00, 
1622.00, 
1623.00, 
1624.00, 
1625.00, 
1626.00, 
1627.00, 
1628.00, 
1629.00, 
1630.00, 
1631.00, 
1632.00, 
1633.00, 
1634.00, 
1635.00, 
1636.00, 
1637.00, 
1638.00, 
1639.00, 
1640.00, 
1641.00, 
1642.00, 
1643.00, 
1644.00, 
1645.00, 
1646.00, 
1647.00, 
1648.00, 
1649.00, 
1650.00, 
1651.00, 
1652.00, 
1653.00, 
1654.00, 
1655.00, 
1656.00, 
1657.00, 
1658.00, 
1659.00, 
1660.00, 
1661.00, 
1662.00, 
1663.00, 
1664.00, 
1665.00, 
1666.00, 
1667.00, 
1668.00, 
1669.00, 
1670.00, 
1671.00, 
1672.00, 
1673.00, 
1674.00, 
1675.00, 
1676.00, 
1677.00, 
1678.00, 
1679.00, 
1680.00, 
1681.00, 
1682.00, 
1683.00, 
1684.00, 
1685.00, 
1686.00, 
1687.00, 
1688.00, 
1689.00, 
1690.00, 
1691.00, 
1692.00, 
1693.00, 
1694.00, 
1695.00, 
1696.00, 
1697.00, 
1698.00, 
1699.00, 
1700.00, 
1701.00, 
1702.00, 
1703.00, 
1704.00, 
1705.00, 
1706.00, 
1707.00, 
1708.00, 
1709.00, 
1710.00, 
1711.00, 
1712.00, 
1713.00, 
1714.00, 
1715.00, 
1716.00, 
1717.00, 
1718.00, 
1719.00, 
1720.00, 
1721.00, 
1722.00, 
1723.00, 
1724.00, 
1725.00, 
1726.00, 
1727.00, 
1728.00, 
1729.00, 
1730.00, 
1731.00, 
1732.00, 
1733.00, 
1734.00, 
1735.00, 
1736.00, 
1737.00, 
1738.00, 
1739.00, 
1740.00, 
1741.00, 
1742.00, 
1743.00, 
1744.00, 
1745.00, 
1746.00, 
1747.00, 
1748.00, 
1749.00, 
1750.00, 
1751.00, 
1752.00, 
1753.00, 
1754.00, 
1755.00, 
1756.00, 
1757.00, 
1758.00, 
1759.00, 
1760.00, 
1761.00, 
1762.00, 
1763.00, 
1764.00, 
1765.00, 
1766.00, 
1767.00, 
1768.00, 
1769.00, 
1770.00, 
1771.00, 
1772.00, 
1773.00, 
1774.00, 
1775.00, 
1776.00, 
1777.00, 
1778.00, 
1779.00, 
1780.00, 
1781.00, 
1782.00, 
1783.00, 
1784.00, 
1785.00, 
1786.00, 
1787.00, 
1788.00, 
1789.00, 
1790.00, 
1791.00, 
1792.00, 
1793.00, 
1794.00, 
1795.00, 
1796.00, 
1797.00, 
1798.00, 
1799.00, 
1800.00, 
1801.00, 
1802.00, 
1803.00, 
1804.00, 
1805.00, 
1806.00, 
1807.00, 
1808.00, 
1809.00, 
1810.00, 
1811.00, 
1812.00, 
1813.00, 
1814.00, 
1815.00, 
1816.00, 
1817.00, 
1818.00, 
1819.00, 
1820.00, 
1821.00, 
1822.00, 
1823.00, 
1824.00, 
1825.00, 
1826.00, 
1827.00, 
1828.00, 
1829.00, 
1830.00, 
1831.00, 
1832.00, 
1833.00, 
1834.00, 
1835.00, 
1836.00, 
1837.00, 
1838.00, 
1839.00, 
1840.00, 
1841.00, 
1842.00, 
1843.00, 
1844.00, 
1845.00, 
1846.00, 
1847.00, 
1848.00, 
1849.00, 
1850.00, 
1851.00, 
1852.00, 
1853.00, 
1854.00, 
1855.00, 
1856.00, 
1857.00, 
1858.00, 
1859.00, 
1860.00, 
1861.00, 
1862.00, 
1863.00, 
1864.00, 
1865.00, 
1866.00, 
1867.00, 
1868.00, 
1869.00, 
1870.00, 
1871.00, 
1872.00, 
1873.00, 
1874.00, 
1875.00, 
1876.00, 
1877.00, 
1878.00, 
1879.00, 
1880.00, 
1881.00, 
1882.00, 
1883.00, 
1884.00, 
1885.00, 
1886.00, 
1887.00, 
1888.00, 
1889.00, 
1890.00, 
1891.00, 
1892.00, 
1893.00, 
1894.00, 
1895.00, 
1896.00, 
1897.00, 
1898.00, 
1899.00, 
1900.00, 
1901.00, 
1902.00, 
1903.00, 
1904.00, 
1905.00, 
1906.00, 
1907.00, 
1908.00, 
1909.00, 
1910.00, 
1911.00, 
1912.00, 
1913.00, 
1914.00, 
1915.00, 
1916.00, 
1917.00, 
1918.00, 
1919.00, 
1920.00, 
1921.00, 
1922.00, 
1923.00, 
1924.00, 
1925.00, 
1926.00, 
1927.00, 
1928.00, 
1929.00, 
1930.00, 
1931.00, 
1932.00, 
1933.00, 
1934.00, 
1935.00, 
1936.00, 
1937.00, 
1938.00, 
1939.00, 
1940.00, 
1941.00, 
1942.00, 
1943.00, 
1944.00, 
1945.00, 
1946.00, 
1947.00, 
1948.00, 
1949.00, 
1950.00, 
1951.00, 
1952.00, 
1953.00, 
1954.00, 
1955.00, 
1956.00, 
1957.00, 
1958.00, 
1959.00, 
1960.00, 
1961.00, 
1962.00, 
1963.00, 
1964.00, 
1965.00, 
1966.00, 
1967.00, 
1968.00, 
1969.00, 
1970.00, 
1971.00, 
1972.00, 
1973.00, 
1974.00, 
1975.00, 
1976.00, 
1977.00, 
1978.00, 
1979.00, 
1980.00, 
1981.00, 
1982.00, 
1983.00, 
1984.00, 
1985.00, 
1986.00, 
1987.00, 
1988.00, 
1989.00, 
1990.00, 
1991.00, 
1992.00, 
1993.00, 
1994.00, 
1995.00, 
1996.00, 
1997.00, 
1998.00, 
1999.00, 
2000.00, 
2001.00, 
2002.00, 
2003.00, 
2004.00, 
2005.00, 
2006.00, 
2007.00, 
2008.00, 
2009.00, 
2010.00, 
2011.00, 
2012.00, 
2013.00, 
2014.00, 
2015.00, 
2016.00, 
2017.00, 
2018.00, 
2019.00, 
2020.00, 
2021.00, 
2022.00, 
2023.00, 
2024.00, 
2025.00, 
2026.00, 
2027.00, 
2028.00, 
2029.00, 
2030.00, 
2031.00, 
2032.00, 
2033.00, 
2034.00, 
2035.00, 
2036.00, 
2037.00, 
2038.00, 
2039.00, 
2040.00, 
2041.00, 
2042.00, 
2043.00, 
2044.00, 
2045.00, 
2046.00, 
2047.00, 
2048.00, 
2049.00, 
2050.00, 
2051.00, 
2052.00, 
2053.00, 
2054.00, 
2055.00, 
2056.00, 
2057.00, 
2058.00, 
2059.00, 
2060.00, 
2061.00, 
2062.00, 
2063.00, 
2064.00, 
2065.00, 
2066.00, 
2067.00, 
2068.00, 
2069.00, 
2070.00, 
2071.00, 
2072.00, 
2073.00, 
2074.00, 
2075.00, 
2076.00, 
2077.00, 
2078.00, 
2079.00, 
2080.00, 
2081.00, 
2082.00, 
2083.00, 
2084.00, 
2085.00, 
2086.00, 
2087.00, 
2088.00, 
2089.00, 
2090.00, 
2091.00, 
2092.00, 
2093.00, 
2094.00, 
2095.00, 
2096.00, 
2097.00, 
2098.00, 
2099.00, 
2100.00, 
2101.00, 
2102.00, 
2103.00, 
2104.00, 
2105.00, 
2106.00, 
2107.00, 
2108.00, 
2109.00, 
2110.00, 
2111.00, 
2112.00, 
2113.00, 
2114.00, 
2115.00, 
2116.00, 
2117.00, 
2118.00, 
2119.00, 
2120.00, 
2121.00, 
2122.00, 
2123.00, 
2124.00, 
2125.00, 
2126.00, 
2127.00, 
2128.00, 
2129.00, 
2130.00, 
2131.00, 
2132.00, 
2133.00, 
2134.00, 
2135.00, 
2136.00, 
2137.00, 
2138.00, 
2139.00, 
2140.00, 
2141.00, 
2142.00, 
2143.00, 
2144.00, 
2145.00, 
2146.00, 
2147.00, 
2148.00, 
2149.00, 
2150.00, 
2151.00, 
2152.00, 
2153.00, 
2154.00, 
2155.00, 
2156.00, 
2157.00, 
2158.00, 
2159.00, 
2160.00, 
2161.00, 
2162.00, 
2163.00, 
2164.00, 
2165.00, 
2166.00, 
2167.00, 
2168.00, 
2169.00, 
2170.00, 
2171.00, 
2172.00, 
2173.00, 
2174.00, 
2175.00, 
2176.00, 
2177.00, 
2178.00, 
2179.00, 
2180.00, 
2181.00, 
2182.00, 
2183.00, 
2184.00, 
2185.00, 
2186.00, 
2187.00, 
2188.00, 
2189.00, 
2190.00, 
2191.00, 
2192.00, 
2193.00, 
2194.00, 
2195.00, 
2196.00, 
2197.00, 
2198.00, 
2199.00, 
2200.00, 
2201.00, 
2202.00, 
2203.00, 
2204.00, 
2205.00, 
2206.00, 
2207.00, 
2208.00, 
2209.00, 
2210.00, 
2211.00, 
2212.00, 
2213.00, 
2214.00, 
2215.00, 
2216.00, 
2217.00, 
2218.00, 
2219.00, 
2220.00, 
2221.00, 
2222.00, 
2223.00, 
2224.00, 
2225.00, 
2226.00, 
2227.00, 
2228.00, 
2229.00, 
2230.00, 
2231.00, 
2232.00, 
2233.00, 
2234.00, 
2235.00, 
2236.00, 
2237.00, 
2238.00, 
2239.00, 
2240.00, 
2241.00, 
2242.00, 
2243.00, 
2244.00, 
2245.00, 
2246.00, 
2247.00, 
2248.00, 
2249.00, 
2250.00, 
2251.00, 
2252.00, 
2253.00, 
2254.00, 
2255.00, 
2256.00, 
2257.00, 
2258.00, 
2259.00, 
2260.00, 
2261.00, 
2262.00, 
2263.00, 
2264.00, 
2265.00, 
2266.00, 
2267.00, 
2268.00, 
2269.00, 
2270.00, 
2271.00, 
2272.00, 
2273.00, 
2274.00, 
2275.00, 
2276.00, 
2277.00, 
2278.00, 
2279.00, 
2280.00, 
2281.00, 
2282.00, 
2283.00, 
2284.00, 
2285.00, 
2286.00, 
2287.00, 
2288.00, 
2289.00, 
2290.00, 
2291.00, 
2292.00, 
2293.00, 
2294.00, 
2295.00, 
2296.00, 
2297.00, 
2298.00, 
2299.00, 
2300.00, 
2301.00, 
2302.00, 
2303.00, 
2304.00, 
2305.00, 
2306.00, 
2307.00, 
2308.00, 
2309.00, 
2310.00, 
2311.00, 
2312.00, 
2313.00, 
2314.00, 
2315.00, 
2316.00, 
2317.00, 
2318.00, 
2319.00, 
2320.00, 
2321.00, 
2322.00, 
2323.00, 
2324.00, 
2325.00, 
2326.00, 
2327.00, 
2328.00, 
2329.00, 
2330.00, 
2331.00, 
2332.00, 
2333.00, 
2334.00, 
2335.00, 
2336.00, 
2337.00, 
2338.00, 
2339.00, 
2340.00, 
2341.00, 
2342.00, 
2343.00, 
2344.00, 
2345.00, 
2346.00, 
2347.00, 
2348.00, 
2349.00, 
2350.00, 
2351.00, 
2352.00, 
2353.00, 
2354.00, 
2355.00, 
2356.00, 
2357.00, 
2358.00, 
2359.00, 
2360.00, 
2361.00, 
2362.00, 
2363.00, 
2364.00, 
2365.00, 
2366.00, 
2367.00, 
2368.00, 
2369.00, 
2370.00, 
2371.00, 
2372.00, 
2373.00, 
2374.00, 
2375.00, 
2376.00, 
2377.00, 
2378.00, 
2379.00, 
2380.00, 
2381.00, 
2382.00, 
2383.00, 
2384.00, 
2385.00, 
2386.00, 
2387.00, 
2388.00, 
2389.00, 
2390.00, 
2391.00, 
2392.00, 
2393.00, 
2394.00, 
2395.00, 
2396.00, 
2397.00, 
2398.00, 
2399.00, 
2400.00, 
2401.00, 
2402.00, 
2403.00, 
2404.00, 
2405.00, 
2406.00, 
2407.00, 
2408.00, 
2409.00, 
2410.00, 
2411.00, 
2412.00, 
2413.00, 
2414.00, 
2415.00, 
2416.00, 
2417.00, 
2418.00, 
2419.00, 
2420.00, 
2421.00, 
2422.00, 
2423.00, 
2424.00, 
2425.00, 
2426.00, 
2427.00, 
2428.00, 
2429.00, 
2430.00, 
2431.00, 
2432.00, 
2433.00, 
2434.00, 
2435.00, 
2436.00, 
2437.00, 
2438.00, 
2439.00, 
2440.00, 
2441.00, 
2442.00, 
2443.00, 
2444.00, 
2445.00, 
2446.00, 
2447.00, 
2448.00, 
2449.00, 
2450.00, 
2451.00, 
2452.00, 
2453.00, 
2454.00, 
2455.00, 
2456.00, 
2457.00, 
2458.00, 
2459.00, 
2460.00, 
2461.00, 
2462.00, 
2463.00, 
2464.00, 
2465.00, 
2466.00, 
2467.00, 
2468.00, 
2469.00, 
2470.00, 
2471.00, 
2472.00, 
2473.00, 
2474.00, 
2475.00, 
2476.00, 
2477.00, 
2478.00, 
2479.00, 
2480.00, 
2481.00, 
2482.00, 
2483.00, 
2484.00, 
2485.00, 
2486.00, 
2487.00, 
2488.00, 
2489.00, 
2490.00, 
2491.00, 
2492.00, 
2493.00, 
2494.00, 
2495.00, 
2496.00, 
2497.00, 
2498.00, 
2499.00, 
2500.00, 
2501.00, 
2502.00, 
2503.00, 
2504.00, 
2505.00, 
2506.00, 
2507.00, 
2508.00, 
2509.00, 
2510.00, 
2511.00, 
2512.00, 
2513.00, 
2514.00, 
2515.00, 
2516.00, 
2517.00, 
2518.00, 
2519.00, 
2520.00, 
2521.00, 
2522.00, 
2523.00, 
2524.00, 
2525.00, 
2526.00, 
2527.00, 
2528.00, 
2529.00, 
2530.00, 
2531.00, 
2532.00, 
2533.00, 
2534.00, 
2535.00, 
2536.00, 
2537.00, 
2538.00, 
2539.00, 
2540.00, 
2541.00, 
2542.00, 
2543.00, 
2544.00, 
2545.00, 
2546.00, 
2547.00, 
2548.00, 
2549.00, 
2550.00, 
2551.00, 
2552.00, 
2553.00, 
2554.00, 
2555.00, 
2556.00, 
2557.00, 
2558.00, 
2559.00, 
2560.00, 
2561.00, 
2562.00, 
2563.00, 
2564.00, 
2565.00, 
2566.00, 
2567.00, 
2568.00, 
2569.00, 
2570.00, 
2571.00, 
2572.00, 
2573.00, 
2574.00, 
2575.00, 
2576.00, 
2577.00, 
2578.00, 
2579.00, 
2580.00, 
2581.00, 
2582.00, 
2583.00, 
2584.00, 
2585.00, 
2586.00, 
2587.00, 
2588.00, 
2589.00, 
2590.00, 
2591.00, 
2592.00, 
2593.00, 
2594.00, 
2595.00, 
2596.00, 
2597.00, 
2598.00, 
2599.00, 
2600.00, 
