"1cP4 - RawData"
"Wavelength nm.","T%"
200.00,-0.000
201.00,0.002
202.00,0.001
203.00,0.002
204.00,0.001
205.00,0.001
206.00,-0.000
207.00,0.005
208.00,-0.001
209.00,0.000
210.00,0.000
211.00,0.000
212.00,-0.000
213.00,0.002
214.00,0.003
215.00,0.000
216.00,0.003
217.00,0.001
218.00,0.003
219.00,0.002
220.00,0.003
221.00,0.002
222.00,-0.000
223.00,0.001
224.00,-0.001
225.00,0.001
226.00,-0.000
227.00,0.003
228.00,-0.000
229.00,0.002
230.00,0.001
231.00,0.000
232.00,-0.001
233.00,0.001
234.00,0.001
235.00,0.001
236.00,0.002
237.00,0.001
238.00,0.001
239.00,0.001
240.00,0.001
241.00,-0.000
242.00,0.001
243.00,-0.001
244.00,0.002
245.00,-0.000
246.00,0.000
247.00,0.001
248.00,0.001
249.00,0.000
250.00,-0.001
251.00,-0.000
252.00,0.001
253.00,0.000
254.00,0.001
255.00,-0.001
256.00,0.002
257.00,-0.002
258.00,-0.001
259.00,0.000
260.00,-0.000
261.00,0.001
262.00,0.002
263.00,-0.000
264.00,0.000
265.00,0.001
266.00,-0.001
267.00,0.002
268.00,0.000
269.00,0.001
270.00,0.001
271.00,0.000
272.00,-0.001
273.00,-0.001
274.00,-0.002
275.00,0.000
276.00,0.000
277.00,0.001
278.00,0.001
279.00,-0.001
280.00,0.001
281.00,0.000
282.00,0.000
283.00,0.001
284.00,0.003
285.00,-0.001
286.00,-0.002
287.00,0.000
288.00,-0.000
289.00,0.001
290.00,-0.001
291.00,0.002
292.00,-0.001
293.00,-0.001
294.00,0.000
295.00,-0.001
296.00,-0.000
297.00,0.000
298.00,0.000
299.00,-0.000
300.00,-0.001
301.00,-0.000
302.00,0.001
303.00,0.002
304.00,-0.001
305.00,0.001
306.00,0.002
307.00,0.002
308.00,0.004
309.00,0.009
310.00,0.015
311.00,0.022
312.00,0.034
313.00,0.053
314.00,0.078
315.00,0.121
316.00,0.172
317.00,0.236
318.00,0.320
319.00,0.431
320.00,0.577
321.00,0.745
322.00,0.950
323.00,1.199
324.00,1.488
325.00,1.776
326.00,2.110
327.00,2.506
328.00,2.924
329.00,3.376
330.00,3.844
331.00,4.361
332.00,4.882
333.00,5.454
334.00,6.023
335.00,6.618
336.00,7.192
337.00,7.808
338.00,8.389
339.00,8.915
340.00,9.498
341.00,10.094
342.00,10.618
343.00,11.167
344.00,11.693
345.00,12.136
346.00,12.601
347.00,13.047
348.00,13.438
349.00,13.805
350.00,14.245
351.00,14.497
352.00,14.844
353.00,15.168
354.00,15.435
355.00,15.710
356.00,15.959
357.00,16.150
358.00,16.331
359.00,16.598
360.00,16.800
361.00,16.920
362.00,17.054
363.00,17.210
364.00,17.260
365.00,17.341
366.00,17.393
367.00,17.469
368.00,17.521
369.00,17.545
370.00,17.564
371.00,17.540
372.00,17.514
373.00,17.585
374.00,17.535
375.00,17.428
376.00,17.364
377.00,17.274
378.00,17.216
379.00,17.118
380.00,17.099
381.00,17.069
382.00,17.046
383.00,17.065
384.00,17.102
385.00,17.142
386.00,17.127
387.00,17.202
388.00,17.249
389.00,17.242
390.00,17.289
391.00,17.306
392.00,17.332
393.00,17.303
394.00,17.336
395.00,17.344
396.00,17.307
397.00,17.329
398.00,17.307
399.00,17.298
400.00,17.278
401.00,17.266
402.00,17.311
403.00,17.287
404.00,17.279
405.00,17.258
406.00,17.256
407.00,17.231
408.00,17.223
409.00,17.168
410.00,17.129
411.00,17.137
412.00,17.107
413.00,17.110
414.00,17.074
415.00,17.064
416.00,17.087
417.00,17.056
418.00,17.067
419.00,17.145
420.00,17.191
421.00,17.146
422.00,17.176
423.00,17.203
424.00,17.237
425.00,17.272
426.00,17.287
427.00,17.324
428.00,17.363
429.00,17.404
430.00,17.442
431.00,17.507
432.00,17.505
433.00,17.563
434.00,17.619
435.00,17.693
436.00,17.761
437.00,17.811
438.00,17.860
439.00,17.938
440.00,18.014
441.00,18.082
442.00,18.131
443.00,18.223
444.00,18.309
445.00,18.410
446.00,18.491
447.00,18.570
448.00,18.675
449.00,18.816
450.00,18.846
451.00,18.969
452.00,19.091
453.00,19.199
454.00,19.278
455.00,19.409
456.00,19.512
457.00,19.651
458.00,19.741
459.00,19.878
460.00,20.044
461.00,20.138
462.00,20.251
463.00,20.409
464.00,20.520
465.00,20.659
466.00,20.804
467.00,20.896
468.00,21.003
469.00,21.124
470.00,21.219
471.00,21.319
472.00,21.520
473.00,21.592
474.00,21.721
475.00,21.863
476.00,21.944
477.00,22.096
478.00,22.225
479.00,22.437
480.00,22.561
481.00,22.680
482.00,22.885
483.00,23.013
484.00,23.165
485.00,23.315
486.00,23.481
487.00,23.629
488.00,23.757
489.00,23.909
490.00,24.052
491.00,24.187
492.00,24.316
493.00,24.554
494.00,24.705
495.00,24.768
496.00,24.901
497.00,25.020
498.00,25.128
499.00,25.320
500.00,25.461
501.00,25.583
502.00,25.704
503.00,25.890
504.00,25.901
505.00,26.069
506.00,26.210
507.00,26.280
508.00,26.476
509.00,26.666
510.00,26.780
511.00,26.840
512.00,27.004
513.00,27.211
514.00,27.278
515.00,27.426
516.00,27.577
517.00,27.652
518.00,27.799
519.00,27.877
520.00,27.919
521.00,28.088
522.00,28.189
523.00,28.242
524.00,28.360
525.00,28.516
526.00,28.551
527.00,28.637
528.00,28.703
529.00,28.923
530.00,29.044
531.00,29.170
532.00,29.228
533.00,29.349
534.00,29.449
535.00,29.539
536.00,29.617
537.00,29.709
538.00,29.806
539.00,29.859
540.00,29.947
541.00,29.998
542.00,30.036
543.00,30.118
544.00,30.202
545.00,30.265
546.00,30.338
547.00,30.481
548.00,30.577
549.00,30.631
550.00,30.685
551.00,30.798
552.00,30.858
553.00,30.900
554.00,30.984
555.00,31.023
556.00,31.075
557.00,31.129
558.00,31.237
559.00,31.286
560.00,31.337
561.00,31.411
562.00,31.519
563.00,31.494
564.00,31.586
565.00,31.655
566.00,31.639
567.00,31.760
568.00,31.789
569.00,31.826
570.00,31.872
571.00,31.932
572.00,31.933
573.00,31.914
574.00,31.989
575.00,32.035
576.00,32.041
577.00,32.113
578.00,32.190
579.00,32.216
580.00,32.250
581.00,32.410
582.00,32.509
583.00,32.507
584.00,32.656
585.00,32.709
586.00,32.716
587.00,32.812
588.00,32.836
589.00,32.786
590.00,32.875
591.00,32.940
592.00,32.881
593.00,32.982
594.00,33.083
595.00,33.141
596.00,33.211
597.00,33.255
598.00,33.305
599.00,33.309
600.00,33.419
601.00,33.447
602.00,33.445
603.00,33.525
604.00,33.519
605.00,33.599
606.00,33.681
607.00,33.684
608.00,33.756
609.00,33.855
610.00,34.032
611.00,33.899
612.00,33.950
613.00,33.984
614.00,34.085
615.00,34.097
616.00,34.225
617.00,34.221
618.00,34.201
619.00,34.306
620.00,34.376
621.00,34.444
622.00,34.438
623.00,34.647
624.00,34.749
625.00,34.760
626.00,34.818
627.00,34.924
628.00,34.894
629.00,34.977
630.00,35.082
631.00,35.114
632.00,35.174
633.00,35.300
634.00,35.461
635.00,35.518
636.00,35.623
637.00,35.697
638.00,35.735
639.00,35.868
640.00,35.928
641.00,35.968
642.00,36.069
643.00,36.202
644.00,36.270
645.00,36.298
646.00,36.497
647.00,36.545
648.00,36.553
649.00,36.715
650.00,36.750
651.00,36.867
652.00,36.907
653.00,37.012
654.00,37.027
655.00,37.250
656.00,37.574
657.00,37.456
658.00,37.536
659.00,37.727
660.00,37.840
661.00,37.886
662.00,37.915
663.00,38.097
664.00,38.343
665.00,38.524
666.00,38.500
667.00,38.497
668.00,38.640
669.00,38.919
670.00,39.085
671.00,39.127
672.00,39.452
673.00,39.266
674.00,39.356
675.00,39.505
676.00,39.720
677.00,39.887
678.00,39.695
679.00,39.952
680.00,40.124
681.00,40.336
682.00,40.375
683.00,40.414
684.00,40.629
685.00,40.628
686.00,40.624
687.00,40.800
688.00,40.926
689.00,41.020
690.00,41.148
691.00,41.464
692.00,41.298
693.00,41.097
694.00,41.638
695.00,42.091
696.00,41.902
697.00,41.873
698.00,42.038
699.00,42.333
700.00,42.313
701.00,42.247
702.00,42.449
703.00,42.693
704.00,42.837
705.00,42.793
706.00,42.969
707.00,43.017
708.00,42.905
709.00,43.275
710.00,43.744
711.00,43.289
712.00,43.449
713.00,43.706
714.00,43.779
715.00,43.757
716.00,43.847
717.00,43.996
718.00,44.214
719.00,44.160
720.00,44.286
721.00,48.566
722.00,48.669
723.00,48.653
724.00,48.703
725.00,48.734
726.00,48.825
727.00,48.884
728.00,48.888
729.00,48.993
730.00,49.027
731.00,49.071
732.00,49.066
733.00,49.116
734.00,49.206
735.00,49.292
736.00,49.372
737.00,49.376
738.00,49.473
739.00,49.464
740.00,49.606
741.00,49.636
742.00,49.667
743.00,49.720
744.00,49.740
745.00,49.790
746.00,49.830
747.00,49.740
748.00,49.893
749.00,49.737
750.00,49.936
751.00,49.922
752.00,49.933
753.00,49.982
754.00,49.979
755.00,49.980
756.00,50.042
757.00,50.106
758.00,50.120
759.00,50.104
760.00,50.147
761.00,50.151
762.00,50.201
763.00,50.199
764.00,50.267
765.00,50.246
766.00,50.310
767.00,50.374
768.00,50.329
769.00,50.329
770.00,50.419
771.00,50.407
772.00,50.574
773.00,50.504
774.00,50.446
775.00,50.503
776.00,50.592
777.00,50.601
778.00,50.565
779.00,50.646
780.00,50.516
781.00,50.729
782.00,50.664
783.00,50.690
784.00,50.695
785.00,50.561
786.00,50.656
787.00,50.683
788.00,50.672
789.00,50.629
790.00,50.630
791.00,50.698
792.00,50.632
793.00,50.603
794.00,50.589
795.00,50.650
796.00,50.631
797.00,50.610
798.00,50.660
799.00,50.621
800.00,50.633
801.00,50.669
802.00,50.645
803.00,50.663
804.00,50.583
805.00,50.542
806.00,50.614
807.00,50.544
808.00,50.571
809.00,50.602
810.00,50.596
811.00,50.556
812.00,50.628
813.00,50.480
814.00,50.517
815.00,50.544
816.00,50.576
817.00,50.534
818.00,50.467
819.00,50.527
820.00,50.486
821.00,50.502
822.00,50.398
823.00,50.441
824.00,50.485
825.00,50.454
826.00,50.445
827.00,50.441
828.00,50.464
829.00,50.429
830.00,50.375
831.00,52.814
832.00,52.812
833.00,52.754
834.00,52.744
835.00,52.776
836.00,52.725
837.00,52.711
838.00,52.669
839.00,52.699
840.00,52.627
841.00,52.632
842.00,52.591
843.00,52.641
844.00,52.605
845.00,52.573
846.00,52.558
847.00,52.574
848.00,52.604
849.00,52.463
850.00,52.473
851.00,52.432
852.00,52.450
853.00,52.405
854.00,52.381
855.00,52.359
856.00,52.353
857.00,52.341
858.00,52.311
859.00,52.317
860.00,52.312
861.00,52.310
862.00,52.266
863.00,52.272
864.00,52.227
865.00,52.253
866.00,52.247
867.00,52.244
868.00,52.224
869.00,52.212
870.00,52.214
871.00,52.208
872.00,52.206
873.00,52.179
874.00,52.175
875.00,52.163
876.00,52.172
877.00,52.133
878.00,52.126
879.00,52.144
880.00,52.107
881.00,52.104
882.00,52.127
883.00,52.104
884.00,52.035
885.00,52.046
886.00,52.056
887.00,51.999
888.00,51.975
889.00,51.970
890.00,51.951
891.00,51.945
892.00,51.925
893.00,51.913
894.00,51.912
895.00,51.878
896.00,51.864
897.00,51.846
898.00,51.846
899.00,51.849
900.00,51.793
901.00,51.792
902.00,51.775
903.00,51.738
904.00,51.705
905.00,51.718
906.00,51.700
907.00,51.671
908.00,51.633
909.00,51.645
910.00,51.612
911.00,51.599
912.00,51.567
913.00,51.546
914.00,51.563
915.00,51.553
916.00,51.520
917.00,51.506
918.00,51.488
919.00,51.459
920.00,51.411
921.00,51.444
922.00,51.436
923.00,51.406
924.00,51.396
925.00,51.394
926.00,51.411
927.00,51.330
928.00,51.319
929.00,51.339
930.00,51.280
931.00,51.230
932.00,51.269
933.00,51.228
934.00,51.242
935.00,51.214
936.00,51.142
937.00,51.136
938.00,51.163
939.00,51.132
940.00,51.114
941.00,51.101
942.00,51.080
943.00,51.057
944.00,51.025
945.00,51.027
946.00,51.021
947.00,50.960
948.00,50.933
949.00,50.924
950.00,50.885
951.00,50.857
952.00,50.880
953.00,50.823
954.00,50.811
955.00,50.775
956.00,50.755
957.00,50.741
958.00,50.724
959.00,50.702
960.00,50.694
961.00,50.690
962.00,50.689
963.00,50.652
964.00,50.634
965.00,50.635
966.00,50.621
967.00,50.597
968.00,50.589
969.00,50.583
970.00,50.589
971.00,50.605
972.00,50.529
973.00,50.605
974.00,50.619
975.00,50.591
976.00,50.599
977.00,50.590
978.00,50.619
979.00,50.584
980.00,50.586
981.00,50.587
982.00,50.545
983.00,50.604
984.00,50.538
985.00,50.553
986.00,50.519
987.00,50.557
988.00,50.527
989.00,50.508
990.00,50.501
991.00,50.480
992.00,50.483
993.00,50.442
994.00,50.450
995.00,50.450
996.00,50.452
997.00,50.407
998.00,50.429
999.00,50.425
1000.00,50.371
1001.00,50.383
1002.00,50.382
1003.00,50.413
1004.00,50.343
1005.00,50.317
1006.00,50.352
1007.00,50.337
1008.00,50.306
1009.00,50.300
1010.00,50.310
1011.00,50.284
1012.00,50.282
1013.00,50.270
1014.00,50.218
1015.00,50.233
1016.00,50.184
1017.00,50.193
1018.00,50.172
1019.00,50.138
1020.00,50.151
1021.00,50.128
1022.00,50.122
1023.00,50.081
1024.00,50.070
1025.00,50.060
1026.00,50.050
1027.00,50.015
1028.00,50.016
1029.00,50.017
1030.00,49.971
1031.00,49.998
1032.00,49.951
1033.00,49.942
1034.00,49.922
1035.00,49.890
1036.00,49.882
1037.00,49.870
1038.00,49.841
1039.00,49.830
1040.00,49.825
1041.00,49.774
1042.00,49.776
1043.00,49.743
1044.00,49.772
1045.00,49.764
1046.00,49.740
1047.00,49.751
1048.00,49.770
1049.00,49.765
1050.00,49.772
1051.00,49.824
1052.00,49.821
1053.00,49.835
1054.00,49.831
1055.00,49.839
1056.00,49.863
1057.00,49.853
1058.00,49.833
1059.00,49.847
1060.00,49.853
1061.00,49.836
1062.00,49.823
1063.00,49.814
1064.00,49.825
1065.00,49.809
1066.00,49.782
1067.00,49.808
1068.00,49.806
1069.00,49.791
1070.00,49.773
1071.00,49.760
1072.00,49.770
1073.00,49.748
1074.00,49.738
1075.00,49.732
1076.00,49.735
1077.00,49.706
1078.00,49.705
1079.00,49.687
1080.00,49.696
1081.00,49.686
1082.00,49.673
1083.00,49.680
1084.00,49.679
1085.00,49.672
1086.00,49.667
1087.00,49.665
1088.00,49.642
1089.00,49.637
1090.00,49.616
1091.00,49.622
1092.00,49.620
1093.00,49.587
1094.00,49.571
1095.00,49.574
1096.00,49.557
1097.00,49.568
1098.00,49.565
1099.00,49.544
1100.00,49.557
1101.00,49.530
1102.00,49.518
1103.00,49.511
1104.00,49.501
1105.00,49.493
1106.00,49.481
1107.00,49.466
1108.00,49.462
1109.00,49.456
1110.00,49.442
1111.00,49.457
1112.00,49.440
1113.00,49.432
1114.00,49.430
1115.00,49.414
1116.00,49.425
1117.00,49.409
1118.00,49.387
1119.00,49.398
1120.00,49.387
1121.00,49.374
1122.00,49.372
1123.00,49.364
1124.00,49.364
1125.00,49.362
1126.00,49.339
1127.00,49.352
1128.00,49.352
1129.00,49.325
1130.00,49.332
1131.00,49.323
1132.00,49.295
1133.00,49.303
1134.00,49.286
1135.00,49.295
1136.00,49.306
1137.00,49.312
1138.00,49.301
1139.00,49.303
1140.00,49.294
1141.00,49.285
1142.00,49.271
1143.00,49.278
1144.00,49.267
1145.00,49.257
1146.00,49.267
1147.00,49.265
1148.00,49.265
1149.00,49.274
1150.00,49.285
1151.00,49.291
1152.00,49.263
1153.00,49.257
1154.00,49.236
1155.00,49.240
1156.00,49.240
1157.00,49.250
1158.00,49.251
1159.00,49.231
1160.00,49.241
1161.00,49.254
1162.00,49.227
1163.00,49.244
1164.00,49.248
1165.00,49.230
1166.00,49.233
1167.00,49.214
1168.00,49.233
1169.00,49.214
1170.00,49.212
1171.00,49.197
1172.00,49.202
1173.00,49.190
1174.00,49.215
1175.00,49.214
1176.00,49.209
1177.00,49.202
1178.00,49.201
1179.00,49.218
1180.00,49.200
1181.00,49.220
1182.00,49.211
1183.00,49.204
1184.00,49.198
1185.00,49.226
1186.00,49.208
1187.00,49.189
1188.00,49.189
1189.00,49.184
1190.00,49.177
1191.00,49.188
1192.00,49.189
1193.00,49.192
1194.00,49.183
1195.00,49.164
1196.00,49.205
1197.00,49.195
1198.00,49.183
1199.00,49.178
1200.00,49.178
1201.00,49.203
1202.00,49.196
1203.00,49.183
1204.00,49.189
1205.00,49.213
1206.00,49.197
1207.00,49.211
1208.00,49.196
1209.00,49.212
1210.00,49.195
1211.00,49.203
1212.00,49.247
1213.00,49.188
1214.00,49.204
1215.00,49.195
1216.00,49.205
1217.00,49.183
1218.00,49.189
1219.00,49.212
1220.00,49.181
1221.00,49.202
1222.00,49.177
1223.00,49.197
1224.00,49.186
1225.00,49.165
1226.00,49.179
1227.00,49.184
1228.00,49.197
1229.00,49.223
1230.00,49.248
1231.00,49.229
1232.00,49.264
1233.00,49.260
1234.00,49.258
1235.00,49.259
1236.00,49.252
1237.00,49.255
1238.00,49.255
1239.00,49.248
1240.00,49.254
1241.00,49.261
1242.00,49.260
1243.00,49.289
1244.00,49.254
1245.00,49.306
1246.00,49.311
1247.00,49.296
1248.00,49.304
1249.00,49.316
1250.00,49.303
1251.00,49.292
1252.00,49.303
1253.00,49.297
1254.00,49.337
1255.00,49.306
1256.00,49.298
1257.00,49.313
1258.00,49.353
1259.00,49.360
1260.00,49.376
1261.00,49.368
1262.00,49.371
1263.00,49.369
1264.00,49.348
1265.00,49.359
1266.00,49.361
1267.00,49.374
1268.00,49.384
1269.00,49.377
1270.00,49.400
1271.00,49.405
1272.00,49.392
1273.00,49.424
1274.00,49.419
1275.00,49.420
1276.00,49.424
1277.00,49.422
1278.00,49.446
1279.00,49.443
1280.00,49.429
1281.00,49.431
1282.00,49.468
1283.00,49.447
1284.00,49.473
1285.00,49.461
1286.00,49.472
1287.00,49.468
1288.00,49.469
1289.00,49.469
1290.00,49.498
1291.00,49.492
1292.00,49.515
1293.00,49.520
1294.00,49.528
1295.00,49.545
1296.00,49.525
1297.00,49.517
1298.00,49.562
1299.00,49.544
1300.00,49.556
1301.00,49.570
1302.00,49.592
1303.00,49.588
1304.00,49.582
1305.00,49.593
1306.00,49.619
1307.00,49.620
1308.00,49.607
1309.00,49.611
1310.00,49.587
1311.00,49.590
1312.00,49.603
1313.00,49.636
1314.00,49.662
1315.00,49.678
1316.00,49.673
1317.00,49.719
1318.00,49.713
1319.00,49.701
1320.00,49.720
1321.00,49.565
1322.00,49.561
1323.00,49.550
1324.00,49.526
1325.00,49.534
1326.00,49.568
1327.00,49.532
1328.00,49.562
1329.00,49.557
1330.00,49.555
1331.00,49.567
1332.00,49.575
1333.00,49.576
1334.00,49.625
1335.00,49.633
1336.00,49.681
1337.00,49.722
1338.00,49.767
1339.00,49.818
1340.00,49.874
1341.00,49.930
1342.00,49.999
1343.00,50.017
1344.00,50.087
1345.00,50.163
1346.00,50.166
1347.00,50.193
1348.00,50.226
1349.00,50.214
1350.00,50.231
1351.00,50.259
1352.00,50.272
1353.00,50.291
1354.00,50.293
1355.00,50.290
1356.00,50.326
1357.00,50.300
1358.00,50.334
1359.00,50.308
1360.00,50.325
1361.00,50.351
1362.00,50.316
1363.00,50.370
1364.00,50.392
1365.00,50.358
1366.00,50.354
1367.00,50.305
1368.00,50.271
1369.00,50.359
1370.00,50.346
1371.00,50.340
1372.00,50.357
1373.00,50.342
1374.00,50.366
1375.00,50.346
1376.00,50.346
1377.00,50.341
1378.00,50.364
1379.00,50.312
1380.00,50.365
1381.00,50.345
1382.00,50.343
1383.00,50.398
1384.00,50.350
1385.00,50.382
1386.00,50.377
1387.00,50.321
1388.00,50.317
1389.00,50.330
1390.00,50.300
1391.00,50.367
1392.00,50.368
1393.00,50.363
1394.00,50.425
1395.00,50.356
1396.00,50.340
1397.00,50.358
1398.00,50.361
1399.00,50.393
1400.00,50.335
1401.00,50.335
1402.00,50.365
1403.00,50.333
1404.00,50.387
1405.00,50.443
1406.00,50.428
1407.00,50.462
1408.00,50.461
1409.00,50.421
1410.00,50.485
1411.00,50.482
1412.00,50.523
1413.00,50.483
1414.00,50.481
1415.00,50.485
1416.00,50.510
1417.00,50.539
1418.00,50.511
1419.00,50.526
1420.00,50.538
1421.00,50.573
1422.00,50.590
1423.00,50.599
1424.00,50.628
1425.00,50.634
1426.00,50.619
1427.00,50.654
1428.00,50.671
1429.00,50.677
1430.00,50.709
1431.00,50.726
1432.00,50.720
1433.00,50.751
1434.00,50.725
1435.00,50.794
1436.00,50.809
1437.00,50.772
1438.00,50.807
1439.00,50.831
1440.00,50.837
1441.00,50.875
1442.00,50.872
1443.00,50.897
1444.00,50.950
1445.00,50.920
1446.00,50.942
1447.00,50.969
1448.00,50.989
1449.00,51.011
1450.00,51.013
1451.00,51.025
1452.00,51.063
1453.00,51.039
1454.00,51.077
1455.00,51.110
1456.00,51.096
1457.00,51.122
1458.00,51.162
1459.00,51.162
1460.00,51.197
1461.00,51.186
1462.00,51.223
1463.00,51.238
1464.00,51.238
1465.00,51.240
1466.00,51.258
1467.00,51.250
1468.00,51.330
1469.00,51.317
1470.00,51.337
1471.00,51.368
1472.00,51.371
1473.00,51.386
1474.00,51.404
1475.00,51.406
1476.00,51.429
1477.00,51.427
1478.00,51.450
1479.00,51.474
1480.00,51.480
1481.00,51.475
1482.00,51.514
1483.00,51.514
1484.00,51.530
1485.00,51.563
1486.00,51.561
1487.00,51.591
1488.00,51.622
1489.00,51.603
1490.00,51.647
1491.00,51.668
1492.00,51.685
1493.00,51.681
1494.00,51.713
1495.00,51.709
1496.00,51.745
1497.00,51.730
1498.00,51.757
1499.00,51.781
1500.00,51.775
1501.00, 
1502.00, 
1503.00, 
1504.00, 
1505.00, 
1506.00, 
1507.00, 
1508.00, 
1509.00, 
1510.00, 
1511.00, 
1512.00, 
1513.00, 
1514.00, 
1515.00, 
1516.00, 
1517.00, 
1518.00, 
1519.00, 
1520.00, 
1521.00, 
1522.00, 
1523.00, 
1524.00, 
1525.00, 
1526.00, 
1527.00, 
1528.00, 
1529.00, 
1530.00, 
1531.00, 
1532.00, 
1533.00, 
1534.00, 
1535.00, 
1536.00, 
1537.00, 
1538.00, 
1539.00, 
1540.00, 
1541.00, 
1542.00, 
1543.00, 
1544.00, 
1545.00, 
1546.00, 
1547.00, 
1548.00, 
1549.00, 
1550.00, 
1551.00, 
1552.00, 
1553.00, 
1554.00, 
1555.00, 
1556.00, 
1557.00, 
1558.00, 
1559.00, 
1560.00, 
1561.00, 
1562.00, 
1563.00, 
1564.00, 
1565.00, 
1566.00, 
1567.00, 
1568.00, 
1569.00, 
1570.00, 
1571.00, 
1572.00, 
1573.00, 
1574.00, 
1575.00, 
1576.00, 
1577.00, 
1578.00, 
1579.00, 
1580.00, 
1581.00, 
1582.00, 
1583.00, 
1584.00, 
1585.00, 
1586.00, 
1587.00, 
1588.00, 
1589.00, 
1590.00, 
1591.00, 
1592.00, 
1593.00, 
1594.00, 
1595.00, 
1596.00, 
1597.00, 
1598.00, 
1599.00, 
1600.00, 
1601.00, 
1602.00, 
1603.00, 
1604.00, 
1605.00, 
1606.00, 
1607.00, 
1608.00, 
1609.00, 
1610.00, 
1611.00, 
1612.00, 
1613.00, 
1614.00, 
1615.00, 
1616.00, 
1617.00, 
1618.00, 
1619.00, 
1620.00, 
1621.00, 
1622.00, 
1623.00, 
1624.00, 
1625.00, 
1626.00, 
1627.00, 
1628.00, 
1629.00, 
1630.00, 
1631.00, 
1632.00, 
1633.00, 
1634.00, 
1635.00, 
1636.00, 
1637.00, 
1638.00, 
1639.00, 
1640.00, 
1641.00, 
1642.00, 
1643.00, 
1644.00, 
1645.00, 
1646.00, 
1647.00, 
1648.00, 
1649.00, 
1650.00, 
1651.00, 
1652.00, 
1653.00, 
1654.00, 
1655.00, 
1656.00, 
1657.00, 
1658.00, 
1659.00, 
1660.00, 
1661.00, 
1662.00, 
1663.00, 
1664.00, 
1665.00, 
1666.00, 
1667.00, 
1668.00, 
1669.00, 
1670.00, 
1671.00, 
1672.00, 
1673.00, 
1674.00, 
1675.00, 
1676.00, 
1677.00, 
1678.00, 
1679.00, 
1680.00, 
1681.00, 
1682.00, 
1683.00, 
1684.00, 
1685.00, 
1686.00, 
1687.00, 
1688.00, 
1689.00, 
1690.00, 
1691.00, 
1692.00, 
1693.00, 
1694.00, 
1695.00, 
1696.00, 
1697.00, 
1698.00, 
1699.00, 
1700.00, 
1701.00, 
1702.00, 
1703.00, 
1704.00, 
1705.00, 
1706.00, 
1707.00, 
1708.00, 
1709.00, 
1710.00, 
1711.00, 
1712.00, 
1713.00, 
1714.00, 
1715.00, 
1716.00, 
1717.00, 
1718.00, 
1719.00, 
1720.00, 
1721.00, 
1722.00, 
1723.00, 
1724.00, 
1725.00, 
1726.00, 
1727.00, 
1728.00, 
1729.00, 
1730.00, 
1731.00, 
1732.00, 
1733.00, 
1734.00, 
1735.00, 
1736.00, 
1737.00, 
1738.00, 
1739.00, 
1740.00, 
1741.00, 
1742.00, 
1743.00, 
1744.00, 
1745.00, 
1746.00, 
1747.00, 
1748.00, 
1749.00, 
1750.00, 
1751.00, 
1752.00, 
1753.00, 
1754.00, 
1755.00, 
1756.00, 
1757.00, 
1758.00, 
1759.00, 
1760.00, 
1761.00, 
1762.00, 
1763.00, 
1764.00, 
1765.00, 
1766.00, 
1767.00, 
1768.00, 
1769.00, 
1770.00, 
1771.00, 
1772.00, 
1773.00, 
1774.00, 
1775.00, 
1776.00, 
1777.00, 
1778.00, 
1779.00, 
1780.00, 
1781.00, 
1782.00, 
1783.00, 
1784.00, 
1785.00, 
1786.00, 
1787.00, 
1788.00, 
1789.00, 
1790.00, 
1791.00, 
1792.00, 
1793.00, 
1794.00, 
1795.00, 
1796.00, 
1797.00, 
1798.00, 
1799.00, 
1800.00, 
1801.00, 
1802.00, 
1803.00, 
1804.00, 
1805.00, 
1806.00, 
1807.00, 
1808.00, 
1809.00, 
1810.00, 
1811.00, 
1812.00, 
1813.00, 
1814.00, 
1815.00, 
1816.00, 
1817.00, 
1818.00, 
1819.00, 
1820.00, 
1821.00, 
1822.00, 
1823.00, 
1824.00, 
1825.00, 
1826.00, 
1827.00, 
1828.00, 
1829.00, 
1830.00, 
1831.00, 
1832.00, 
1833.00, 
1834.00, 
1835.00, 
1836.00, 
1837.00, 
1838.00, 
1839.00, 
1840.00, 
1841.00, 
1842.00, 
1843.00, 
1844.00, 
1845.00, 
1846.00, 
1847.00, 
1848.00, 
1849.00, 
1850.00, 
1851.00, 
1852.00, 
1853.00, 
1854.00, 
1855.00, 
1856.00, 
1857.00, 
1858.00, 
1859.00, 
1860.00, 
1861.00, 
1862.00, 
1863.00, 
1864.00, 
1865.00, 
1866.00, 
1867.00, 
1868.00, 
1869.00, 
1870.00, 
1871.00, 
1872.00, 
1873.00, 
1874.00, 
1875.00, 
1876.00, 
1877.00, 
1878.00, 
1879.00, 
1880.00, 
1881.00, 
1882.00, 
1883.00, 
1884.00, 
1885.00, 
1886.00, 
1887.00, 
1888.00, 
1889.00, 
1890.00, 
1891.00, 
1892.00, 
1893.00, 
1894.00, 
1895.00, 
1896.00, 
1897.00, 
1898.00, 
1899.00, 
1900.00, 
1901.00, 
1902.00, 
1903.00, 
1904.00, 
1905.00, 
1906.00, 
1907.00, 
1908.00, 
1909.00, 
1910.00, 
1911.00, 
1912.00, 
1913.00, 
1914.00, 
1915.00, 
1916.00, 
1917.00, 
1918.00, 
1919.00, 
1920.00, 
1921.00, 
1922.00, 
1923.00, 
1924.00, 
1925.00, 
1926.00, 
1927.00, 
1928.00, 
1929.00, 
1930.00, 
1931.00, 
1932.00, 
1933.00, 
1934.00, 
1935.00, 
1936.00, 
1937.00, 
1938.00, 
1939.00, 
1940.00, 
1941.00, 
1942.00, 
1943.00, 
1944.00, 
1945.00, 
1946.00, 
1947.00, 
1948.00, 
1949.00, 
1950.00, 
1951.00, 
1952.00, 
1953.00, 
1954.00, 
1955.00, 
1956.00, 
1957.00, 
1958.00, 
1959.00, 
1960.00, 
1961.00, 
1962.00, 
1963.00, 
1964.00, 
1965.00, 
1966.00, 
1967.00, 
1968.00, 
1969.00, 
1970.00, 
1971.00, 
1972.00, 
1973.00, 
1974.00, 
1975.00, 
1976.00, 
1977.00, 
1978.00, 
1979.00, 
1980.00, 
1981.00, 
1982.00, 
1983.00, 
1984.00, 
1985.00, 
1986.00, 
1987.00, 
1988.00, 
1989.00, 
1990.00, 
1991.00, 
1992.00, 
1993.00, 
1994.00, 
1995.00, 
1996.00, 
1997.00, 
1998.00, 
1999.00, 
2000.00, 
2001.00, 
2002.00, 
2003.00, 
2004.00, 
2005.00, 
2006.00, 
2007.00, 
2008.00, 
2009.00, 
2010.00, 
2011.00, 
2012.00, 
2013.00, 
2014.00, 
2015.00, 
2016.00, 
2017.00, 
2018.00, 
2019.00, 
2020.00, 
2021.00, 
2022.00, 
2023.00, 
2024.00, 
2025.00, 
2026.00, 
2027.00, 
2028.00, 
2029.00, 
2030.00, 
2031.00, 
2032.00, 
2033.00, 
2034.00, 
2035.00, 
2036.00, 
2037.00, 
2038.00, 
2039.00, 
2040.00, 
2041.00, 
2042.00, 
2043.00, 
2044.00, 
2045.00, 
2046.00, 
2047.00, 
2048.00, 
2049.00, 
2050.00, 
2051.00, 
2052.00, 
2053.00, 
2054.00, 
2055.00, 
2056.00, 
2057.00, 
2058.00, 
2059.00, 
2060.00, 
2061.00, 
2062.00, 
2063.00, 
2064.00, 
2065.00, 
2066.00, 
2067.00, 
2068.00, 
2069.00, 
2070.00, 
2071.00, 
2072.00, 
2073.00, 
2074.00, 
2075.00, 
2076.00, 
2077.00, 
2078.00, 
2079.00, 
2080.00, 
2081.00, 
2082.00, 
2083.00, 
2084.00, 
2085.00, 
2086.00, 
2087.00, 
2088.00, 
2089.00, 
2090.00, 
2091.00, 
2092.00, 
2093.00, 
2094.00, 
2095.00, 
2096.00, 
2097.00, 
2098.00, 
2099.00, 
2100.00, 
2101.00, 
2102.00, 
2103.00, 
2104.00, 
2105.00, 
2106.00, 
2107.00, 
2108.00, 
2109.00, 
2110.00, 
2111.00, 
2112.00, 
2113.00, 
2114.00, 
2115.00, 
2116.00, 
2117.00, 
2118.00, 
2119.00, 
2120.00, 
2121.00, 
2122.00, 
2123.00, 
2124.00, 
2125.00, 
2126.00, 
2127.00, 
2128.00, 
2129.00, 
2130.00, 
2131.00, 
2132.00, 
2133.00, 
2134.00, 
2135.00, 
2136.00, 
2137.00, 
2138.00, 
2139.00, 
2140.00, 
2141.00, 
2142.00, 
2143.00, 
2144.00, 
2145.00, 
2146.00, 
2147.00, 
2148.00, 
2149.00, 
2150.00, 
2151.00, 
2152.00, 
2153.00, 
2154.00, 
2155.00, 
2156.00, 
2157.00, 
2158.00, 
2159.00, 
2160.00, 
2161.00, 
2162.00, 
2163.00, 
2164.00, 
2165.00, 
2166.00, 
2167.00, 
2168.00, 
2169.00, 
2170.00, 
2171.00, 
2172.00, 
2173.00, 
2174.00, 
2175.00, 
2176.00, 
2177.00, 
2178.00, 
2179.00, 
2180.00, 
2181.00, 
2182.00, 
2183.00, 
2184.00, 
2185.00, 
2186.00, 
2187.00, 
2188.00, 
2189.00, 
2190.00, 
2191.00, 
2192.00, 
2193.00, 
2194.00, 
2195.00, 
2196.00, 
2197.00, 
2198.00, 
2199.00, 
2200.00, 
2201.00, 
2202.00, 
2203.00, 
2204.00, 
2205.00, 
2206.00, 
2207.00, 
2208.00, 
2209.00, 
2210.00, 
2211.00, 
2212.00, 
2213.00, 
2214.00, 
2215.00, 
2216.00, 
2217.00, 
2218.00, 
2219.00, 
2220.00, 
2221.00, 
2222.00, 
2223.00, 
2224.00, 
2225.00, 
2226.00, 
2227.00, 
2228.00, 
2229.00, 
2230.00, 
2231.00, 
2232.00, 
2233.00, 
2234.00, 
2235.00, 
2236.00, 
2237.00, 
2238.00, 
2239.00, 
2240.00, 
2241.00, 
2242.00, 
2243.00, 
2244.00, 
2245.00, 
2246.00, 
2247.00, 
2248.00, 
2249.00, 
2250.00, 
2251.00, 
2252.00, 
2253.00, 
2254.00, 
2255.00, 
2256.00, 
2257.00, 
2258.00, 
2259.00, 
2260.00, 
2261.00, 
2262.00, 
2263.00, 
2264.00, 
2265.00, 
2266.00, 
2267.00, 
2268.00, 
2269.00, 
2270.00, 
2271.00, 
2272.00, 
2273.00, 
2274.00, 
2275.00, 
2276.00, 
2277.00, 
2278.00, 
2279.00, 
2280.00, 
2281.00, 
2282.00, 
2283.00, 
2284.00, 
2285.00, 
2286.00, 
2287.00, 
2288.00, 
2289.00, 
2290.00, 
2291.00, 
2292.00, 
2293.00, 
2294.00, 
2295.00, 
2296.00, 
2297.00, 
2298.00, 
2299.00, 
2300.00, 
2301.00, 
2302.00, 
2303.00, 
2304.00, 
2305.00, 
2306.00, 
2307.00, 
2308.00, 
2309.00, 
2310.00, 
2311.00, 
2312.00, 
2313.00, 
2314.00, 
2315.00, 
2316.00, 
2317.00, 
2318.00, 
2319.00, 
2320.00, 
2321.00, 
2322.00, 
2323.00, 
2324.00, 
2325.00, 
2326.00, 
2327.00, 
2328.00, 
2329.00, 
2330.00, 
2331.00, 
2332.00, 
2333.00, 
2334.00, 
2335.00, 
2336.00, 
2337.00, 
2338.00, 
2339.00, 
2340.00, 
2341.00, 
2342.00, 
2343.00, 
2344.00, 
2345.00, 
2346.00, 
2347.00, 
2348.00, 
2349.00, 
2350.00, 
2351.00, 
2352.00, 
2353.00, 
2354.00, 
2355.00, 
2356.00, 
2357.00, 
2358.00, 
2359.00, 
2360.00, 
2361.00, 
2362.00, 
2363.00, 
2364.00, 
2365.00, 
2366.00, 
2367.00, 
2368.00, 
2369.00, 
2370.00, 
2371.00, 
2372.00, 
2373.00, 
2374.00, 
2375.00, 
2376.00, 
2377.00, 
2378.00, 
2379.00, 
2380.00, 
2381.00, 
2382.00, 
2383.00, 
2384.00, 
2385.00, 
2386.00, 
2387.00, 
2388.00, 
2389.00, 
2390.00, 
2391.00, 
2392.00, 
2393.00, 
2394.00, 
2395.00, 
2396.00, 
2397.00, 
2398.00, 
2399.00, 
2400.00, 
2401.00, 
2402.00, 
2403.00, 
2404.00, 
2405.00, 
2406.00, 
2407.00, 
2408.00, 
2409.00, 
2410.00, 
2411.00, 
2412.00, 
2413.00, 
2414.00, 
2415.00, 
2416.00, 
2417.00, 
2418.00, 
2419.00, 
2420.00, 
2421.00, 
2422.00, 
2423.00, 
2424.00, 
2425.00, 
2426.00, 
2427.00, 
2428.00, 
2429.00, 
2430.00, 
2431.00, 
2432.00, 
2433.00, 
2434.00, 
2435.00, 
2436.00, 
2437.00, 
2438.00, 
2439.00, 
2440.00, 
2441.00, 
2442.00, 
2443.00, 
2444.00, 
2445.00, 
2446.00, 
2447.00, 
2448.00, 
2449.00, 
2450.00, 
2451.00, 
2452.00, 
2453.00, 
2454.00, 
2455.00, 
2456.00, 
2457.00, 
2458.00, 
2459.00, 
2460.00, 
2461.00, 
2462.00, 
2463.00, 
2464.00, 
2465.00, 
2466.00, 
2467.00, 
2468.00, 
2469.00, 
2470.00, 
2471.00, 
2472.00, 
2473.00, 
2474.00, 
2475.00, 
2476.00, 
2477.00, 
2478.00, 
2479.00, 
2480.00, 
2481.00, 
2482.00, 
2483.00, 
2484.00, 
2485.00, 
2486.00, 
2487.00, 
2488.00, 
2489.00, 
2490.00, 
2491.00, 
2492.00, 
2493.00, 
2494.00, 
2495.00, 
2496.00, 
2497.00, 
2498.00, 
2499.00, 
2500.00, 
2501.00, 
2502.00, 
2503.00, 
2504.00, 
2505.00, 
2506.00, 
2507.00, 
2508.00, 
2509.00, 
2510.00, 
2511.00, 
2512.00, 
2513.00, 
2514.00, 
2515.00, 
2516.00, 
2517.00, 
2518.00, 
2519.00, 
2520.00, 
2521.00, 
2522.00, 
2523.00, 
2524.00, 
2525.00, 
2526.00, 
2527.00, 
2528.00, 
2529.00, 
2530.00, 
2531.00, 
2532.00, 
2533.00, 
2534.00, 
2535.00, 
2536.00, 
2537.00, 
2538.00, 
2539.00, 
2540.00, 
2541.00, 
2542.00, 
2543.00, 
2544.00, 
2545.00, 
2546.00, 
2547.00, 
2548.00, 
2549.00, 
2550.00, 
2551.00, 
2552.00, 
2553.00, 
2554.00, 
2555.00, 
2556.00, 
2557.00, 
2558.00, 
2559.00, 
2560.00, 
2561.00, 
2562.00, 
2563.00, 
2564.00, 
2565.00, 
2566.00, 
2567.00, 
2568.00, 
2569.00, 
2570.00, 
2571.00, 
2572.00, 
2573.00, 
2574.00, 
2575.00, 
2576.00, 
2577.00, 
2578.00, 
2579.00, 
2580.00, 
2581.00, 
2582.00, 
2583.00, 
2584.00, 
2585.00, 
2586.00, 
2587.00, 
2588.00, 
2589.00, 
2590.00, 
2591.00, 
2592.00, 
2593.00, 
2594.00, 
2595.00, 
2596.00, 
2597.00, 
2598.00, 
2599.00, 
2600.00, 
