"2cP2 - RawData"
"Wavelength nm.","T%"
200.00,0.000
201.00,0.003
202.00,-0.000
203.00,0.002
204.00,0.003
205.00,0.000
206.00,0.004
207.00,-0.001
208.00,0.001
209.00,0.004
210.00,0.001
211.00,0.002
212.00,-0.001
213.00,-0.001
214.00,0.000
215.00,0.002
216.00,0.000
217.00,0.000
218.00,-0.001
219.00,0.005
220.00,-0.000
221.00,0.002
222.00,-0.001
223.00,0.000
224.00,-0.001
225.00,0.002
226.00,0.000
227.00,-0.000
228.00,-0.002
229.00,-0.000
230.00,-0.002
231.00,0.002
232.00,0.000
233.00,0.001
234.00,-0.000
235.00,0.001
236.00,0.000
237.00,0.004
238.00,0.001
239.00,0.000
240.00,-0.002
241.00,-0.000
242.00,0.001
243.00,0.001
244.00,0.000
245.00,-0.000
246.00,0.001
247.00,-0.000
248.00,0.000
249.00,-0.001
250.00,-0.001
251.00,0.000
252.00,-0.001
253.00,-0.000
254.00,0.001
255.00,0.001
256.00,-0.001
257.00,-0.001
258.00,-0.001
259.00,-0.001
260.00,-0.000
261.00,0.001
262.00,0.001
263.00,-0.001
264.00,0.001
265.00,-0.000
266.00,-0.001
267.00,0.000
268.00,0.001
269.00,-0.000
270.00,0.000
271.00,-0.000
272.00,-0.001
273.00,0.002
274.00,-0.001
275.00,-0.000
276.00,-0.000
277.00,0.001
278.00,0.000
279.00,0.001
280.00,0.002
281.00,0.001
282.00,-0.001
283.00,0.001
284.00,-0.001
285.00,-0.000
286.00,-0.000
287.00,-0.000
288.00,0.000
289.00,0.001
290.00,0.000
291.00,0.001
292.00,-0.001
293.00,0.001
294.00,0.001
295.00,0.001
296.00,0.001
297.00,-0.001
298.00,0.000
299.00,0.002
300.00,0.003
301.00,0.004
302.00,0.005
303.00,0.009
304.00,0.014
305.00,0.022
306.00,0.035
307.00,0.055
308.00,0.082
309.00,0.131
310.00,0.181
311.00,0.243
312.00,0.335
313.00,0.459
314.00,0.609
315.00,0.788
316.00,1.022
317.00,1.279
318.00,1.588
319.00,1.941
320.00,2.355
321.00,2.839
322.00,3.354
323.00,3.974
324.00,4.604
325.00,5.276
326.00,5.963
327.00,6.714
328.00,7.501
329.00,8.328
330.00,9.204
331.00,10.012
332.00,10.908
333.00,11.879
334.00,12.739
335.00,13.634
336.00,14.548
337.00,15.325
338.00,16.337
339.00,17.148
340.00,18.003
341.00,18.827
342.00,19.615
343.00,20.414
344.00,21.113
345.00,21.785
346.00,22.484
347.00,23.126
348.00,23.734
349.00,24.299
350.00,24.847
351.00,25.327
352.00,25.769
353.00,26.224
354.00,26.665
355.00,27.081
356.00,27.470
357.00,27.826
358.00,28.119
359.00,28.430
360.00,28.749
361.00,29.031
362.00,29.267
363.00,29.555
364.00,29.749
365.00,29.900
366.00,30.058
367.00,30.193
368.00,30.312
369.00,30.400
370.00,30.468
371.00,30.555
372.00,30.580
373.00,30.649
374.00,30.672
375.00,30.635
376.00,30.596
377.00,30.612
378.00,30.565
379.00,30.514
380.00,30.494
381.00,30.523
382.00,30.521
383.00,30.572
384.00,30.621
385.00,30.665
386.00,30.726
387.00,30.815
388.00,30.813
389.00,30.902
390.00,30.944
391.00,30.991
392.00,31.027
393.00,31.058
394.00,31.058
395.00,31.067
396.00,31.105
397.00,31.127
398.00,31.135
399.00,31.144
400.00,31.158
401.00,31.151
402.00,31.146
403.00,31.187
404.00,31.233
405.00,31.228
406.00,31.223
407.00,31.233
408.00,31.177
409.00,31.083
410.00,31.065
411.00,31.046
412.00,30.972
413.00,30.931
414.00,30.902
415.00,30.906
416.00,30.946
417.00,30.958
418.00,30.947
419.00,30.940
420.00,31.008
421.00,31.016
422.00,30.993
423.00,31.032
424.00,31.033
425.00,31.059
426.00,31.052
427.00,31.037
428.00,31.159
429.00,31.162
430.00,31.179
431.00,31.224
432.00,31.236
433.00,31.347
434.00,31.305
435.00,31.387
436.00,31.415
437.00,31.447
438.00,31.505
439.00,31.567
440.00,31.620
441.00,31.668
442.00,31.733
443.00,31.777
444.00,31.888
445.00,31.934
446.00,31.987
447.00,32.134
448.00,32.143
449.00,32.257
450.00,32.320
451.00,32.360
452.00,32.499
453.00,32.583
454.00,32.666
455.00,32.746
456.00,32.794
457.00,32.895
458.00,32.999
459.00,33.095
460.00,33.233
461.00,33.302
462.00,33.408
463.00,33.536
464.00,33.644
465.00,33.725
466.00,33.842
467.00,33.787
468.00,33.980
469.00,34.080
470.00,34.099
471.00,34.210
472.00,34.257
473.00,34.291
474.00,34.453
475.00,34.529
476.00,34.591
477.00,34.717
478.00,34.842
479.00,34.977
480.00,35.057
481.00,35.208
482.00,35.362
483.00,35.415
484.00,35.574
485.00,35.654
486.00,35.763
487.00,35.867
488.00,36.059
489.00,36.202
490.00,36.260
491.00,36.390
492.00,36.485
493.00,36.594
494.00,36.750
495.00,36.822
496.00,36.877
497.00,37.001
498.00,37.109
499.00,37.248
500.00,37.315
501.00,37.392
502.00,37.506
503.00,37.599
504.00,37.695
505.00,37.799
506.00,37.885
507.00,37.958
508.00,38.026
509.00,38.164
510.00,38.277
511.00,38.350
512.00,38.503
513.00,38.604
514.00,38.600
515.00,38.865
516.00,38.931
517.00,39.046
518.00,39.117
519.00,39.180
520.00,39.206
521.00,39.342
522.00,39.359
523.00,39.469
524.00,39.503
525.00,39.576
526.00,39.637
527.00,39.759
528.00,39.770
529.00,39.835
530.00,39.997
531.00,40.132
532.00,40.203
533.00,40.312
534.00,40.392
535.00,40.452
536.00,40.480
537.00,40.554
538.00,40.656
539.00,40.657
540.00,40.716
541.00,40.759
542.00,40.802
543.00,40.859
544.00,40.984
545.00,40.977
546.00,41.032
547.00,41.176
548.00,41.193
549.00,41.279
550.00,41.385
551.00,41.427
552.00,41.464
553.00,41.586
554.00,41.653
555.00,41.652
556.00,41.675
557.00,41.719
558.00,41.810
559.00,41.859
560.00,41.896
561.00,41.949
562.00,41.992
563.00,42.038
564.00,42.105
565.00,42.056
566.00,42.116
567.00,42.188
568.00,42.202
569.00,42.174
570.00,42.239
571.00,42.330
572.00,42.356
573.00,42.285
574.00,42.445
575.00,42.464
576.00,42.376
577.00,42.528
578.00,42.585
579.00,42.625
580.00,42.656
581.00,42.819
582.00,42.899
583.00,42.859
584.00,43.077
585.00,43.065
586.00,43.042
587.00,43.114
588.00,43.104
589.00,43.042
590.00,43.227
591.00,43.257
592.00,43.277
593.00,43.340
594.00,43.367
595.00,43.457
596.00,43.520
597.00,43.546
598.00,43.662
599.00,43.668
600.00,43.673
601.00,43.715
602.00,43.699
603.00,43.790
604.00,43.746
605.00,43.769
606.00,43.830
607.00,43.804
608.00,43.890
609.00,43.910
610.00,44.033
611.00,43.995
612.00,43.977
613.00,44.023
614.00,44.094
615.00,44.081
616.00,44.225
617.00,44.197
618.00,44.246
619.00,44.280
620.00,44.265
621.00,44.276
622.00,44.321
623.00,44.379
624.00,44.426
625.00,44.492
626.00,44.481
627.00,44.606
628.00,44.531
629.00,44.585
630.00,44.658
631.00,44.641
632.00,44.711
633.00,44.825
634.00,44.892
635.00,44.923
636.00,44.975
637.00,45.086
638.00,45.033
639.00,45.083
640.00,45.123
641.00,45.125
642.00,45.156
643.00,45.121
644.00,45.313
645.00,45.330
646.00,45.404
647.00,45.479
648.00,45.522
649.00,45.584
650.00,45.640
651.00,45.621
652.00,45.660
653.00,45.705
654.00,45.766
655.00,45.795
656.00,46.015
657.00,46.026
658.00,45.987
659.00,46.235
660.00,46.248
661.00,46.158
662.00,46.211
663.00,46.247
664.00,46.329
665.00,46.410
666.00,46.419
667.00,46.518
668.00,46.480
669.00,46.654
670.00,46.695
671.00,46.681
672.00,46.757
673.00,46.858
674.00,46.885
675.00,46.877
676.00,46.981
677.00,47.080
678.00,46.990
679.00,47.021
680.00,47.178
681.00,47.278
682.00,47.322
683.00,47.323
684.00,47.524
685.00,47.389
686.00,47.350
687.00,47.425
688.00,47.543
689.00,47.601
690.00,47.633
691.00,47.755
692.00,47.774
693.00,47.687
694.00,47.738
695.00,47.843
696.00,47.927
697.00,47.919
698.00,48.041
699.00,48.181
700.00,48.116
701.00,48.130
702.00,48.225
703.00,48.315
704.00,48.327
705.00,48.338
706.00,48.435
707.00,48.549
708.00,48.275
709.00,48.458
710.00,48.729
711.00,48.336
712.00,48.370
713.00,48.659
714.00,48.718
715.00,48.663
716.00,48.736
717.00,48.748
718.00,48.765
719.00,48.772
720.00,48.847
721.00,53.160
722.00,53.275
723.00,53.170
724.00,53.138
725.00,53.174
726.00,53.181
727.00,53.160
728.00,53.145
729.00,53.149
730.00,53.091
731.00,53.110
732.00,53.087
733.00,53.066
734.00,53.113
735.00,53.151
736.00,53.156
737.00,53.154
738.00,53.106
739.00,53.080
740.00,53.134
741.00,53.124
742.00,53.098
743.00,53.055
744.00,53.063
745.00,53.069
746.00,53.095
747.00,52.896
748.00,52.958
749.00,52.823
750.00,52.943
751.00,52.810
752.00,52.866
753.00,52.892
754.00,52.853
755.00,52.758
756.00,52.803
757.00,52.813
758.00,52.758
759.00,52.763
760.00,52.725
761.00,52.738
762.00,52.808
763.00,52.771
764.00,52.762
765.00,52.642
766.00,52.648
767.00,52.680
768.00,52.711
769.00,52.676
770.00,52.689
771.00,52.635
772.00,52.695
773.00,52.683
774.00,52.590
775.00,52.610
776.00,52.635
777.00,52.628
778.00,52.639
779.00,52.550
780.00,52.585
781.00,52.534
782.00,52.500
783.00,52.584
784.00,52.523
785.00,52.430
786.00,52.373
787.00,52.447
788.00,52.430
789.00,52.188
790.00,52.375
791.00,52.426
792.00,52.298
793.00,52.342
794.00,52.183
795.00,52.153
796.00,52.226
797.00,52.143
798.00,52.165
799.00,52.096
800.00,52.109
801.00,52.077
802.00,52.094
803.00,52.051
804.00,51.943
805.00,51.958
806.00,52.001
807.00,51.929
808.00,51.912
809.00,51.936
810.00,51.876
811.00,51.853
812.00,51.892
813.00,51.792
814.00,51.802
815.00,51.816
816.00,51.754
817.00,51.746
818.00,51.644
819.00,51.687
820.00,51.681
821.00,51.617
822.00,51.629
823.00,51.533
824.00,51.612
825.00,51.617
826.00,51.480
827.00,51.499
828.00,51.597
829.00,51.529
830.00,51.488
831.00,53.986
832.00,53.959
833.00,53.942
834.00,53.940
835.00,53.897
836.00,53.860
837.00,53.819
838.00,53.788
839.00,53.796
840.00,53.759
841.00,53.769
842.00,53.711
843.00,53.697
844.00,53.660
845.00,53.623
846.00,53.629
847.00,53.596
848.00,53.599
849.00,53.502
850.00,53.478
851.00,53.436
852.00,53.416
853.00,53.365
854.00,53.317
855.00,53.303
856.00,53.297
857.00,53.255
858.00,53.152
859.00,53.206
860.00,53.190
861.00,53.145
862.00,53.108
863.00,53.131
864.00,53.085
865.00,53.085
866.00,53.066
867.00,53.043
868.00,53.028
869.00,53.016
870.00,52.991
871.00,52.987
872.00,52.974
873.00,52.981
874.00,52.956
875.00,52.947
876.00,52.913
877.00,53.106
878.00,52.831
879.00,52.858
880.00,52.848
881.00,52.821
882.00,52.795
883.00,52.805
884.00,52.744
885.00,52.714
886.00,52.696
887.00,52.674
888.00,52.674
889.00,52.655
890.00,52.606
891.00,52.630
892.00,52.580
893.00,52.556
894.00,52.553
895.00,52.511
896.00,52.485
897.00,52.465
898.00,52.456
899.00,52.474
900.00,52.433
901.00,52.420
902.00,52.386
903.00,52.345
904.00,52.336
905.00,52.326
906.00,52.295
907.00,52.266
908.00,52.249
909.00,52.240
910.00,52.193
911.00,52.178
912.00,52.202
913.00,52.129
914.00,52.117
915.00,52.093
916.00,52.105
917.00,52.053
918.00,52.032
919.00,52.019
920.00,51.993
921.00,51.985
922.00,51.967
923.00,51.938
924.00,51.910
925.00,51.888
926.00,51.864
927.00,51.832
928.00,51.841
929.00,51.812
930.00,51.757
931.00,51.770
932.00,51.737
933.00,51.722
934.00,51.719
935.00,51.710
936.00,51.672
937.00,51.647
938.00,51.653
939.00,51.633
940.00,51.610
941.00,51.594
942.00,51.547
943.00,51.540
944.00,51.520
945.00,51.502
946.00,51.501
947.00,51.461
948.00,51.421
949.00,51.405
950.00,51.373
951.00,51.371
952.00,51.342
953.00,51.286
954.00,51.284
955.00,51.268
956.00,51.230
957.00,51.196
958.00,51.188
959.00,51.174
960.00,51.152
961.00,51.119
962.00,51.139
963.00,51.095
964.00,51.069
965.00,51.055
966.00,51.065
967.00,51.046
968.00,51.040
969.00,51.037
970.00,51.010
971.00,51.021
972.00,50.941
973.00,51.030
974.00,51.048
975.00,51.012
976.00,51.049
977.00,51.095
978.00,51.050
979.00,51.011
980.00,51.021
981.00,51.011
982.00,50.987
983.00,50.989
984.00,50.976
985.00,50.987
986.00,50.941
987.00,50.974
988.00,50.946
989.00,50.939
990.00,50.927
991.00,50.902
992.00,50.933
993.00,50.897
994.00,50.873
995.00,50.866
996.00,50.864
997.00,50.830
998.00,50.819
999.00,50.836
1000.00,50.784
1001.00,50.800
1002.00,50.786
1003.00,50.808
1004.00,50.769
1005.00,50.720
1006.00,50.743
1007.00,50.714
1008.00,50.684
1009.00,50.682
1010.00,50.685
1011.00,50.648
1012.00,50.626
1013.00,50.638
1014.00,50.598
1015.00,50.610
1016.00,50.556
1017.00,50.574
1018.00,50.553
1019.00,50.519
1020.00,50.517
1021.00,50.503
1022.00,50.489
1023.00,50.446
1024.00,50.446
1025.00,50.422
1026.00,50.426
1027.00,50.397
1028.00,50.390
1029.00,50.383
1030.00,50.336
1031.00,50.354
1032.00,50.315
1033.00,50.313
1034.00,50.279
1035.00,50.251
1036.00,50.231
1037.00,50.222
1038.00,50.188
1039.00,50.163
1040.00,50.174
1041.00,50.134
1042.00,50.127
1043.00,50.099
1044.00,50.118
1045.00,50.107
1046.00,50.092
1047.00,50.079
1048.00,50.122
1049.00,50.120
1050.00,50.136
1051.00,50.158
1052.00,50.161
1053.00,50.167
1054.00,50.176
1055.00,50.181
1056.00,50.194
1057.00,50.191
1058.00,50.176
1059.00,50.179
1060.00,50.175
1061.00,50.164
1062.00,50.154
1063.00,50.150
1064.00,50.133
1065.00,50.129
1066.00,50.099
1067.00,50.104
1068.00,50.104
1069.00,50.092
1070.00,50.077
1071.00,50.071
1072.00,50.070
1073.00,50.050
1074.00,50.033
1075.00,50.026
1076.00,50.021
1077.00,49.988
1078.00,50.014
1079.00,50.000
1080.00,49.974
1081.00,49.965
1082.00,49.946
1083.00,49.947
1084.00,49.952
1085.00,49.928
1086.00,49.931
1087.00,49.930
1088.00,49.898
1089.00,49.905
1090.00,49.889
1091.00,49.878
1092.00,49.884
1093.00,49.862
1094.00,49.844
1095.00,49.824
1096.00,49.813
1097.00,49.812
1098.00,49.814
1099.00,49.796
1100.00,49.788
1101.00,49.768
1102.00,49.762
1103.00,49.762
1104.00,49.740
1105.00,49.719
1106.00,49.718
1107.00,49.698
1108.00,49.698
1109.00,49.679
1110.00,49.672
1111.00,49.681
1112.00,49.673
1113.00,49.653
1114.00,49.679
1115.00,49.655
1116.00,49.655
1117.00,49.638
1118.00,49.618
1119.00,49.618
1120.00,49.616
1121.00,49.589
1122.00,49.595
1123.00,49.593
1124.00,49.574
1125.00,49.577
1126.00,49.569
1127.00,49.567
1128.00,49.566
1129.00,49.543
1130.00,49.546
1131.00,49.535
1132.00,49.514
1133.00,49.514
1134.00,49.507
1135.00,49.495
1136.00,49.500
1137.00,49.496
1138.00,49.483
1139.00,49.493
1140.00,49.474
1141.00,49.464
1142.00,49.472
1143.00,49.459
1144.00,49.450
1145.00,49.444
1146.00,49.442
1147.00,49.440
1148.00,49.423
1149.00,49.432
1150.00,49.434
1151.00,49.417
1152.00,49.408
1153.00,49.413
1154.00,49.402
1155.00,49.397
1156.00,49.391
1157.00,49.399
1158.00,49.410
1159.00,49.399
1160.00,49.405
1161.00,49.392
1162.00,49.354
1163.00,49.371
1164.00,49.380
1165.00,49.361
1166.00,49.362
1167.00,49.360
1168.00,49.359
1169.00,49.357
1170.00,49.356
1171.00,49.337
1172.00,49.352
1173.00,49.329
1174.00,49.352
1175.00,49.357
1176.00,49.328
1177.00,49.330
1178.00,49.324
1179.00,49.333
1180.00,49.325
1181.00,49.329
1182.00,49.329
1183.00,49.314
1184.00,49.289
1185.00,49.328
1186.00,49.314
1187.00,49.306
1188.00,49.300
1189.00,49.304
1190.00,49.300
1191.00,49.316
1192.00,49.295
1193.00,49.293
1194.00,49.299
1195.00,49.260
1196.00,49.299
1197.00,49.297
1198.00,49.274
1199.00,49.279
1200.00,49.283
1201.00,49.287
1202.00,49.287
1203.00,49.286
1204.00,49.274
1205.00,49.290
1206.00,49.266
1207.00,49.293
1208.00,49.272
1209.00,49.255
1210.00,49.281
1211.00,49.273
1212.00,49.282
1213.00,49.256
1214.00,49.272
1215.00,49.252
1216.00,49.254
1217.00,49.250
1218.00,49.244
1219.00,49.259
1220.00,49.244
1221.00,49.279
1222.00,49.264
1223.00,49.259
1224.00,49.273
1225.00,49.249
1226.00,49.253
1227.00,49.262
1228.00,49.248
1229.00,49.271
1230.00,49.303
1231.00,49.267
1232.00,49.290
1233.00,49.279
1234.00,49.288
1235.00,49.285
1236.00,49.294
1237.00,49.299
1238.00,49.294
1239.00,49.272
1240.00,49.286
1241.00,49.284
1242.00,49.279
1243.00,49.303
1244.00,49.280
1245.00,49.305
1246.00,49.320
1247.00,49.319
1248.00,49.301
1249.00,49.326
1250.00,49.346
1251.00,49.329
1252.00,49.322
1253.00,49.295
1254.00,49.329
1255.00,49.318
1256.00,49.295
1257.00,49.304
1258.00,49.327
1259.00,49.334
1260.00,49.356
1261.00,49.340
1262.00,49.341
1263.00,49.339
1264.00,49.341
1265.00,49.344
1266.00,49.350
1267.00,49.360
1268.00,49.385
1269.00,49.358
1270.00,49.374
1271.00,49.379
1272.00,49.372
1273.00,49.384
1274.00,49.387
1275.00,49.377
1276.00,49.388
1277.00,49.373
1278.00,49.387
1279.00,49.393
1280.00,49.387
1281.00,49.396
1282.00,49.407
1283.00,49.379
1284.00,49.411
1285.00,49.399
1286.00,49.402
1287.00,49.411
1288.00,49.417
1289.00,49.412
1290.00,49.444
1291.00,49.440
1292.00,49.444
1293.00,49.434
1294.00,49.447
1295.00,49.467
1296.00,49.465
1297.00,49.465
1298.00,49.479
1299.00,49.479
1300.00,49.472
1301.00,49.492
1302.00,49.483
1303.00,49.512
1304.00,49.492
1305.00,49.497
1306.00,49.516
1307.00,49.520
1308.00,49.512
1309.00,49.516
1310.00,49.518
1311.00,49.500
1312.00,49.522
1313.00,49.519
1314.00,49.528
1315.00,49.541
1316.00,49.528
1317.00,49.550
1318.00,49.542
1319.00,49.546
1320.00,49.580
1321.00,49.400
1322.00,49.420
1323.00,49.415
1324.00,49.398
1325.00,49.408
1326.00,49.446
1327.00,49.414
1328.00,49.420
1329.00,49.431
1330.00,49.436
1331.00,49.440
1332.00,49.441
1333.00,49.444
1334.00,49.485
1335.00,49.485
1336.00,49.501
1337.00,49.558
1338.00,49.591
1339.00,49.650
1340.00,49.704
1341.00,49.763
1342.00,49.829
1343.00,49.857
1344.00,49.915
1345.00,49.979
1346.00,49.999
1347.00,50.037
1348.00,50.065
1349.00,50.072
1350.00,50.074
1351.00,50.101
1352.00,50.063
1353.00,50.094
1354.00,50.097
1355.00,50.070
1356.00,50.129
1357.00,50.116
1358.00,50.126
1359.00,50.154
1360.00,50.163
1361.00,50.148
1362.00,50.075
1363.00,50.193
1364.00,50.183
1365.00,50.132
1366.00,50.144
1367.00,50.159
1368.00,50.107
1369.00,50.129
1370.00,50.148
1371.00,50.101
1372.00,50.127
1373.00,50.117
1374.00,50.125
1375.00,50.110
1376.00,50.108
1377.00,50.107
1378.00,50.113
1379.00,50.094
1380.00,50.117
1381.00,50.104
1382.00,50.135
1383.00,50.095
1384.00,50.100
1385.00,50.089
1386.00,50.156
1387.00,50.063
1388.00,50.059
1389.00,50.041
1390.00,50.109
1391.00,50.088
1392.00,50.116
1393.00,50.099
1394.00,50.125
1395.00,50.097
1396.00,50.048
1397.00,50.084
1398.00,50.094
1399.00,50.099
1400.00,50.062
1401.00,50.075
1402.00,50.056
1403.00,50.067
1404.00,50.107
1405.00,50.150
1406.00,50.139
1407.00,50.156
1408.00,50.158
1409.00,50.127
1410.00,50.158
1411.00,50.187
1412.00,50.177
1413.00,50.161
1414.00,50.190
1415.00,50.204
1416.00,50.296
1417.00,50.229
1418.00,50.214
1419.00,50.225
1420.00,50.254
1421.00,50.261
1422.00,50.283
1423.00,50.276
1424.00,50.304
1425.00,50.317
1426.00,50.321
1427.00,50.322
1428.00,50.355
1429.00,50.344
1430.00,50.375
1431.00,50.379
1432.00,50.381
1433.00,50.420
1434.00,50.396
1435.00,50.440
1436.00,50.459
1437.00,50.435
1438.00,50.463
1439.00,50.481
1440.00,50.471
1441.00,50.499
1442.00,50.500
1443.00,50.537
1444.00,50.544
1445.00,50.548
1446.00,50.555
1447.00,50.602
1448.00,50.601
1449.00,50.607
1450.00,50.607
1451.00,50.617
1452.00,50.636
1453.00,50.640
1454.00,50.654
1455.00,50.694
1456.00,50.683
1457.00,50.705
1458.00,50.713
1459.00,50.737
1460.00,50.740
1461.00,50.772
1462.00,50.764
1463.00,50.795
1464.00,50.811
1465.00,50.810
1466.00,50.829
1467.00,50.828
1468.00,50.872
1469.00,50.886
1470.00,50.871
1471.00,50.893
1472.00,50.908
1473.00,50.920
1474.00,50.944
1475.00,50.953
1476.00,50.959
1477.00,50.975
1478.00,50.988
1479.00,51.001
1480.00,51.019
1481.00,51.018
1482.00,51.049
1483.00,51.039
1484.00,51.058
1485.00,51.095
1486.00,51.077
1487.00,51.117
1488.00,51.136
1489.00,51.129
1490.00,51.147
1491.00,51.183
1492.00,51.180
1493.00,51.181
1494.00,51.205
1495.00,51.203
1496.00,51.210
1497.00,51.226
1498.00,51.223
1499.00,51.256
1500.00,51.266
1501.00, 
1502.00, 
1503.00, 
1504.00, 
1505.00, 
1506.00, 
1507.00, 
1508.00, 
1509.00, 
1510.00, 
1511.00, 
1512.00, 
1513.00, 
1514.00, 
1515.00, 
1516.00, 
1517.00, 
1518.00, 
1519.00, 
1520.00, 
1521.00, 
1522.00, 
1523.00, 
1524.00, 
1525.00, 
1526.00, 
1527.00, 
1528.00, 
1529.00, 
1530.00, 
1531.00, 
1532.00, 
1533.00, 
1534.00, 
1535.00, 
1536.00, 
1537.00, 
1538.00, 
1539.00, 
1540.00, 
1541.00, 
1542.00, 
1543.00, 
1544.00, 
1545.00, 
1546.00, 
1547.00, 
1548.00, 
1549.00, 
1550.00, 
1551.00, 
1552.00, 
1553.00, 
1554.00, 
1555.00, 
1556.00, 
1557.00, 
1558.00, 
1559.00, 
1560.00, 
1561.00, 
1562.00, 
1563.00, 
1564.00, 
1565.00, 
1566.00, 
1567.00, 
1568.00, 
1569.00, 
1570.00, 
1571.00, 
1572.00, 
1573.00, 
1574.00, 
1575.00, 
1576.00, 
1577.00, 
1578.00, 
1579.00, 
1580.00, 
1581.00, 
1582.00, 
1583.00, 
1584.00, 
1585.00, 
1586.00, 
1587.00, 
1588.00, 
1589.00, 
1590.00, 
1591.00, 
1592.00, 
1593.00, 
1594.00, 
1595.00, 
1596.00, 
1597.00, 
1598.00, 
1599.00, 
1600.00, 
1601.00, 
1602.00, 
1603.00, 
1604.00, 
1605.00, 
1606.00, 
1607.00, 
1608.00, 
1609.00, 
1610.00, 
1611.00, 
1612.00, 
1613.00, 
1614.00, 
1615.00, 
1616.00, 
1617.00, 
1618.00, 
1619.00, 
1620.00, 
1621.00, 
1622.00, 
1623.00, 
1624.00, 
1625.00, 
1626.00, 
1627.00, 
1628.00, 
1629.00, 
1630.00, 
1631.00, 
1632.00, 
1633.00, 
1634.00, 
1635.00, 
1636.00, 
1637.00, 
1638.00, 
1639.00, 
1640.00, 
1641.00, 
1642.00, 
1643.00, 
1644.00, 
1645.00, 
1646.00, 
1647.00, 
1648.00, 
1649.00, 
1650.00, 
1651.00, 
1652.00, 
1653.00, 
1654.00, 
1655.00, 
1656.00, 
1657.00, 
1658.00, 
1659.00, 
1660.00, 
1661.00, 
1662.00, 
1663.00, 
1664.00, 
1665.00, 
1666.00, 
1667.00, 
1668.00, 
1669.00, 
1670.00, 
1671.00, 
1672.00, 
1673.00, 
1674.00, 
1675.00, 
1676.00, 
1677.00, 
1678.00, 
1679.00, 
1680.00, 
1681.00, 
1682.00, 
1683.00, 
1684.00, 
1685.00, 
1686.00, 
1687.00, 
1688.00, 
1689.00, 
1690.00, 
1691.00, 
1692.00, 
1693.00, 
1694.00, 
1695.00, 
1696.00, 
1697.00, 
1698.00, 
1699.00, 
1700.00, 
1701.00, 
1702.00, 
1703.00, 
1704.00, 
1705.00, 
1706.00, 
1707.00, 
1708.00, 
1709.00, 
1710.00, 
1711.00, 
1712.00, 
1713.00, 
1714.00, 
1715.00, 
1716.00, 
1717.00, 
1718.00, 
1719.00, 
1720.00, 
1721.00, 
1722.00, 
1723.00, 
1724.00, 
1725.00, 
1726.00, 
1727.00, 
1728.00, 
1729.00, 
1730.00, 
1731.00, 
1732.00, 
1733.00, 
1734.00, 
1735.00, 
1736.00, 
1737.00, 
1738.00, 
1739.00, 
1740.00, 
1741.00, 
1742.00, 
1743.00, 
1744.00, 
1745.00, 
1746.00, 
1747.00, 
1748.00, 
1749.00, 
1750.00, 
1751.00, 
1752.00, 
1753.00, 
1754.00, 
1755.00, 
1756.00, 
1757.00, 
1758.00, 
1759.00, 
1760.00, 
1761.00, 
1762.00, 
1763.00, 
1764.00, 
1765.00, 
1766.00, 
1767.00, 
1768.00, 
1769.00, 
1770.00, 
1771.00, 
1772.00, 
1773.00, 
1774.00, 
1775.00, 
1776.00, 
1777.00, 
1778.00, 
1779.00, 
1780.00, 
1781.00, 
1782.00, 
1783.00, 
1784.00, 
1785.00, 
1786.00, 
1787.00, 
1788.00, 
1789.00, 
1790.00, 
1791.00, 
1792.00, 
1793.00, 
1794.00, 
1795.00, 
1796.00, 
1797.00, 
1798.00, 
1799.00, 
1800.00, 
1801.00, 
1802.00, 
1803.00, 
1804.00, 
1805.00, 
1806.00, 
1807.00, 
1808.00, 
1809.00, 
1810.00, 
1811.00, 
1812.00, 
1813.00, 
1814.00, 
1815.00, 
1816.00, 
1817.00, 
1818.00, 
1819.00, 
1820.00, 
1821.00, 
1822.00, 
1823.00, 
1824.00, 
1825.00, 
1826.00, 
1827.00, 
1828.00, 
1829.00, 
1830.00, 
1831.00, 
1832.00, 
1833.00, 
1834.00, 
1835.00, 
1836.00, 
1837.00, 
1838.00, 
1839.00, 
1840.00, 
1841.00, 
1842.00, 
1843.00, 
1844.00, 
1845.00, 
1846.00, 
1847.00, 
1848.00, 
1849.00, 
1850.00, 
1851.00, 
1852.00, 
1853.00, 
1854.00, 
1855.00, 
1856.00, 
1857.00, 
1858.00, 
1859.00, 
1860.00, 
1861.00, 
1862.00, 
1863.00, 
1864.00, 
1865.00, 
1866.00, 
1867.00, 
1868.00, 
1869.00, 
1870.00, 
1871.00, 
1872.00, 
1873.00, 
1874.00, 
1875.00, 
1876.00, 
1877.00, 
1878.00, 
1879.00, 
1880.00, 
1881.00, 
1882.00, 
1883.00, 
1884.00, 
1885.00, 
1886.00, 
1887.00, 
1888.00, 
1889.00, 
1890.00, 
1891.00, 
1892.00, 
1893.00, 
1894.00, 
1895.00, 
1896.00, 
1897.00, 
1898.00, 
1899.00, 
1900.00, 
1901.00, 
1902.00, 
1903.00, 
1904.00, 
1905.00, 
1906.00, 
1907.00, 
1908.00, 
1909.00, 
1910.00, 
1911.00, 
1912.00, 
1913.00, 
1914.00, 
1915.00, 
1916.00, 
1917.00, 
1918.00, 
1919.00, 
1920.00, 
1921.00, 
1922.00, 
1923.00, 
1924.00, 
1925.00, 
1926.00, 
1927.00, 
1928.00, 
1929.00, 
1930.00, 
1931.00, 
1932.00, 
1933.00, 
1934.00, 
1935.00, 
1936.00, 
1937.00, 
1938.00, 
1939.00, 
1940.00, 
1941.00, 
1942.00, 
1943.00, 
1944.00, 
1945.00, 
1946.00, 
1947.00, 
1948.00, 
1949.00, 
1950.00, 
1951.00, 
1952.00, 
1953.00, 
1954.00, 
1955.00, 
1956.00, 
1957.00, 
1958.00, 
1959.00, 
1960.00, 
1961.00, 
1962.00, 
1963.00, 
1964.00, 
1965.00, 
1966.00, 
1967.00, 
1968.00, 
1969.00, 
1970.00, 
1971.00, 
1972.00, 
1973.00, 
1974.00, 
1975.00, 
1976.00, 
1977.00, 
1978.00, 
1979.00, 
1980.00, 
1981.00, 
1982.00, 
1983.00, 
1984.00, 
1985.00, 
1986.00, 
1987.00, 
1988.00, 
1989.00, 
1990.00, 
1991.00, 
1992.00, 
1993.00, 
1994.00, 
1995.00, 
1996.00, 
1997.00, 
1998.00, 
1999.00, 
2000.00, 
2001.00, 
2002.00, 
2003.00, 
2004.00, 
2005.00, 
2006.00, 
2007.00, 
2008.00, 
2009.00, 
2010.00, 
2011.00, 
2012.00, 
2013.00, 
2014.00, 
2015.00, 
2016.00, 
2017.00, 
2018.00, 
2019.00, 
2020.00, 
2021.00, 
2022.00, 
2023.00, 
2024.00, 
2025.00, 
2026.00, 
2027.00, 
2028.00, 
2029.00, 
2030.00, 
2031.00, 
2032.00, 
2033.00, 
2034.00, 
2035.00, 
2036.00, 
2037.00, 
2038.00, 
2039.00, 
2040.00, 
2041.00, 
2042.00, 
2043.00, 
2044.00, 
2045.00, 
2046.00, 
2047.00, 
2048.00, 
2049.00, 
2050.00, 
2051.00, 
2052.00, 
2053.00, 
2054.00, 
2055.00, 
2056.00, 
2057.00, 
2058.00, 
2059.00, 
2060.00, 
2061.00, 
2062.00, 
2063.00, 
2064.00, 
2065.00, 
2066.00, 
2067.00, 
2068.00, 
2069.00, 
2070.00, 
2071.00, 
2072.00, 
2073.00, 
2074.00, 
2075.00, 
2076.00, 
2077.00, 
2078.00, 
2079.00, 
2080.00, 
2081.00, 
2082.00, 
2083.00, 
2084.00, 
2085.00, 
2086.00, 
2087.00, 
2088.00, 
2089.00, 
2090.00, 
2091.00, 
2092.00, 
2093.00, 
2094.00, 
2095.00, 
2096.00, 
2097.00, 
2098.00, 
2099.00, 
2100.00, 
2101.00, 
2102.00, 
2103.00, 
2104.00, 
2105.00, 
2106.00, 
2107.00, 
2108.00, 
2109.00, 
2110.00, 
2111.00, 
2112.00, 
2113.00, 
2114.00, 
2115.00, 
2116.00, 
2117.00, 
2118.00, 
2119.00, 
2120.00, 
2121.00, 
2122.00, 
2123.00, 
2124.00, 
2125.00, 
2126.00, 
2127.00, 
2128.00, 
2129.00, 
2130.00, 
2131.00, 
2132.00, 
2133.00, 
2134.00, 
2135.00, 
2136.00, 
2137.00, 
2138.00, 
2139.00, 
2140.00, 
2141.00, 
2142.00, 
2143.00, 
2144.00, 
2145.00, 
2146.00, 
2147.00, 
2148.00, 
2149.00, 
2150.00, 
2151.00, 
2152.00, 
2153.00, 
2154.00, 
2155.00, 
2156.00, 
2157.00, 
2158.00, 
2159.00, 
2160.00, 
2161.00, 
2162.00, 
2163.00, 
2164.00, 
2165.00, 
2166.00, 
2167.00, 
2168.00, 
2169.00, 
2170.00, 
2171.00, 
2172.00, 
2173.00, 
2174.00, 
2175.00, 
2176.00, 
2177.00, 
2178.00, 
2179.00, 
2180.00, 
2181.00, 
2182.00, 
2183.00, 
2184.00, 
2185.00, 
2186.00, 
2187.00, 
2188.00, 
2189.00, 
2190.00, 
2191.00, 
2192.00, 
2193.00, 
2194.00, 
2195.00, 
2196.00, 
2197.00, 
2198.00, 
2199.00, 
2200.00, 
2201.00, 
2202.00, 
2203.00, 
2204.00, 
2205.00, 
2206.00, 
2207.00, 
2208.00, 
2209.00, 
2210.00, 
2211.00, 
2212.00, 
2213.00, 
2214.00, 
2215.00, 
2216.00, 
2217.00, 
2218.00, 
2219.00, 
2220.00, 
2221.00, 
2222.00, 
2223.00, 
2224.00, 
2225.00, 
2226.00, 
2227.00, 
2228.00, 
2229.00, 
2230.00, 
2231.00, 
2232.00, 
2233.00, 
2234.00, 
2235.00, 
2236.00, 
2237.00, 
2238.00, 
2239.00, 
2240.00, 
2241.00, 
2242.00, 
2243.00, 
2244.00, 
2245.00, 
2246.00, 
2247.00, 
2248.00, 
2249.00, 
2250.00, 
2251.00, 
2252.00, 
2253.00, 
2254.00, 
2255.00, 
2256.00, 
2257.00, 
2258.00, 
2259.00, 
2260.00, 
2261.00, 
2262.00, 
2263.00, 
2264.00, 
2265.00, 
2266.00, 
2267.00, 
2268.00, 
2269.00, 
2270.00, 
2271.00, 
2272.00, 
2273.00, 
2274.00, 
2275.00, 
2276.00, 
2277.00, 
2278.00, 
2279.00, 
2280.00, 
2281.00, 
2282.00, 
2283.00, 
2284.00, 
2285.00, 
2286.00, 
2287.00, 
2288.00, 
2289.00, 
2290.00, 
2291.00, 
2292.00, 
2293.00, 
2294.00, 
2295.00, 
2296.00, 
2297.00, 
2298.00, 
2299.00, 
2300.00, 
2301.00, 
2302.00, 
2303.00, 
2304.00, 
2305.00, 
2306.00, 
2307.00, 
2308.00, 
2309.00, 
2310.00, 
2311.00, 
2312.00, 
2313.00, 
2314.00, 
2315.00, 
2316.00, 
2317.00, 
2318.00, 
2319.00, 
2320.00, 
2321.00, 
2322.00, 
2323.00, 
2324.00, 
2325.00, 
2326.00, 
2327.00, 
2328.00, 
2329.00, 
2330.00, 
2331.00, 
2332.00, 
2333.00, 
2334.00, 
2335.00, 
2336.00, 
2337.00, 
2338.00, 
2339.00, 
2340.00, 
2341.00, 
2342.00, 
2343.00, 
2344.00, 
2345.00, 
2346.00, 
2347.00, 
2348.00, 
2349.00, 
2350.00, 
2351.00, 
2352.00, 
2353.00, 
2354.00, 
2355.00, 
2356.00, 
2357.00, 
2358.00, 
2359.00, 
2360.00, 
2361.00, 
2362.00, 
2363.00, 
2364.00, 
2365.00, 
2366.00, 
2367.00, 
2368.00, 
2369.00, 
2370.00, 
2371.00, 
2372.00, 
2373.00, 
2374.00, 
2375.00, 
2376.00, 
2377.00, 
2378.00, 
2379.00, 
2380.00, 
2381.00, 
2382.00, 
2383.00, 
2384.00, 
2385.00, 
2386.00, 
2387.00, 
2388.00, 
2389.00, 
2390.00, 
2391.00, 
2392.00, 
2393.00, 
2394.00, 
2395.00, 
2396.00, 
2397.00, 
2398.00, 
2399.00, 
2400.00, 
2401.00, 
2402.00, 
2403.00, 
2404.00, 
2405.00, 
2406.00, 
2407.00, 
2408.00, 
2409.00, 
2410.00, 
2411.00, 
2412.00, 
2413.00, 
2414.00, 
2415.00, 
2416.00, 
2417.00, 
2418.00, 
2419.00, 
2420.00, 
2421.00, 
2422.00, 
2423.00, 
2424.00, 
2425.00, 
2426.00, 
2427.00, 
2428.00, 
2429.00, 
2430.00, 
2431.00, 
2432.00, 
2433.00, 
2434.00, 
2435.00, 
2436.00, 
2437.00, 
2438.00, 
2439.00, 
2440.00, 
2441.00, 
2442.00, 
2443.00, 
2444.00, 
2445.00, 
2446.00, 
2447.00, 
2448.00, 
2449.00, 
2450.00, 
2451.00, 
2452.00, 
2453.00, 
2454.00, 
2455.00, 
2456.00, 
2457.00, 
2458.00, 
2459.00, 
2460.00, 
2461.00, 
2462.00, 
2463.00, 
2464.00, 
2465.00, 
2466.00, 
2467.00, 
2468.00, 
2469.00, 
2470.00, 
2471.00, 
2472.00, 
2473.00, 
2474.00, 
2475.00, 
2476.00, 
2477.00, 
2478.00, 
2479.00, 
2480.00, 
2481.00, 
2482.00, 
2483.00, 
2484.00, 
2485.00, 
2486.00, 
2487.00, 
2488.00, 
2489.00, 
2490.00, 
2491.00, 
2492.00, 
2493.00, 
2494.00, 
2495.00, 
2496.00, 
2497.00, 
2498.00, 
2499.00, 
2500.00, 
2501.00, 
2502.00, 
2503.00, 
2504.00, 
2505.00, 
2506.00, 
2507.00, 
2508.00, 
2509.00, 
2510.00, 
2511.00, 
2512.00, 
2513.00, 
2514.00, 
2515.00, 
2516.00, 
2517.00, 
2518.00, 
2519.00, 
2520.00, 
2521.00, 
2522.00, 
2523.00, 
2524.00, 
2525.00, 
2526.00, 
2527.00, 
2528.00, 
2529.00, 
2530.00, 
2531.00, 
2532.00, 
2533.00, 
2534.00, 
2535.00, 
2536.00, 
2537.00, 
2538.00, 
2539.00, 
2540.00, 
2541.00, 
2542.00, 
2543.00, 
2544.00, 
2545.00, 
2546.00, 
2547.00, 
2548.00, 
2549.00, 
2550.00, 
2551.00, 
2552.00, 
2553.00, 
2554.00, 
2555.00, 
2556.00, 
2557.00, 
2558.00, 
2559.00, 
2560.00, 
2561.00, 
2562.00, 
2563.00, 
2564.00, 
2565.00, 
2566.00, 
2567.00, 
2568.00, 
2569.00, 
2570.00, 
2571.00, 
2572.00, 
2573.00, 
2574.00, 
2575.00, 
2576.00, 
2577.00, 
2578.00, 
2579.00, 
2580.00, 
2581.00, 
2582.00, 
2583.00, 
2584.00, 
2585.00, 
2586.00, 
2587.00, 
2588.00, 
2589.00, 
2590.00, 
2591.00, 
2592.00, 
2593.00, 
2594.00, 
2595.00, 
2596.00, 
2597.00, 
2598.00, 
2599.00, 
2600.00, 
