"2cP3 - RawData"
"Wavelength nm.","T%"
200.00,0.001
201.00,0.001
202.00,0.001
203.00,-0.001
204.00,0.000
205.00,0.000
206.00,0.003
207.00,0.003
208.00,0.000
209.00,0.001
210.00,0.000
211.00,0.001
212.00,-0.002
213.00,0.003
214.00,0.003
215.00,0.001
216.00,0.000
217.00,-0.002
218.00,0.001
219.00,0.001
220.00,0.001
221.00,0.001
222.00,-0.000
223.00,0.001
224.00,0.000
225.00,0.001
226.00,0.003
227.00,0.001
228.00,0.001
229.00,0.001
230.00,-0.000
231.00,-0.001
232.00,-0.000
233.00,0.001
234.00,-0.000
235.00,0.001
236.00,0.002
237.00,0.002
238.00,0.002
239.00,0.001
240.00,-0.000
241.00,0.001
242.00,0.002
243.00,0.001
244.00,0.000
245.00,-0.001
246.00,0.001
247.00,-0.001
248.00,0.001
249.00,-0.002
250.00,0.000
251.00,-0.001
252.00,0.000
253.00,0.001
254.00,0.001
255.00,0.000
256.00,0.000
257.00,0.002
258.00,-0.001
259.00,0.001
260.00,-0.001
261.00,0.001
262.00,0.001
263.00,0.000
264.00,0.001
265.00,0.001
266.00,-0.001
267.00,0.002
268.00,0.000
269.00,0.001
270.00,0.000
271.00,-0.000
272.00,0.000
273.00,-0.000
274.00,-0.000
275.00,-0.000
276.00,-0.001
277.00,0.001
278.00,0.000
279.00,-0.001
280.00,0.001
281.00,-0.000
282.00,-0.001
283.00,0.001
284.00,0.001
285.00,-0.001
286.00,0.000
287.00,0.000
288.00,0.000
289.00,0.002
290.00,-0.000
291.00,0.001
292.00,0.001
293.00,-0.001
294.00,0.001
295.00,-0.001
296.00,0.002
297.00,0.001
298.00,0.001
299.00,0.002
300.00,0.001
301.00,0.003
302.00,0.004
303.00,0.007
304.00,0.010
305.00,0.016
306.00,0.024
307.00,0.036
308.00,0.058
309.00,0.088
310.00,0.120
311.00,0.162
312.00,0.229
313.00,0.304
314.00,0.412
315.00,0.524
316.00,0.678
317.00,0.845
318.00,1.054
319.00,1.285
320.00,1.556
321.00,1.870
322.00,2.233
323.00,2.631
324.00,3.043
325.00,3.465
326.00,3.891
327.00,4.402
328.00,4.903
329.00,5.431
330.00,5.985
331.00,6.534
332.00,7.125
333.00,7.740
334.00,8.288
335.00,8.872
336.00,9.450
337.00,10.036
338.00,10.595
339.00,11.090
340.00,11.640
341.00,12.175
342.00,12.651
343.00,13.141
344.00,13.600
345.00,14.055
346.00,14.454
347.00,14.876
348.00,15.210
349.00,15.556
350.00,15.867
351.00,16.195
352.00,16.369
353.00,16.738
354.00,16.986
355.00,17.252
356.00,17.458
357.00,17.656
358.00,17.847
359.00,18.050
360.00,18.241
361.00,18.349
362.00,18.492
363.00,18.669
364.00,18.712
365.00,18.781
366.00,18.889
367.00,18.919
368.00,18.993
369.00,19.031
370.00,19.083
371.00,19.080
372.00,19.053
373.00,19.119
374.00,19.087
375.00,19.087
376.00,19.050
377.00,19.013
378.00,18.961
379.00,18.898
380.00,18.874
381.00,18.877
382.00,18.878
383.00,18.873
384.00,18.915
385.00,18.922
386.00,18.916
387.00,18.942
388.00,18.991
389.00,18.999
390.00,18.988
391.00,19.016
392.00,19.044
393.00,19.025
394.00,19.033
395.00,19.056
396.00,19.042
397.00,19.037
398.00,19.030
399.00,19.026
400.00,19.006
401.00,18.981
402.00,19.030
403.00,19.029
404.00,19.059
405.00,19.021
406.00,19.021
407.00,19.016
408.00,19.015
409.00,18.921
410.00,18.904
411.00,18.912
412.00,18.875
413.00,18.847
414.00,18.841
415.00,18.880
416.00,18.895
417.00,18.878
418.00,18.879
419.00,18.923
420.00,18.977
421.00,18.949
422.00,18.956
423.00,18.976
424.00,19.036
425.00,19.048
426.00,19.054
427.00,19.101
428.00,19.170
429.00,19.193
430.00,19.210
431.00,19.261
432.00,19.287
433.00,19.352
434.00,19.386
435.00,19.454
436.00,19.515
437.00,19.583
438.00,19.635
439.00,19.698
440.00,19.754
441.00,19.857
442.00,19.910
443.00,20.000
444.00,20.059
445.00,20.105
446.00,20.196
447.00,20.293
448.00,20.400
449.00,20.501
450.00,20.571
451.00,20.644
452.00,20.750
453.00,20.874
454.00,20.948
455.00,21.062
456.00,21.174
457.00,21.279
458.00,21.358
459.00,21.523
460.00,21.633
461.00,21.710
462.00,21.861
463.00,21.965
464.00,22.095
465.00,22.221
466.00,22.352
467.00,22.444
468.00,22.547
469.00,22.636
470.00,22.747
471.00,22.827
472.00,22.967
473.00,23.086
474.00,23.213
475.00,23.317
476.00,23.371
477.00,23.507
478.00,23.650
479.00,23.859
480.00,23.997
481.00,24.108
482.00,24.306
483.00,24.405
484.00,24.546
485.00,24.705
486.00,24.858
487.00,24.988
488.00,25.140
489.00,25.296
490.00,25.406
491.00,25.513
492.00,25.657
493.00,25.832
494.00,26.011
495.00,26.101
496.00,26.178
497.00,26.289
498.00,26.440
499.00,26.604
500.00,26.728
501.00,26.819
502.00,26.998
503.00,27.111
504.00,27.165
505.00,27.361
506.00,27.482
507.00,27.541
508.00,27.698
509.00,27.865
510.00,27.984
511.00,28.043
512.00,28.218
513.00,28.395
514.00,28.448
515.00,28.693
516.00,28.811
517.00,28.794
518.00,28.946
519.00,29.099
520.00,29.099
521.00,29.316
522.00,29.383
523.00,29.486
524.00,29.570
525.00,29.702
526.00,29.775
527.00,29.887
528.00,29.936
529.00,30.138
530.00,30.297
531.00,30.393
532.00,30.467
533.00,30.570
534.00,30.709
535.00,30.760
536.00,30.830
537.00,30.967
538.00,31.035
539.00,31.099
540.00,31.161
541.00,31.206
542.00,31.293
543.00,31.376
544.00,31.509
545.00,31.542
546.00,31.597
547.00,31.794
548.00,31.849
549.00,31.922
550.00,31.977
551.00,32.077
552.00,32.149
553.00,32.227
554.00,32.316
555.00,32.370
556.00,32.440
557.00,32.488
558.00,32.571
559.00,32.665
560.00,32.720
561.00,32.792
562.00,32.828
563.00,32.907
564.00,33.011
565.00,33.013
566.00,33.041
567.00,33.157
568.00,33.168
569.00,33.226
570.00,33.301
571.00,33.354
572.00,33.376
573.00,33.350
574.00,33.457
575.00,33.512
576.00,33.527
577.00,33.611
578.00,33.732
579.00,33.810
580.00,33.831
581.00,33.991
582.00,34.098
583.00,34.116
584.00,34.191
585.00,34.264
586.00,34.297
587.00,34.344
588.00,34.433
589.00,34.429
590.00,34.536
591.00,34.589
592.00,34.535
593.00,34.616
594.00,34.726
595.00,34.801
596.00,34.887
597.00,34.966
598.00,35.008
599.00,35.037
600.00,35.059
601.00,35.135
602.00,35.154
603.00,35.238
604.00,35.208
605.00,35.269
606.00,35.395
607.00,35.411
608.00,35.440
609.00,35.556
610.00,35.758
611.00,35.594
612.00,35.645
613.00,35.696
614.00,35.765
615.00,35.867
616.00,35.982
617.00,35.955
618.00,35.964
619.00,36.068
620.00,36.151
621.00,36.232
622.00,36.295
623.00,36.359
624.00,36.447
625.00,36.516
626.00,36.531
627.00,36.640
628.00,36.612
629.00,36.752
630.00,36.835
631.00,36.889
632.00,36.912
633.00,37.018
634.00,37.203
635.00,37.237
636.00,37.341
637.00,37.384
638.00,37.459
639.00,37.565
640.00,37.656
641.00,37.687
642.00,37.803
643.00,37.916
644.00,37.871
645.00,38.021
646.00,38.174
647.00,38.201
648.00,38.269
649.00,38.331
650.00,38.405
651.00,38.557
652.00,38.664
653.00,38.658
654.00,38.689
655.00,38.886
656.00,39.111
657.00,39.090
658.00,39.338
659.00,38.598
660.00,39.478
661.00,39.555
662.00,39.499
663.00,39.636
664.00,39.847
665.00,40.059
666.00,39.970
667.00,40.037
668.00,39.972
669.00,40.265
670.00,40.535
671.00,40.497
672.00,40.650
673.00,40.673
674.00,40.808
675.00,40.834
676.00,40.971
677.00,41.207
678.00,41.059
679.00,41.251
680.00,41.397
681.00,41.639
682.00,41.574
683.00,41.483
684.00,41.787
685.00,41.820
686.00,41.799
687.00,41.994
688.00,42.077
689.00,42.089
690.00,42.355
691.00,42.611
692.00,42.429
693.00,42.485
694.00,42.708
695.00,42.851
696.00,42.864
697.00,42.778
698.00,43.002
699.00,43.242
700.00,43.290
701.00,43.301
702.00,43.493
703.00,43.610
704.00,43.689
705.00,43.691
706.00,43.796
707.00,43.903
708.00,43.857
709.00,44.131
710.00,44.615
711.00,44.014
712.00,44.228
713.00,44.375
714.00,44.577
715.00,44.483
716.00,44.496
717.00,44.775
718.00,44.895
719.00,44.814
720.00,44.774
721.00,49.444
722.00,49.433
723.00,49.421
724.00,49.585
725.00,49.599
726.00,49.683
727.00,49.637
728.00,49.613
729.00,49.738
730.00,49.668
731.00,49.805
732.00,49.727
733.00,49.834
734.00,49.887
735.00,49.970
736.00,50.035
737.00,50.048
738.00,50.167
739.00,50.135
740.00,50.136
741.00,50.173
742.00,50.283
743.00,50.288
744.00,50.276
745.00,50.355
746.00,50.350
747.00,50.347
748.00,50.285
749.00,50.364
750.00,50.482
751.00,50.457
752.00,50.439
753.00,50.524
754.00,50.475
755.00,50.487
756.00,50.535
757.00,50.548
758.00,50.599
759.00,50.554
760.00,50.633
761.00,50.610
762.00,50.621
763.00,50.623
764.00,50.718
765.00,50.706
766.00,50.692
767.00,50.738
768.00,50.756
769.00,50.826
770.00,50.883
771.00,50.766
772.00,50.924
773.00,50.914
774.00,50.837
775.00,50.946
776.00,50.937
777.00,50.906
778.00,51.047
779.00,50.927
780.00,50.916
781.00,51.016
782.00,51.009
783.00,51.020
784.00,51.028
785.00,51.024
786.00,51.004
787.00,51.061
788.00,50.959
789.00,50.978
790.00,50.998
791.00,51.070
792.00,50.990
793.00,50.976
794.00,50.909
795.00,50.940
796.00,51.003
797.00,50.925
798.00,50.998
799.00,50.912
800.00,50.962
801.00,50.961
802.00,50.970
803.00,50.967
804.00,50.833
805.00,50.849
806.00,50.964
807.00,50.868
808.00,50.897
809.00,50.926
810.00,50.920
811.00,50.863
812.00,50.956
813.00,50.849
814.00,50.838
815.00,50.888
816.00,50.838
817.00,50.810
818.00,50.756
819.00,50.763
820.00,50.793
821.00,50.807
822.00,50.754
823.00,50.773
824.00,50.797
825.00,50.770
826.00,50.757
827.00,50.798
828.00,50.868
829.00,50.704
830.00,50.660
831.00,53.218
832.00,53.202
833.00,53.137
834.00,53.155
835.00,53.172
836.00,53.135
837.00,53.117
838.00,53.104
839.00,53.120
840.00,53.043
841.00,53.045
842.00,53.037
843.00,53.047
844.00,53.023
845.00,52.978
846.00,52.981
847.00,52.964
848.00,52.991
849.00,52.845
850.00,52.843
851.00,52.872
852.00,52.818
853.00,52.779
854.00,52.768
855.00,52.754
856.00,52.708
857.00,52.706
858.00,52.672
859.00,52.674
860.00,52.679
861.00,52.647
862.00,52.586
863.00,52.613
864.00,52.546
865.00,52.577
866.00,52.583
867.00,52.570
868.00,52.546
869.00,52.539
870.00,52.517
871.00,52.522
872.00,52.528
873.00,52.508
874.00,52.489
875.00,52.491
876.00,52.484
877.00,52.451
878.00,52.429
879.00,52.438
880.00,52.423
881.00,52.392
882.00,52.385
883.00,52.399
884.00,52.341
885.00,52.324
886.00,52.338
887.00,52.295
888.00,52.285
889.00,52.263
890.00,52.240
891.00,52.242
892.00,52.212
893.00,52.197
894.00,52.207
895.00,52.142
896.00,52.125
897.00,52.098
898.00,52.103
899.00,52.097
900.00,52.079
901.00,52.080
902.00,52.052
903.00,52.013
904.00,51.993
905.00,52.002
906.00,51.994
907.00,51.953
908.00,51.938
909.00,51.929
910.00,51.918
911.00,51.905
912.00,51.911
913.00,51.822
914.00,51.839
915.00,51.806
916.00,51.777
917.00,51.759
918.00,51.750
919.00,51.710
920.00,51.631
921.00,51.807
922.00,51.685
923.00,51.667
924.00,51.637
925.00,51.622
926.00,51.613
927.00,51.572
928.00,51.573
929.00,51.573
930.00,51.548
931.00,51.516
932.00,51.485
933.00,51.513
934.00,51.486
935.00,51.442
936.00,51.479
937.00,51.402
938.00,51.397
939.00,51.380
940.00,51.370
941.00,51.355
942.00,51.321
943.00,51.299
944.00,51.288
945.00,51.288
946.00,51.262
947.00,51.236
948.00,51.222
949.00,51.200
950.00,51.164
951.00,51.162
952.00,51.134
953.00,51.090
954.00,51.071
955.00,51.057
956.00,51.034
957.00,51.008
958.00,51.018
959.00,50.980
960.00,50.967
961.00,50.946
962.00,50.939
963.00,50.898
964.00,50.890
965.00,50.880
966.00,50.873
967.00,50.862
968.00,50.837
969.00,50.842
970.00,50.846
971.00,50.844
972.00,50.788
973.00,50.852
974.00,50.864
975.00,50.840
976.00,50.854
977.00,50.839
978.00,50.889
979.00,50.849
980.00,50.876
981.00,50.961
982.00,50.824
983.00,50.824
984.00,50.808
985.00,50.827
986.00,50.791
987.00,50.819
988.00,50.793
989.00,50.792
990.00,50.765
991.00,50.755
992.00,50.773
993.00,50.733
994.00,50.715
995.00,50.704
996.00,50.708
997.00,50.678
998.00,50.668
999.00,50.676
1000.00,50.622
1001.00,50.626
1002.00,50.627
1003.00,50.649
1004.00,50.589
1005.00,50.567
1006.00,50.587
1007.00,50.565
1008.00,50.533
1009.00,50.506
1010.00,50.510
1011.00,50.491
1012.00,50.471
1013.00,50.472
1014.00,50.447
1015.00,50.466
1016.00,50.426
1017.00,50.434
1018.00,50.416
1019.00,50.382
1020.00,50.383
1021.00,50.362
1022.00,50.350
1023.00,50.303
1024.00,50.316
1025.00,50.299
1026.00,50.294
1027.00,50.263
1028.00,50.263
1029.00,50.251
1030.00,50.213
1031.00,50.226
1032.00,50.171
1033.00,50.174
1034.00,50.143
1035.00,50.110
1036.00,50.091
1037.00,50.064
1038.00,50.026
1039.00,50.009
1040.00,50.019
1041.00,49.989
1042.00,49.981
1043.00,49.962
1044.00,49.990
1045.00,49.990
1046.00,49.963
1047.00,49.986
1048.00,50.005
1049.00,49.999
1050.00,50.012
1051.00,50.041
1052.00,50.041
1053.00,50.044
1054.00,50.050
1055.00,50.063
1056.00,50.074
1057.00,50.079
1058.00,50.065
1059.00,50.072
1060.00,50.058
1061.00,50.043
1062.00,50.032
1063.00,50.036
1064.00,50.032
1065.00,50.010
1066.00,49.985
1067.00,49.993
1068.00,50.006
1069.00,49.975
1070.00,49.934
1071.00,49.949
1072.00,49.953
1073.00,49.938
1074.00,49.942
1075.00,49.920
1076.00,49.914
1077.00,49.891
1078.00,49.876
1079.00,49.857
1080.00,49.857
1081.00,49.846
1082.00,49.830
1083.00,49.827
1084.00,49.816
1085.00,49.813
1086.00,49.800
1087.00,49.813
1088.00,49.796
1089.00,49.805
1090.00,49.788
1091.00,49.785
1092.00,49.785
1093.00,49.749
1094.00,49.728
1095.00,49.712
1096.00,49.693
1097.00,49.693
1098.00,49.687
1099.00,49.681
1100.00,49.676
1101.00,49.663
1102.00,49.662
1103.00,49.650
1104.00,49.651
1105.00,49.628
1106.00,49.621
1107.00,49.603
1108.00,49.599
1109.00,49.585
1110.00,49.578
1111.00,49.590
1112.00,49.573
1113.00,49.563
1114.00,49.559
1115.00,49.548
1116.00,49.553
1117.00,49.532
1118.00,49.518
1119.00,49.523
1120.00,49.506
1121.00,49.496
1122.00,49.493
1123.00,49.486
1124.00,49.484
1125.00,49.486
1126.00,49.464
1127.00,49.476
1128.00,49.459
1129.00,49.440
1130.00,49.437
1131.00,49.423
1132.00,49.428
1133.00,49.424
1134.00,49.427
1135.00,49.451
1136.00,49.384
1137.00,49.379
1138.00,49.370
1139.00,49.381
1140.00,49.373
1141.00,49.365
1142.00,49.355
1143.00,49.353
1144.00,49.342
1145.00,49.325
1146.00,49.326
1147.00,49.313
1148.00,49.307
1149.00,49.339
1150.00,49.344
1151.00,49.314
1152.00,49.288
1153.00,49.276
1154.00,49.276
1155.00,49.293
1156.00,49.295
1157.00,49.307
1158.00,49.307
1159.00,49.278
1160.00,49.283
1161.00,49.285
1162.00,49.268
1163.00,49.268
1164.00,49.271
1165.00,49.263
1166.00,49.259
1167.00,49.250
1168.00,49.264
1169.00,49.245
1170.00,49.239
1171.00,49.218
1172.00,49.235
1173.00,49.226
1174.00,49.229
1175.00,49.233
1176.00,49.235
1177.00,49.216
1178.00,49.225
1179.00,49.234
1180.00,49.222
1181.00,49.262
1182.00,49.234
1183.00,49.221
1184.00,49.212
1185.00,49.232
1186.00,49.213
1187.00,49.211
1188.00,49.212
1189.00,49.211
1190.00,49.214
1191.00,49.200
1192.00,49.190
1193.00,49.211
1194.00,49.187
1195.00,49.171
1196.00,49.218
1197.00,49.198
1198.00,49.185
1199.00,49.183
1200.00,49.191
1201.00,49.195
1202.00,49.178
1203.00,49.165
1204.00,49.165
1205.00,49.176
1206.00,49.166
1207.00,49.182
1208.00,49.171
1209.00,49.196
1210.00,49.194
1211.00,49.159
1212.00,49.175
1213.00,49.139
1214.00,49.151
1215.00,49.137
1216.00,49.151
1217.00,49.150
1218.00,49.131
1219.00,49.155
1220.00,49.132
1221.00,49.150
1222.00,49.133
1223.00,49.156
1224.00,49.154
1225.00,49.126
1226.00,49.133
1227.00,49.130
1228.00,49.138
1229.00,49.157
1230.00,49.186
1231.00,49.168
1232.00,49.185
1233.00,49.188
1234.00,49.187
1235.00,49.174
1236.00,49.169
1237.00,49.181
1238.00,49.189
1239.00,49.181
1240.00,49.191
1241.00,49.200
1242.00,49.212
1243.00,49.204
1244.00,49.179
1245.00,49.210
1246.00,49.205
1247.00,49.192
1248.00,49.185
1249.00,49.204
1250.00,49.204
1251.00,49.199
1252.00,49.201
1253.00,49.183
1254.00,49.223
1255.00,49.217
1256.00,49.234
1257.00,49.239
1258.00,49.216
1259.00,49.228
1260.00,49.242
1261.00,49.245
1262.00,49.230
1263.00,49.229
1264.00,49.228
1265.00,49.231
1266.00,49.235
1267.00,49.248
1268.00,49.262
1269.00,49.246
1270.00,49.269
1271.00,49.271
1272.00,49.267
1273.00,49.284
1274.00,49.284
1275.00,49.284
1276.00,49.283
1277.00,49.284
1278.00,49.300
1279.00,49.295
1280.00,49.279
1281.00,49.288
1282.00,49.297
1283.00,49.289
1284.00,49.299
1285.00,49.299
1286.00,49.334
1287.00,49.328
1288.00,49.307
1289.00,49.310
1290.00,49.338
1291.00,49.321
1292.00,49.332
1293.00,49.315
1294.00,49.337
1295.00,49.338
1296.00,49.335
1297.00,49.357
1298.00,49.379
1299.00,49.365
1300.00,49.366
1301.00,49.364
1302.00,49.359
1303.00,49.382
1304.00,49.358
1305.00,49.378
1306.00,49.391
1307.00,49.385
1308.00,49.397
1309.00,49.408
1310.00,49.405
1311.00,49.405
1312.00,49.405
1313.00,49.422
1314.00,49.433
1315.00,49.436
1316.00,49.431
1317.00,49.465
1318.00,49.455
1319.00,49.450
1320.00,49.483
1321.00,49.282
1322.00,49.299
1323.00,49.286
1324.00,49.278
1325.00,49.305
1326.00,49.308
1327.00,49.276
1328.00,49.293
1329.00,49.304
1330.00,49.309
1331.00,49.312
1332.00,49.302
1333.00,49.326
1334.00,49.358
1335.00,49.357
1336.00,49.399
1337.00,49.432
1338.00,49.474
1339.00,49.527
1340.00,49.571
1341.00,49.642
1342.00,49.698
1343.00,49.736
1344.00,49.796
1345.00,49.845
1346.00,49.868
1347.00,49.914
1348.00,49.941
1349.00,49.943
1350.00,49.951
1351.00,49.975
1352.00,49.963
1353.00,49.982
1354.00,49.989
1355.00,49.985
1356.00,50.024
1357.00,50.000
1358.00,49.997
1359.00,50.001
1360.00,49.986
1361.00,49.980
1362.00,49.959
1363.00,50.054
1364.00,50.093
1365.00,50.023
1366.00,49.999
1367.00,50.039
1368.00,50.007
1369.00,50.020
1370.00,50.016
1371.00,49.995
1372.00,49.983
1373.00,50.017
1374.00,50.008
1375.00,50.002
1376.00,50.049
1377.00,49.884
1378.00,49.984
1379.00,49.964
1380.00,49.993
1381.00,50.000
1382.00,50.003
1383.00,49.968
1384.00,49.955
1385.00,49.964
1386.00,49.996
1387.00,49.929
1388.00,49.950
1389.00,49.907
1390.00,49.978
1391.00,49.972
1392.00,49.973
1393.00,49.963
1394.00,49.998
1395.00,49.975
1396.00,49.931
1397.00,49.949
1398.00,49.992
1399.00,50.006
1400.00,49.933
1401.00,49.939
1402.00,49.963
1403.00,49.958
1404.00,50.012
1405.00,50.067
1406.00,50.041
1407.00,50.098
1408.00,50.064
1409.00,50.029
1410.00,50.077
1411.00,50.079
1412.00,50.058
1413.00,50.061
1414.00,50.096
1415.00,50.094
1416.00,50.107
1417.00,50.127
1418.00,50.116
1419.00,50.115
1420.00,50.143
1421.00,50.166
1422.00,50.198
1423.00,50.220
1424.00,50.200
1425.00,50.206
1426.00,50.194
1427.00,50.206
1428.00,50.214
1429.00,50.225
1430.00,50.245
1431.00,50.242
1432.00,50.262
1433.00,50.291
1434.00,50.265
1435.00,50.325
1436.00,50.345
1437.00,50.307
1438.00,50.349
1439.00,50.367
1440.00,50.374
1441.00,50.369
1442.00,50.364
1443.00,50.410
1444.00,50.452
1445.00,50.413
1446.00,50.426
1447.00,50.462
1448.00,50.467
1449.00,50.480
1450.00,50.473
1451.00,50.492
1452.00,50.513
1453.00,50.513
1454.00,50.552
1455.00,50.556
1456.00,50.565
1457.00,50.589
1458.00,50.601
1459.00,50.599
1460.00,50.620
1461.00,50.635
1462.00,50.648
1463.00,50.662
1464.00,50.656
1465.00,50.687
1466.00,50.684
1467.00,50.698
1468.00,50.769
1469.00,50.739
1470.00,50.735
1471.00,50.769
1472.00,50.773
1473.00,50.790
1474.00,50.791
1475.00,50.796
1476.00,50.823
1477.00,50.836
1478.00,50.850
1479.00,50.876
1480.00,50.879
1481.00,50.886
1482.00,50.906
1483.00,50.914
1484.00,50.946
1485.00,50.949
1486.00,50.935
1487.00,50.971
1488.00,50.993
1489.00,50.981
1490.00,51.017
1491.00,51.030
1492.00,51.029
1493.00,51.029
1494.00,51.065
1495.00,51.076
1496.00,51.084
1497.00,51.073
1498.00,51.100
1499.00,51.130
1500.00,51.148
1501.00, 
1502.00, 
1503.00, 
1504.00, 
1505.00, 
1506.00, 
1507.00, 
1508.00, 
1509.00, 
1510.00, 
1511.00, 
1512.00, 
1513.00, 
1514.00, 
1515.00, 
1516.00, 
1517.00, 
1518.00, 
1519.00, 
1520.00, 
1521.00, 
1522.00, 
1523.00, 
1524.00, 
1525.00, 
1526.00, 
1527.00, 
1528.00, 
1529.00, 
1530.00, 
1531.00, 
1532.00, 
1533.00, 
1534.00, 
1535.00, 
1536.00, 
1537.00, 
1538.00, 
1539.00, 
1540.00, 
1541.00, 
1542.00, 
1543.00, 
1544.00, 
1545.00, 
1546.00, 
1547.00, 
1548.00, 
1549.00, 
1550.00, 
1551.00, 
1552.00, 
1553.00, 
1554.00, 
1555.00, 
1556.00, 
1557.00, 
1558.00, 
1559.00, 
1560.00, 
1561.00, 
1562.00, 
1563.00, 
1564.00, 
1565.00, 
1566.00, 
1567.00, 
1568.00, 
1569.00, 
1570.00, 
1571.00, 
1572.00, 
1573.00, 
1574.00, 
1575.00, 
1576.00, 
1577.00, 
1578.00, 
1579.00, 
1580.00, 
1581.00, 
1582.00, 
1583.00, 
1584.00, 
1585.00, 
1586.00, 
1587.00, 
1588.00, 
1589.00, 
1590.00, 
1591.00, 
1592.00, 
1593.00, 
1594.00, 
1595.00, 
1596.00, 
1597.00, 
1598.00, 
1599.00, 
1600.00, 
1601.00, 
1602.00, 
1603.00, 
1604.00, 
1605.00, 
1606.00, 
1607.00, 
1608.00, 
1609.00, 
1610.00, 
1611.00, 
1612.00, 
1613.00, 
1614.00, 
1615.00, 
1616.00, 
1617.00, 
1618.00, 
1619.00, 
1620.00, 
1621.00, 
1622.00, 
1623.00, 
1624.00, 
1625.00, 
1626.00, 
1627.00, 
1628.00, 
1629.00, 
1630.00, 
1631.00, 
1632.00, 
1633.00, 
1634.00, 
1635.00, 
1636.00, 
1637.00, 
1638.00, 
1639.00, 
1640.00, 
1641.00, 
1642.00, 
1643.00, 
1644.00, 
1645.00, 
1646.00, 
1647.00, 
1648.00, 
1649.00, 
1650.00, 
1651.00, 
1652.00, 
1653.00, 
1654.00, 
1655.00, 
1656.00, 
1657.00, 
1658.00, 
1659.00, 
1660.00, 
1661.00, 
1662.00, 
1663.00, 
1664.00, 
1665.00, 
1666.00, 
1667.00, 
1668.00, 
1669.00, 
1670.00, 
1671.00, 
1672.00, 
1673.00, 
1674.00, 
1675.00, 
1676.00, 
1677.00, 
1678.00, 
1679.00, 
1680.00, 
1681.00, 
1682.00, 
1683.00, 
1684.00, 
1685.00, 
1686.00, 
1687.00, 
1688.00, 
1689.00, 
1690.00, 
1691.00, 
1692.00, 
1693.00, 
1694.00, 
1695.00, 
1696.00, 
1697.00, 
1698.00, 
1699.00, 
1700.00, 
1701.00, 
1702.00, 
1703.00, 
1704.00, 
1705.00, 
1706.00, 
1707.00, 
1708.00, 
1709.00, 
1710.00, 
1711.00, 
1712.00, 
1713.00, 
1714.00, 
1715.00, 
1716.00, 
1717.00, 
1718.00, 
1719.00, 
1720.00, 
1721.00, 
1722.00, 
1723.00, 
1724.00, 
1725.00, 
1726.00, 
1727.00, 
1728.00, 
1729.00, 
1730.00, 
1731.00, 
1732.00, 
1733.00, 
1734.00, 
1735.00, 
1736.00, 
1737.00, 
1738.00, 
1739.00, 
1740.00, 
1741.00, 
1742.00, 
1743.00, 
1744.00, 
1745.00, 
1746.00, 
1747.00, 
1748.00, 
1749.00, 
1750.00, 
1751.00, 
1752.00, 
1753.00, 
1754.00, 
1755.00, 
1756.00, 
1757.00, 
1758.00, 
1759.00, 
1760.00, 
1761.00, 
1762.00, 
1763.00, 
1764.00, 
1765.00, 
1766.00, 
1767.00, 
1768.00, 
1769.00, 
1770.00, 
1771.00, 
1772.00, 
1773.00, 
1774.00, 
1775.00, 
1776.00, 
1777.00, 
1778.00, 
1779.00, 
1780.00, 
1781.00, 
1782.00, 
1783.00, 
1784.00, 
1785.00, 
1786.00, 
1787.00, 
1788.00, 
1789.00, 
1790.00, 
1791.00, 
1792.00, 
1793.00, 
1794.00, 
1795.00, 
1796.00, 
1797.00, 
1798.00, 
1799.00, 
1800.00, 
1801.00, 
1802.00, 
1803.00, 
1804.00, 
1805.00, 
1806.00, 
1807.00, 
1808.00, 
1809.00, 
1810.00, 
1811.00, 
1812.00, 
1813.00, 
1814.00, 
1815.00, 
1816.00, 
1817.00, 
1818.00, 
1819.00, 
1820.00, 
1821.00, 
1822.00, 
1823.00, 
1824.00, 
1825.00, 
1826.00, 
1827.00, 
1828.00, 
1829.00, 
1830.00, 
1831.00, 
1832.00, 
1833.00, 
1834.00, 
1835.00, 
1836.00, 
1837.00, 
1838.00, 
1839.00, 
1840.00, 
1841.00, 
1842.00, 
1843.00, 
1844.00, 
1845.00, 
1846.00, 
1847.00, 
1848.00, 
1849.00, 
1850.00, 
1851.00, 
1852.00, 
1853.00, 
1854.00, 
1855.00, 
1856.00, 
1857.00, 
1858.00, 
1859.00, 
1860.00, 
1861.00, 
1862.00, 
1863.00, 
1864.00, 
1865.00, 
1866.00, 
1867.00, 
1868.00, 
1869.00, 
1870.00, 
1871.00, 
1872.00, 
1873.00, 
1874.00, 
1875.00, 
1876.00, 
1877.00, 
1878.00, 
1879.00, 
1880.00, 
1881.00, 
1882.00, 
1883.00, 
1884.00, 
1885.00, 
1886.00, 
1887.00, 
1888.00, 
1889.00, 
1890.00, 
1891.00, 
1892.00, 
1893.00, 
1894.00, 
1895.00, 
1896.00, 
1897.00, 
1898.00, 
1899.00, 
1900.00, 
1901.00, 
1902.00, 
1903.00, 
1904.00, 
1905.00, 
1906.00, 
1907.00, 
1908.00, 
1909.00, 
1910.00, 
1911.00, 
1912.00, 
1913.00, 
1914.00, 
1915.00, 
1916.00, 
1917.00, 
1918.00, 
1919.00, 
1920.00, 
1921.00, 
1922.00, 
1923.00, 
1924.00, 
1925.00, 
1926.00, 
1927.00, 
1928.00, 
1929.00, 
1930.00, 
1931.00, 
1932.00, 
1933.00, 
1934.00, 
1935.00, 
1936.00, 
1937.00, 
1938.00, 
1939.00, 
1940.00, 
1941.00, 
1942.00, 
1943.00, 
1944.00, 
1945.00, 
1946.00, 
1947.00, 
1948.00, 
1949.00, 
1950.00, 
1951.00, 
1952.00, 
1953.00, 
1954.00, 
1955.00, 
1956.00, 
1957.00, 
1958.00, 
1959.00, 
1960.00, 
1961.00, 
1962.00, 
1963.00, 
1964.00, 
1965.00, 
1966.00, 
1967.00, 
1968.00, 
1969.00, 
1970.00, 
1971.00, 
1972.00, 
1973.00, 
1974.00, 
1975.00, 
1976.00, 
1977.00, 
1978.00, 
1979.00, 
1980.00, 
1981.00, 
1982.00, 
1983.00, 
1984.00, 
1985.00, 
1986.00, 
1987.00, 
1988.00, 
1989.00, 
1990.00, 
1991.00, 
1992.00, 
1993.00, 
1994.00, 
1995.00, 
1996.00, 
1997.00, 
1998.00, 
1999.00, 
2000.00, 
2001.00, 
2002.00, 
2003.00, 
2004.00, 
2005.00, 
2006.00, 
2007.00, 
2008.00, 
2009.00, 
2010.00, 
2011.00, 
2012.00, 
2013.00, 
2014.00, 
2015.00, 
2016.00, 
2017.00, 
2018.00, 
2019.00, 
2020.00, 
2021.00, 
2022.00, 
2023.00, 
2024.00, 
2025.00, 
2026.00, 
2027.00, 
2028.00, 
2029.00, 
2030.00, 
2031.00, 
2032.00, 
2033.00, 
2034.00, 
2035.00, 
2036.00, 
2037.00, 
2038.00, 
2039.00, 
2040.00, 
2041.00, 
2042.00, 
2043.00, 
2044.00, 
2045.00, 
2046.00, 
2047.00, 
2048.00, 
2049.00, 
2050.00, 
2051.00, 
2052.00, 
2053.00, 
2054.00, 
2055.00, 
2056.00, 
2057.00, 
2058.00, 
2059.00, 
2060.00, 
2061.00, 
2062.00, 
2063.00, 
2064.00, 
2065.00, 
2066.00, 
2067.00, 
2068.00, 
2069.00, 
2070.00, 
2071.00, 
2072.00, 
2073.00, 
2074.00, 
2075.00, 
2076.00, 
2077.00, 
2078.00, 
2079.00, 
2080.00, 
2081.00, 
2082.00, 
2083.00, 
2084.00, 
2085.00, 
2086.00, 
2087.00, 
2088.00, 
2089.00, 
2090.00, 
2091.00, 
2092.00, 
2093.00, 
2094.00, 
2095.00, 
2096.00, 
2097.00, 
2098.00, 
2099.00, 
2100.00, 
2101.00, 
2102.00, 
2103.00, 
2104.00, 
2105.00, 
2106.00, 
2107.00, 
2108.00, 
2109.00, 
2110.00, 
2111.00, 
2112.00, 
2113.00, 
2114.00, 
2115.00, 
2116.00, 
2117.00, 
2118.00, 
2119.00, 
2120.00, 
2121.00, 
2122.00, 
2123.00, 
2124.00, 
2125.00, 
2126.00, 
2127.00, 
2128.00, 
2129.00, 
2130.00, 
2131.00, 
2132.00, 
2133.00, 
2134.00, 
2135.00, 
2136.00, 
2137.00, 
2138.00, 
2139.00, 
2140.00, 
2141.00, 
2142.00, 
2143.00, 
2144.00, 
2145.00, 
2146.00, 
2147.00, 
2148.00, 
2149.00, 
2150.00, 
2151.00, 
2152.00, 
2153.00, 
2154.00, 
2155.00, 
2156.00, 
2157.00, 
2158.00, 
2159.00, 
2160.00, 
2161.00, 
2162.00, 
2163.00, 
2164.00, 
2165.00, 
2166.00, 
2167.00, 
2168.00, 
2169.00, 
2170.00, 
2171.00, 
2172.00, 
2173.00, 
2174.00, 
2175.00, 
2176.00, 
2177.00, 
2178.00, 
2179.00, 
2180.00, 
2181.00, 
2182.00, 
2183.00, 
2184.00, 
2185.00, 
2186.00, 
2187.00, 
2188.00, 
2189.00, 
2190.00, 
2191.00, 
2192.00, 
2193.00, 
2194.00, 
2195.00, 
2196.00, 
2197.00, 
2198.00, 
2199.00, 
2200.00, 
2201.00, 
2202.00, 
2203.00, 
2204.00, 
2205.00, 
2206.00, 
2207.00, 
2208.00, 
2209.00, 
2210.00, 
2211.00, 
2212.00, 
2213.00, 
2214.00, 
2215.00, 
2216.00, 
2217.00, 
2218.00, 
2219.00, 
2220.00, 
2221.00, 
2222.00, 
2223.00, 
2224.00, 
2225.00, 
2226.00, 
2227.00, 
2228.00, 
2229.00, 
2230.00, 
2231.00, 
2232.00, 
2233.00, 
2234.00, 
2235.00, 
2236.00, 
2237.00, 
2238.00, 
2239.00, 
2240.00, 
2241.00, 
2242.00, 
2243.00, 
2244.00, 
2245.00, 
2246.00, 
2247.00, 
2248.00, 
2249.00, 
2250.00, 
2251.00, 
2252.00, 
2253.00, 
2254.00, 
2255.00, 
2256.00, 
2257.00, 
2258.00, 
2259.00, 
2260.00, 
2261.00, 
2262.00, 
2263.00, 
2264.00, 
2265.00, 
2266.00, 
2267.00, 
2268.00, 
2269.00, 
2270.00, 
2271.00, 
2272.00, 
2273.00, 
2274.00, 
2275.00, 
2276.00, 
2277.00, 
2278.00, 
2279.00, 
2280.00, 
2281.00, 
2282.00, 
2283.00, 
2284.00, 
2285.00, 
2286.00, 
2287.00, 
2288.00, 
2289.00, 
2290.00, 
2291.00, 
2292.00, 
2293.00, 
2294.00, 
2295.00, 
2296.00, 
2297.00, 
2298.00, 
2299.00, 
2300.00, 
2301.00, 
2302.00, 
2303.00, 
2304.00, 
2305.00, 
2306.00, 
2307.00, 
2308.00, 
2309.00, 
2310.00, 
2311.00, 
2312.00, 
2313.00, 
2314.00, 
2315.00, 
2316.00, 
2317.00, 
2318.00, 
2319.00, 
2320.00, 
2321.00, 
2322.00, 
2323.00, 
2324.00, 
2325.00, 
2326.00, 
2327.00, 
2328.00, 
2329.00, 
2330.00, 
2331.00, 
2332.00, 
2333.00, 
2334.00, 
2335.00, 
2336.00, 
2337.00, 
2338.00, 
2339.00, 
2340.00, 
2341.00, 
2342.00, 
2343.00, 
2344.00, 
2345.00, 
2346.00, 
2347.00, 
2348.00, 
2349.00, 
2350.00, 
2351.00, 
2352.00, 
2353.00, 
2354.00, 
2355.00, 
2356.00, 
2357.00, 
2358.00, 
2359.00, 
2360.00, 
2361.00, 
2362.00, 
2363.00, 
2364.00, 
2365.00, 
2366.00, 
2367.00, 
2368.00, 
2369.00, 
2370.00, 
2371.00, 
2372.00, 
2373.00, 
2374.00, 
2375.00, 
2376.00, 
2377.00, 
2378.00, 
2379.00, 
2380.00, 
2381.00, 
2382.00, 
2383.00, 
2384.00, 
2385.00, 
2386.00, 
2387.00, 
2388.00, 
2389.00, 
2390.00, 
2391.00, 
2392.00, 
2393.00, 
2394.00, 
2395.00, 
2396.00, 
2397.00, 
2398.00, 
2399.00, 
2400.00, 
2401.00, 
2402.00, 
2403.00, 
2404.00, 
2405.00, 
2406.00, 
2407.00, 
2408.00, 
2409.00, 
2410.00, 
2411.00, 
2412.00, 
2413.00, 
2414.00, 
2415.00, 
2416.00, 
2417.00, 
2418.00, 
2419.00, 
2420.00, 
2421.00, 
2422.00, 
2423.00, 
2424.00, 
2425.00, 
2426.00, 
2427.00, 
2428.00, 
2429.00, 
2430.00, 
2431.00, 
2432.00, 
2433.00, 
2434.00, 
2435.00, 
2436.00, 
2437.00, 
2438.00, 
2439.00, 
2440.00, 
2441.00, 
2442.00, 
2443.00, 
2444.00, 
2445.00, 
2446.00, 
2447.00, 
2448.00, 
2449.00, 
2450.00, 
2451.00, 
2452.00, 
2453.00, 
2454.00, 
2455.00, 
2456.00, 
2457.00, 
2458.00, 
2459.00, 
2460.00, 
2461.00, 
2462.00, 
2463.00, 
2464.00, 
2465.00, 
2466.00, 
2467.00, 
2468.00, 
2469.00, 
2470.00, 
2471.00, 
2472.00, 
2473.00, 
2474.00, 
2475.00, 
2476.00, 
2477.00, 
2478.00, 
2479.00, 
2480.00, 
2481.00, 
2482.00, 
2483.00, 
2484.00, 
2485.00, 
2486.00, 
2487.00, 
2488.00, 
2489.00, 
2490.00, 
2491.00, 
2492.00, 
2493.00, 
2494.00, 
2495.00, 
2496.00, 
2497.00, 
2498.00, 
2499.00, 
2500.00, 
2501.00, 
2502.00, 
2503.00, 
2504.00, 
2505.00, 
2506.00, 
2507.00, 
2508.00, 
2509.00, 
2510.00, 
2511.00, 
2512.00, 
2513.00, 
2514.00, 
2515.00, 
2516.00, 
2517.00, 
2518.00, 
2519.00, 
2520.00, 
2521.00, 
2522.00, 
2523.00, 
2524.00, 
2525.00, 
2526.00, 
2527.00, 
2528.00, 
2529.00, 
2530.00, 
2531.00, 
2532.00, 
2533.00, 
2534.00, 
2535.00, 
2536.00, 
2537.00, 
2538.00, 
2539.00, 
2540.00, 
2541.00, 
2542.00, 
2543.00, 
2544.00, 
2545.00, 
2546.00, 
2547.00, 
2548.00, 
2549.00, 
2550.00, 
2551.00, 
2552.00, 
2553.00, 
2554.00, 
2555.00, 
2556.00, 
2557.00, 
2558.00, 
2559.00, 
2560.00, 
2561.00, 
2562.00, 
2563.00, 
2564.00, 
2565.00, 
2566.00, 
2567.00, 
2568.00, 
2569.00, 
2570.00, 
2571.00, 
2572.00, 
2573.00, 
2574.00, 
2575.00, 
2576.00, 
2577.00, 
2578.00, 
2579.00, 
2580.00, 
2581.00, 
2582.00, 
2583.00, 
2584.00, 
2585.00, 
2586.00, 
2587.00, 
2588.00, 
2589.00, 
2590.00, 
2591.00, 
2592.00, 
2593.00, 
2594.00, 
2595.00, 
2596.00, 
2597.00, 
2598.00, 
2599.00, 
2600.00, 
