"2cP1 - RawData"
"Wavelength nm.","T%"
200.00,0.003
201.00,-0.000
202.00,0.001
203.00,0.005
204.00,0.001
205.00,-0.001
206.00,0.000
207.00,0.001
208.00,0.003
209.00,0.002
210.00,0.002
211.00,0.003
212.00,0.002
213.00,0.002
214.00,-0.000
215.00,-0.001
216.00,0.004
217.00,-0.002
218.00,0.002
219.00,0.001
220.00,0.001
221.00,0.000
222.00,0.004
223.00,0.000
224.00,-0.000
225.00,0.003
226.00,0.000
227.00,-0.001
228.00,-0.000
229.00,-0.000
230.00,-0.000
231.00,0.000
232.00,0.002
233.00,0.000
234.00,0.001
235.00,0.000
236.00,0.003
237.00,-0.001
238.00,-0.000
239.00,-0.000
240.00,0.002
241.00,-0.000
242.00,0.001
243.00,0.001
244.00,-0.001
245.00,-0.000
246.00,0.000
247.00,0.000
248.00,-0.000
249.00,0.002
250.00,-0.001
251.00,0.001
252.00,0.001
253.00,0.003
254.00,-0.000
255.00,-0.002
256.00,0.000
257.00,-0.001
258.00,-0.000
259.00,0.000
260.00,0.002
261.00,0.001
262.00,0.000
263.00,0.001
264.00,-0.000
265.00,-0.001
266.00,0.001
267.00,0.001
268.00,-0.000
269.00,0.000
270.00,0.001
271.00,0.001
272.00,0.000
273.00,-0.000
274.00,-0.000
275.00,0.002
276.00,-0.000
277.00,-0.000
278.00,0.000
279.00,0.000
280.00,-0.001
281.00,-0.000
282.00,-0.001
283.00,0.001
284.00,-0.001
285.00,-0.001
286.00,0.001
287.00,0.002
288.00,0.004
289.00,0.001
290.00,-0.000
291.00,-0.000
292.00,-0.003
293.00,-0.001
294.00,-0.000
295.00,0.002
296.00,-0.000
297.00,0.000
298.00,0.000
299.00,0.001
300.00,0.001
301.00,0.003
302.00,0.004
303.00,0.006
304.00,0.012
305.00,0.019
306.00,0.029
307.00,0.045
308.00,0.070
309.00,0.109
310.00,0.151
311.00,0.203
312.00,0.283
313.00,0.385
314.00,0.511
315.00,0.670
316.00,0.844
317.00,1.074
318.00,1.323
319.00,1.625
320.00,1.965
321.00,2.370
322.00,2.802
323.00,3.330
324.00,3.841
325.00,4.380
326.00,4.951
327.00,5.553
328.00,6.242
329.00,6.922
330.00,7.618
331.00,8.326
332.00,9.095
333.00,9.864
334.00,10.551
335.00,11.357
336.00,12.040
337.00,12.778
338.00,13.530
339.00,14.193
340.00,14.900
341.00,15.573
342.00,16.203
343.00,16.783
344.00,17.430
345.00,18.005
346.00,18.514
347.00,18.907
348.00,19.531
349.00,19.989
350.00,20.427
351.00,20.794
352.00,21.211
353.00,21.586
354.00,21.910
355.00,22.237
356.00,22.530
357.00,22.829
358.00,23.057
359.00,23.319
360.00,23.524
361.00,23.751
362.00,23.983
363.00,24.143
364.00,24.280
365.00,24.418
366.00,24.602
367.00,24.677
368.00,24.791
369.00,24.854
370.00,24.895
371.00,24.983
372.00,25.029
373.00,25.016
374.00,24.982
375.00,24.969
376.00,24.984
377.00,24.967
378.00,24.897
379.00,24.866
380.00,24.881
381.00,24.864
382.00,24.890
383.00,24.920
384.00,24.953
385.00,24.977
386.00,25.035
387.00,25.055
388.00,25.167
389.00,25.184
390.00,25.208
391.00,25.287
392.00,25.246
393.00,25.301
394.00,25.278
395.00,25.369
396.00,25.382
397.00,25.432
398.00,25.446
399.00,25.449
400.00,25.473
401.00,25.464
402.00,25.469
403.00,25.457
404.00,25.477
405.00,25.488
406.00,25.461
407.00,25.439
408.00,25.386
409.00,25.374
410.00,25.358
411.00,25.341
412.00,25.274
413.00,25.311
414.00,25.307
415.00,25.312
416.00,25.317
417.00,25.346
418.00,25.357
419.00,25.378
420.00,25.386
421.00,25.496
422.00,25.466
423.00,25.540
424.00,25.565
425.00,25.604
426.00,25.649
427.00,25.713
428.00,25.744
429.00,25.779
430.00,25.778
431.00,25.861
432.00,25.884
433.00,25.937
434.00,25.983
435.00,26.027
436.00,26.089
437.00,26.172
438.00,26.158
439.00,26.279
440.00,26.388
441.00,26.450
442.00,26.531
443.00,26.560
444.00,26.671
445.00,26.714
446.00,26.832
447.00,26.891
448.00,26.948
449.00,27.127
450.00,27.198
451.00,27.297
452.00,27.389
453.00,27.464
454.00,27.596
455.00,27.702
456.00,27.805
457.00,27.938
458.00,28.028
459.00,28.132
460.00,28.245
461.00,28.357
462.00,28.474
463.00,28.575
464.00,28.734
465.00,28.833
466.00,28.926
467.00,29.085
468.00,29.083
469.00,29.271
470.00,29.361
471.00,29.474
472.00,29.542
473.00,29.629
474.00,29.725
475.00,29.845
476.00,29.924
477.00,30.068
478.00,30.192
479.00,30.323
480.00,30.457
481.00,30.583
482.00,30.733
483.00,30.845
484.00,31.029
485.00,31.188
486.00,31.284
487.00,31.421
488.00,31.552
489.00,31.718
490.00,31.817
491.00,31.932
492.00,32.102
493.00,32.218
494.00,32.187
495.00,32.279
496.00,32.524
497.00,32.630
498.00,32.778
499.00,32.900
500.00,32.985
501.00,33.080
502.00,33.275
503.00,33.379
504.00,33.482
505.00,33.586
506.00,33.689
507.00,33.830
508.00,33.916
509.00,34.052
510.00,34.175
511.00,34.254
512.00,34.381
513.00,34.504
514.00,34.624
515.00,34.704
516.00,34.821
517.00,34.933
518.00,35.087
519.00,35.097
520.00,35.207
521.00,35.259
522.00,35.345
523.00,35.418
524.00,35.483
525.00,35.579
526.00,35.695
527.00,35.762
528.00,35.846
529.00,35.905
530.00,35.996
531.00,36.164
532.00,36.282
533.00,36.361
534.00,36.472
535.00,36.512
536.00,36.626
537.00,36.695
538.00,36.733
539.00,36.839
540.00,36.904
541.00,36.979
542.00,37.072
543.00,37.208
544.00,37.180
545.00,37.271
546.00,37.297
547.00,37.433
548.00,37.393
549.00,37.498
550.00,37.598
551.00,37.581
552.00,37.784
553.00,37.739
554.00,37.819
555.00,37.964
556.00,38.015
557.00,38.077
558.00,38.124
559.00,38.197
560.00,38.245
561.00,38.315
562.00,38.383
563.00,38.313
564.00,38.423
565.00,38.486
566.00,38.466
567.00,38.550
568.00,38.534
569.00,38.501
570.00,38.637
571.00,38.738
572.00,38.750
573.00,38.778
574.00,38.858
575.00,38.854
576.00,38.932
577.00,38.990
578.00,39.062
579.00,39.118
580.00,39.222
581.00,39.290
582.00,39.364
583.00,39.390
584.00,39.540
585.00,39.551
586.00,39.571
587.00,39.691
588.00,39.700
589.00,39.743
590.00,39.824
591.00,39.869
592.00,39.883
593.00,39.913
594.00,39.907
595.00,39.996
596.00,40.003
597.00,40.070
598.00,40.154
599.00,40.117
600.00,40.295
601.00,40.345
602.00,40.323
603.00,40.374
604.00,40.424
605.00,40.448
606.00,40.436
607.00,40.484
608.00,40.658
609.00,40.505
610.00,40.507
611.00,40.685
612.00,40.785
613.00,40.769
614.00,40.789
615.00,40.873
616.00,40.984
617.00,40.930
618.00,40.982
619.00,41.071
620.00,41.100
621.00,41.077
622.00,41.200
623.00,41.257
624.00,41.324
625.00,41.386
626.00,41.433
627.00,41.529
628.00,41.542
629.00,41.573
630.00,41.655
631.00,41.658
632.00,41.733
633.00,41.823
634.00,41.848
635.00,41.913
636.00,42.054
637.00,42.081
638.00,42.151
639.00,42.213
640.00,42.216
641.00,42.286
642.00,42.375
643.00,42.397
644.00,42.531
645.00,42.478
646.00,42.652
647.00,42.672
648.00,42.724
649.00,42.877
650.00,42.828
651.00,42.961
652.00,43.021
653.00,43.063
654.00,43.145
655.00,43.199
656.00,43.286
657.00,43.526
658.00,43.454
659.00,43.617
660.00,43.623
661.00,43.598
662.00,43.750
663.00,43.783
664.00,43.897
665.00,43.898
666.00,44.036
667.00,44.102
668.00,44.248
669.00,44.246
670.00,44.364
671.00,44.366
672.00,44.452
673.00,44.577
674.00,44.646
675.00,44.637
676.00,44.816
677.00,44.844
678.00,44.910
679.00,44.992
680.00,45.019
681.00,45.126
682.00,45.170
683.00,45.292
684.00,45.340
685.00,45.380
686.00,45.399
687.00,45.552
688.00,45.617
689.00,45.632
690.00,45.718
691.00,45.825
692.00,45.838
693.00,45.922
694.00,45.944
695.00,46.120
696.00,46.109
697.00,46.144
698.00,46.200
699.00,46.328
700.00,46.524
701.00,46.443
702.00,46.536
703.00,46.729
704.00,46.639
705.00,46.614
706.00,46.806
707.00,46.913
708.00,46.754
709.00,46.937
710.00,47.118
711.00,46.945
712.00,46.958
713.00,47.261
714.00,47.194
715.00,47.204
716.00,47.371
717.00,47.223
718.00,47.460
719.00,47.451
720.00,47.457
721.00,51.620
722.00,51.705
723.00,51.627
724.00,51.617
725.00,51.642
726.00,51.632
727.00,51.609
728.00,51.623
729.00,51.643
730.00,51.682
731.00,51.673
732.00,51.693
733.00,51.784
734.00,51.797
735.00,51.743
736.00,51.812
737.00,51.753
738.00,51.864
739.00,51.854
740.00,51.860
741.00,51.881
742.00,51.886
743.00,51.908
744.00,51.863
745.00,51.892
746.00,51.941
747.00,51.872
748.00,51.796
749.00,51.845
750.00,51.769
751.00,51.800
752.00,51.855
753.00,51.774
754.00,51.837
755.00,51.840
756.00,51.828
757.00,51.789
758.00,51.784
759.00,51.837
760.00,51.759
761.00,51.815
762.00,51.814
763.00,51.851
764.00,51.829
765.00,51.860
766.00,51.793
767.00,51.812
768.00,51.862
769.00,51.817
770.00,51.940
771.00,51.814
772.00,51.885
773.00,51.918
774.00,51.849
775.00,51.864
776.00,51.868
777.00,51.863
778.00,51.855
779.00,51.880
780.00,51.824
781.00,51.882
782.00,51.824
783.00,51.873
784.00,51.845
785.00,51.812
786.00,51.743
787.00,51.810
788.00,51.776
789.00,51.849
790.00,51.694
791.00,51.691
792.00,51.708
793.00,51.641
794.00,51.667
795.00,51.685
796.00,51.674
797.00,51.623
798.00,51.572
799.00,51.571
800.00,51.655
801.00,51.555
802.00,51.539
803.00,51.607
804.00,51.547
805.00,51.481
806.00,51.485
807.00,51.446
808.00,51.504
809.00,51.328
810.00,51.415
811.00,51.346
812.00,51.431
813.00,51.363
814.00,51.371
815.00,51.381
816.00,51.395
817.00,51.304
818.00,51.313
819.00,51.269
820.00,51.237
821.00,51.169
822.00,51.250
823.00,51.234
824.00,51.176
825.00,51.079
826.00,51.159
827.00,51.204
828.00,51.089
829.00,51.161
830.00,51.124
831.00,53.668
832.00,53.688
833.00,53.595
834.00,53.623
835.00,53.578
836.00,53.566
837.00,53.514
838.00,53.517
839.00,53.504
840.00,53.460
841.00,53.453
842.00,53.452
843.00,53.398
844.00,53.417
845.00,53.391
846.00,53.363
847.00,53.335
848.00,53.307
849.00,53.243
850.00,53.239
851.00,53.192
852.00,53.156
853.00,53.106
854.00,53.085
855.00,53.060
856.00,53.057
857.00,53.034
858.00,53.011
859.00,52.974
860.00,52.954
861.00,52.928
862.00,52.888
863.00,52.891
864.00,52.918
865.00,52.925
866.00,52.773
867.00,52.807
868.00,52.811
869.00,52.844
870.00,52.839
871.00,52.767
872.00,52.835
873.00,52.771
874.00,52.733
875.00,52.756
876.00,52.724
877.00,52.712
878.00,52.697
879.00,52.645
880.00,52.670
881.00,52.637
882.00,52.642
883.00,52.626
884.00,52.588
885.00,52.584
886.00,52.557
887.00,52.600
888.00,52.522
889.00,52.490
890.00,52.483
891.00,52.441
892.00,52.431
893.00,52.380
894.00,52.408
895.00,52.358
896.00,52.342
897.00,52.320
898.00,52.289
899.00,52.290
900.00,52.295
901.00,52.301
902.00,52.285
903.00,52.241
904.00,52.249
905.00,52.218
906.00,52.181
907.00,52.166
908.00,52.155
909.00,52.118
910.00,52.089
911.00,52.098
912.00,52.110
913.00,52.048
914.00,52.037
915.00,52.014
916.00,52.005
917.00,51.942
918.00,51.943
919.00,51.916
920.00,51.896
921.00,51.897
922.00,51.860
923.00,51.866
924.00,51.846
925.00,51.802
926.00,51.762
927.00,51.790
928.00,51.747
929.00,51.739
930.00,51.698
931.00,51.699
932.00,51.666
933.00,51.661
934.00,51.651
935.00,51.639
936.00,51.624
937.00,51.571
938.00,51.551
939.00,51.567
940.00,51.546
941.00,51.523
942.00,51.485
943.00,51.497
944.00,51.441
945.00,51.447
946.00,51.434
947.00,51.405
948.00,51.375
949.00,51.353
950.00,51.336
951.00,51.298
952.00,51.299
953.00,51.257
954.00,51.249
955.00,51.208
956.00,51.195
957.00,51.168
958.00,51.169
959.00,51.126
960.00,51.118
961.00,51.080
962.00,51.110
963.00,51.062
964.00,51.045
965.00,51.032
966.00,51.035
967.00,51.036
968.00,51.014
969.00,51.018
970.00,51.000
971.00,51.006
972.00,50.955
973.00,51.026
974.00,50.953
975.00,50.984
976.00,51.013
977.00,50.965
978.00,51.016
979.00,50.984
980.00,51.004
981.00,50.991
982.00,50.994
983.00,50.981
984.00,50.970
985.00,50.992
986.00,50.946
987.00,50.947
988.00,50.991
989.00,50.950
990.00,50.931
991.00,50.884
992.00,50.923
993.00,50.879
994.00,50.857
995.00,50.852
996.00,50.832
997.00,50.824
998.00,50.819
999.00,50.827
1000.00,50.777
1001.00,50.787
1002.00,50.844
1003.00,50.772
1004.00,50.754
1005.00,50.702
1006.00,50.732
1007.00,50.695
1008.00,50.692
1009.00,50.675
1010.00,50.650
1011.00,50.668
1012.00,50.643
1013.00,50.635
1014.00,50.597
1015.00,50.614
1016.00,50.561
1017.00,50.571
1018.00,50.554
1019.00,50.516
1020.00,50.516
1021.00,50.488
1022.00,50.500
1023.00,50.452
1024.00,50.440
1025.00,50.439
1026.00,50.424
1027.00,50.388
1028.00,50.383
1029.00,50.376
1030.00,50.342
1031.00,50.360
1032.00,50.334
1033.00,50.331
1034.00,50.325
1035.00,50.257
1036.00,50.244
1037.00,50.215
1038.00,50.191
1039.00,50.180
1040.00,50.168
1041.00,50.125
1042.00,50.136
1043.00,50.095
1044.00,50.134
1045.00,50.109
1046.00,50.096
1047.00,50.108
1048.00,50.120
1049.00,50.123
1050.00,50.145
1051.00,50.153
1052.00,50.175
1053.00,50.199
1054.00,50.178
1055.00,50.196
1056.00,50.203
1057.00,50.204
1058.00,50.206
1059.00,50.185
1060.00,50.186
1061.00,50.182
1062.00,50.163
1063.00,50.165
1064.00,50.158
1065.00,50.153
1066.00,50.139
1067.00,50.137
1068.00,50.144
1069.00,50.133
1070.00,50.117
1071.00,50.078
1072.00,50.104
1073.00,50.065
1074.00,50.068
1075.00,50.059
1076.00,50.040
1077.00,50.035
1078.00,50.030
1079.00,50.002
1080.00,50.011
1081.00,49.986
1082.00,49.972
1083.00,49.978
1084.00,49.970
1085.00,49.951
1086.00,49.962
1087.00,49.941
1088.00,49.930
1089.00,49.923
1090.00,49.916
1091.00,49.912
1092.00,49.907
1093.00,49.877
1094.00,49.870
1095.00,49.877
1096.00,49.839
1097.00,49.852
1098.00,49.841
1099.00,49.823
1100.00,49.821
1101.00,49.788
1102.00,49.803
1103.00,49.790
1104.00,49.776
1105.00,49.768
1106.00,49.754
1107.00,49.735
1108.00,49.750
1109.00,49.737
1110.00,49.746
1111.00,49.734
1112.00,49.711
1113.00,49.708
1114.00,49.703
1115.00,49.682
1116.00,49.683
1117.00,49.660
1118.00,49.665
1119.00,49.672
1120.00,49.652
1121.00,49.640
1122.00,49.626
1123.00,49.643
1124.00,49.633
1125.00,49.607
1126.00,49.607
1127.00,49.607
1128.00,49.603
1129.00,49.575
1130.00,49.570
1131.00,49.558
1132.00,49.555
1133.00,49.558
1134.00,49.523
1135.00,49.549
1136.00,49.525
1137.00,49.500
1138.00,49.524
1139.00,49.531
1140.00,49.512
1141.00,49.535
1142.00,49.496
1143.00,49.502
1144.00,49.482
1145.00,49.475
1146.00,49.488
1147.00,49.476
1148.00,49.453
1149.00,49.476
1150.00,49.467
1151.00,49.457
1152.00,49.463
1153.00,49.437
1154.00,49.440
1155.00,49.460
1156.00,49.454
1157.00,49.445
1158.00,49.446
1159.00,49.435
1160.00,49.426
1161.00,49.417
1162.00,49.401
1163.00,49.411
1164.00,49.393
1165.00,49.397
1166.00,49.403
1167.00,49.382
1168.00,49.405
1169.00,49.402
1170.00,49.394
1171.00,49.372
1172.00,49.377
1173.00,49.382
1174.00,49.396
1175.00,49.375
1176.00,49.372
1177.00,49.378
1178.00,49.364
1179.00,49.391
1180.00,49.389
1181.00,49.390
1182.00,49.394
1183.00,49.367
1184.00,49.361
1185.00,49.388
1186.00,49.351
1187.00,49.368
1188.00,49.353
1189.00,49.356
1190.00,49.351
1191.00,49.346
1192.00,49.344
1193.00,49.338
1194.00,49.355
1195.00,49.318
1196.00,49.348
1197.00,49.332
1198.00,49.326
1199.00,49.327
1200.00,49.314
1201.00,49.351
1202.00,49.330
1203.00,49.320
1204.00,49.316
1205.00,49.331
1206.00,49.321
1207.00,49.336
1208.00,49.327
1209.00,49.321
1210.00,49.342
1211.00,49.314
1212.00,49.337
1213.00,49.298
1214.00,49.318
1215.00,49.310
1216.00,49.310
1217.00,49.318
1218.00,49.305
1219.00,49.319
1220.00,49.312
1221.00,49.323
1222.00,49.298
1223.00,49.314
1224.00,49.327
1225.00,49.308
1226.00,49.315
1227.00,49.305
1228.00,49.301
1229.00,49.336
1230.00,49.343
1231.00,49.346
1232.00,49.372
1233.00,49.340
1234.00,49.367
1235.00,49.360
1236.00,49.348
1237.00,49.347
1238.00,49.343
1239.00,49.352
1240.00,49.344
1241.00,49.346
1242.00,49.348
1243.00,49.378
1244.00,49.336
1245.00,49.371
1246.00,49.382
1247.00,49.366
1248.00,49.368
1249.00,49.369
1250.00,49.380
1251.00,49.385
1252.00,49.386
1253.00,49.380
1254.00,49.405
1255.00,49.393
1256.00,49.373
1257.00,49.357
1258.00,49.391
1259.00,49.388
1260.00,49.414
1261.00,49.411
1262.00,49.429
1263.00,49.413
1264.00,49.410
1265.00,49.418
1266.00,49.408
1267.00,49.416
1268.00,49.437
1269.00,49.414
1270.00,49.432
1271.00,49.440
1272.00,49.432
1273.00,49.448
1274.00,49.439
1275.00,49.434
1276.00,49.457
1277.00,49.449
1278.00,49.483
1279.00,49.468
1280.00,49.466
1281.00,49.489
1282.00,49.477
1283.00,49.467
1284.00,49.481
1285.00,49.463
1286.00,49.475
1287.00,49.481
1288.00,49.475
1289.00,49.476
1290.00,49.497
1291.00,49.487
1292.00,49.504
1293.00,49.480
1294.00,49.502
1295.00,49.536
1296.00,49.527
1297.00,49.535
1298.00,49.553
1299.00,49.520
1300.00,49.543
1301.00,49.553
1302.00,49.543
1303.00,49.565
1304.00,49.544
1305.00,49.558
1306.00,49.586
1307.00,49.577
1308.00,49.592
1309.00,49.591
1310.00,49.576
1311.00,49.594
1312.00,49.590
1313.00,49.571
1314.00,49.592
1315.00,49.599
1316.00,49.603
1317.00,49.624
1318.00,49.622
1319.00,49.619
1320.00,49.652
1321.00,49.809
1322.00,49.837
1323.00,49.815
1324.00,49.806
1325.00,49.789
1326.00,49.825
1327.00,49.807
1328.00,49.797
1329.00,49.805
1330.00,49.788
1331.00,49.805
1332.00,49.793
1333.00,49.821
1334.00,49.827
1335.00,49.842
1336.00,49.865
1337.00,49.931
1338.00,49.973
1339.00,50.008
1340.00,50.075
1341.00,50.127
1342.00,50.210
1343.00,50.239
1344.00,50.287
1345.00,50.334
1346.00,50.380
1347.00,50.388
1348.00,50.414
1349.00,50.440
1350.00,50.444
1351.00,50.472
1352.00,50.475
1353.00,50.516
1354.00,50.485
1355.00,50.444
1356.00,50.510
1357.00,50.507
1358.00,50.503
1359.00,50.547
1360.00,50.525
1361.00,50.433
1362.00,50.469
1363.00,50.565
1364.00,50.554
1365.00,50.506
1366.00,50.521
1367.00,50.475
1368.00,50.475
1369.00,50.537
1370.00,50.495
1371.00,50.441
1372.00,50.489
1373.00,50.488
1374.00,50.517
1375.00,50.484
1376.00,50.478
1377.00,50.479
1378.00,50.486
1379.00,50.488
1380.00,50.498
1381.00,50.476
1382.00,50.452
1383.00,50.457
1384.00,50.435
1385.00,50.434
1386.00,50.479
1387.00,50.414
1388.00,50.417
1389.00,50.398
1390.00,50.456
1391.00,50.442
1392.00,50.472
1393.00,50.471
1394.00,50.472
1395.00,50.395
1396.00,50.367
1397.00,50.491
1398.00,50.261
1399.00,50.441
1400.00,50.537
1401.00,50.454
1402.00,50.516
1403.00,50.442
1404.00,50.465
1405.00,50.496
1406.00,50.473
1407.00,50.499
1408.00,50.508
1409.00,50.482
1410.00,50.515
1411.00,50.514
1412.00,50.560
1413.00,50.467
1414.00,50.484
1415.00,50.545
1416.00,50.574
1417.00,50.585
1418.00,50.572
1419.00,50.555
1420.00,50.584
1421.00,50.619
1422.00,50.618
1423.00,50.605
1424.00,50.639
1425.00,50.639
1426.00,50.668
1427.00,50.670
1428.00,50.692
1429.00,50.694
1430.00,50.708
1431.00,50.725
1432.00,50.731
1433.00,50.761
1434.00,50.750
1435.00,50.785
1436.00,50.808
1437.00,50.812
1438.00,50.822
1439.00,50.851
1440.00,50.857
1441.00,50.859
1442.00,50.869
1443.00,50.904
1444.00,50.910
1445.00,50.909
1446.00,50.920
1447.00,50.968
1448.00,50.986
1449.00,50.994
1450.00,50.985
1451.00,51.009
1452.00,51.011
1453.00,51.036
1454.00,51.035
1455.00,51.060
1456.00,51.086
1457.00,51.075
1458.00,51.108
1459.00,51.123
1460.00,51.129
1461.00,51.142
1462.00,51.155
1463.00,51.181
1464.00,51.179
1465.00,51.181
1466.00,51.204
1467.00,51.206
1468.00,51.256
1469.00,51.256
1470.00,51.254
1471.00,51.279
1472.00,51.286
1473.00,51.304
1474.00,51.334
1475.00,51.335
1476.00,51.346
1477.00,51.342
1478.00,51.357
1479.00,51.368
1480.00,51.390
1481.00,51.384
1482.00,51.415
1483.00,51.420
1484.00,51.428
1485.00,51.450
1486.00,51.437
1487.00,51.476
1488.00,51.494
1489.00,51.481
1490.00,51.497
1491.00,51.503
1492.00,51.518
1493.00,51.519
1494.00,51.540
1495.00,51.541
1496.00,51.541
1497.00,51.556
1498.00,51.552
1499.00,51.574
1500.00,51.591
1501.00, 
1502.00, 
1503.00, 
1504.00, 
1505.00, 
1506.00, 
1507.00, 
1508.00, 
1509.00, 
1510.00, 
1511.00, 
1512.00, 
1513.00, 
1514.00, 
1515.00, 
1516.00, 
1517.00, 
1518.00, 
1519.00, 
1520.00, 
1521.00, 
1522.00, 
1523.00, 
1524.00, 
1525.00, 
1526.00, 
1527.00, 
1528.00, 
1529.00, 
1530.00, 
1531.00, 
1532.00, 
1533.00, 
1534.00, 
1535.00, 
1536.00, 
1537.00, 
1538.00, 
1539.00, 
1540.00, 
1541.00, 
1542.00, 
1543.00, 
1544.00, 
1545.00, 
1546.00, 
1547.00, 
1548.00, 
1549.00, 
1550.00, 
1551.00, 
1552.00, 
1553.00, 
1554.00, 
1555.00, 
1556.00, 
1557.00, 
1558.00, 
1559.00, 
1560.00, 
1561.00, 
1562.00, 
1563.00, 
1564.00, 
1565.00, 
1566.00, 
1567.00, 
1568.00, 
1569.00, 
1570.00, 
1571.00, 
1572.00, 
1573.00, 
1574.00, 
1575.00, 
1576.00, 
1577.00, 
1578.00, 
1579.00, 
1580.00, 
1581.00, 
1582.00, 
1583.00, 
1584.00, 
1585.00, 
1586.00, 
1587.00, 
1588.00, 
1589.00, 
1590.00, 
1591.00, 
1592.00, 
1593.00, 
1594.00, 
1595.00, 
1596.00, 
1597.00, 
1598.00, 
1599.00, 
1600.00, 
1601.00, 
1602.00, 
1603.00, 
1604.00, 
1605.00, 
1606.00, 
1607.00, 
1608.00, 
1609.00, 
1610.00, 
1611.00, 
1612.00, 
1613.00, 
1614.00, 
1615.00, 
1616.00, 
1617.00, 
1618.00, 
1619.00, 
1620.00, 
1621.00, 
1622.00, 
1623.00, 
1624.00, 
1625.00, 
1626.00, 
1627.00, 
1628.00, 
1629.00, 
1630.00, 
1631.00, 
1632.00, 
1633.00, 
1634.00, 
1635.00, 
1636.00, 
1637.00, 
1638.00, 
1639.00, 
1640.00, 
1641.00, 
1642.00, 
1643.00, 
1644.00, 
1645.00, 
1646.00, 
1647.00, 
1648.00, 
1649.00, 
1650.00, 
1651.00, 
1652.00, 
1653.00, 
1654.00, 
1655.00, 
1656.00, 
1657.00, 
1658.00, 
1659.00, 
1660.00, 
1661.00, 
1662.00, 
1663.00, 
1664.00, 
1665.00, 
1666.00, 
1667.00, 
1668.00, 
1669.00, 
1670.00, 
1671.00, 
1672.00, 
1673.00, 
1674.00, 
1675.00, 
1676.00, 
1677.00, 
1678.00, 
1679.00, 
1680.00, 
1681.00, 
1682.00, 
1683.00, 
1684.00, 
1685.00, 
1686.00, 
1687.00, 
1688.00, 
1689.00, 
1690.00, 
1691.00, 
1692.00, 
1693.00, 
1694.00, 
1695.00, 
1696.00, 
1697.00, 
1698.00, 
1699.00, 
1700.00, 
1701.00, 
1702.00, 
1703.00, 
1704.00, 
1705.00, 
1706.00, 
1707.00, 
1708.00, 
1709.00, 
1710.00, 
1711.00, 
1712.00, 
1713.00, 
1714.00, 
1715.00, 
1716.00, 
1717.00, 
1718.00, 
1719.00, 
1720.00, 
1721.00, 
1722.00, 
1723.00, 
1724.00, 
1725.00, 
1726.00, 
1727.00, 
1728.00, 
1729.00, 
1730.00, 
1731.00, 
1732.00, 
1733.00, 
1734.00, 
1735.00, 
1736.00, 
1737.00, 
1738.00, 
1739.00, 
1740.00, 
1741.00, 
1742.00, 
1743.00, 
1744.00, 
1745.00, 
1746.00, 
1747.00, 
1748.00, 
1749.00, 
1750.00, 
1751.00, 
1752.00, 
1753.00, 
1754.00, 
1755.00, 
1756.00, 
1757.00, 
1758.00, 
1759.00, 
1760.00, 
1761.00, 
1762.00, 
1763.00, 
1764.00, 
1765.00, 
1766.00, 
1767.00, 
1768.00, 
1769.00, 
1770.00, 
1771.00, 
1772.00, 
1773.00, 
1774.00, 
1775.00, 
1776.00, 
1777.00, 
1778.00, 
1779.00, 
1780.00, 
1781.00, 
1782.00, 
1783.00, 
1784.00, 
1785.00, 
1786.00, 
1787.00, 
1788.00, 
1789.00, 
1790.00, 
1791.00, 
1792.00, 
1793.00, 
1794.00, 
1795.00, 
1796.00, 
1797.00, 
1798.00, 
1799.00, 
1800.00, 
1801.00, 
1802.00, 
1803.00, 
1804.00, 
1805.00, 
1806.00, 
1807.00, 
1808.00, 
1809.00, 
1810.00, 
1811.00, 
1812.00, 
1813.00, 
1814.00, 
1815.00, 
1816.00, 
1817.00, 
1818.00, 
1819.00, 
1820.00, 
1821.00, 
1822.00, 
1823.00, 
1824.00, 
1825.00, 
1826.00, 
1827.00, 
1828.00, 
1829.00, 
1830.00, 
1831.00, 
1832.00, 
1833.00, 
1834.00, 
1835.00, 
1836.00, 
1837.00, 
1838.00, 
1839.00, 
1840.00, 
1841.00, 
1842.00, 
1843.00, 
1844.00, 
1845.00, 
1846.00, 
1847.00, 
1848.00, 
1849.00, 
1850.00, 
1851.00, 
1852.00, 
1853.00, 
1854.00, 
1855.00, 
1856.00, 
1857.00, 
1858.00, 
1859.00, 
1860.00, 
1861.00, 
1862.00, 
1863.00, 
1864.00, 
1865.00, 
1866.00, 
1867.00, 
1868.00, 
1869.00, 
1870.00, 
1871.00, 
1872.00, 
1873.00, 
1874.00, 
1875.00, 
1876.00, 
1877.00, 
1878.00, 
1879.00, 
1880.00, 
1881.00, 
1882.00, 
1883.00, 
1884.00, 
1885.00, 
1886.00, 
1887.00, 
1888.00, 
1889.00, 
1890.00, 
1891.00, 
1892.00, 
1893.00, 
1894.00, 
1895.00, 
1896.00, 
1897.00, 
1898.00, 
1899.00, 
1900.00, 
1901.00, 
1902.00, 
1903.00, 
1904.00, 
1905.00, 
1906.00, 
1907.00, 
1908.00, 
1909.00, 
1910.00, 
1911.00, 
1912.00, 
1913.00, 
1914.00, 
1915.00, 
1916.00, 
1917.00, 
1918.00, 
1919.00, 
1920.00, 
1921.00, 
1922.00, 
1923.00, 
1924.00, 
1925.00, 
1926.00, 
1927.00, 
1928.00, 
1929.00, 
1930.00, 
1931.00, 
1932.00, 
1933.00, 
1934.00, 
1935.00, 
1936.00, 
1937.00, 
1938.00, 
1939.00, 
1940.00, 
1941.00, 
1942.00, 
1943.00, 
1944.00, 
1945.00, 
1946.00, 
1947.00, 
1948.00, 
1949.00, 
1950.00, 
1951.00, 
1952.00, 
1953.00, 
1954.00, 
1955.00, 
1956.00, 
1957.00, 
1958.00, 
1959.00, 
1960.00, 
1961.00, 
1962.00, 
1963.00, 
1964.00, 
1965.00, 
1966.00, 
1967.00, 
1968.00, 
1969.00, 
1970.00, 
1971.00, 
1972.00, 
1973.00, 
1974.00, 
1975.00, 
1976.00, 
1977.00, 
1978.00, 
1979.00, 
1980.00, 
1981.00, 
1982.00, 
1983.00, 
1984.00, 
1985.00, 
1986.00, 
1987.00, 
1988.00, 
1989.00, 
1990.00, 
1991.00, 
1992.00, 
1993.00, 
1994.00, 
1995.00, 
1996.00, 
1997.00, 
1998.00, 
1999.00, 
2000.00, 
2001.00, 
2002.00, 
2003.00, 
2004.00, 
2005.00, 
2006.00, 
2007.00, 
2008.00, 
2009.00, 
2010.00, 
2011.00, 
2012.00, 
2013.00, 
2014.00, 
2015.00, 
2016.00, 
2017.00, 
2018.00, 
2019.00, 
2020.00, 
2021.00, 
2022.00, 
2023.00, 
2024.00, 
2025.00, 
2026.00, 
2027.00, 
2028.00, 
2029.00, 
2030.00, 
2031.00, 
2032.00, 
2033.00, 
2034.00, 
2035.00, 
2036.00, 
2037.00, 
2038.00, 
2039.00, 
2040.00, 
2041.00, 
2042.00, 
2043.00, 
2044.00, 
2045.00, 
2046.00, 
2047.00, 
2048.00, 
2049.00, 
2050.00, 
2051.00, 
2052.00, 
2053.00, 
2054.00, 
2055.00, 
2056.00, 
2057.00, 
2058.00, 
2059.00, 
2060.00, 
2061.00, 
2062.00, 
2063.00, 
2064.00, 
2065.00, 
2066.00, 
2067.00, 
2068.00, 
2069.00, 
2070.00, 
2071.00, 
2072.00, 
2073.00, 
2074.00, 
2075.00, 
2076.00, 
2077.00, 
2078.00, 
2079.00, 
2080.00, 
2081.00, 
2082.00, 
2083.00, 
2084.00, 
2085.00, 
2086.00, 
2087.00, 
2088.00, 
2089.00, 
2090.00, 
2091.00, 
2092.00, 
2093.00, 
2094.00, 
2095.00, 
2096.00, 
2097.00, 
2098.00, 
2099.00, 
2100.00, 
2101.00, 
2102.00, 
2103.00, 
2104.00, 
2105.00, 
2106.00, 
2107.00, 
2108.00, 
2109.00, 
2110.00, 
2111.00, 
2112.00, 
2113.00, 
2114.00, 
2115.00, 
2116.00, 
2117.00, 
2118.00, 
2119.00, 
2120.00, 
2121.00, 
2122.00, 
2123.00, 
2124.00, 
2125.00, 
2126.00, 
2127.00, 
2128.00, 
2129.00, 
2130.00, 
2131.00, 
2132.00, 
2133.00, 
2134.00, 
2135.00, 
2136.00, 
2137.00, 
2138.00, 
2139.00, 
2140.00, 
2141.00, 
2142.00, 
2143.00, 
2144.00, 
2145.00, 
2146.00, 
2147.00, 
2148.00, 
2149.00, 
2150.00, 
2151.00, 
2152.00, 
2153.00, 
2154.00, 
2155.00, 
2156.00, 
2157.00, 
2158.00, 
2159.00, 
2160.00, 
2161.00, 
2162.00, 
2163.00, 
2164.00, 
2165.00, 
2166.00, 
2167.00, 
2168.00, 
2169.00, 
2170.00, 
2171.00, 
2172.00, 
2173.00, 
2174.00, 
2175.00, 
2176.00, 
2177.00, 
2178.00, 
2179.00, 
2180.00, 
2181.00, 
2182.00, 
2183.00, 
2184.00, 
2185.00, 
2186.00, 
2187.00, 
2188.00, 
2189.00, 
2190.00, 
2191.00, 
2192.00, 
2193.00, 
2194.00, 
2195.00, 
2196.00, 
2197.00, 
2198.00, 
2199.00, 
2200.00, 
2201.00, 
2202.00, 
2203.00, 
2204.00, 
2205.00, 
2206.00, 
2207.00, 
2208.00, 
2209.00, 
2210.00, 
2211.00, 
2212.00, 
2213.00, 
2214.00, 
2215.00, 
2216.00, 
2217.00, 
2218.00, 
2219.00, 
2220.00, 
2221.00, 
2222.00, 
2223.00, 
2224.00, 
2225.00, 
2226.00, 
2227.00, 
2228.00, 
2229.00, 
2230.00, 
2231.00, 
2232.00, 
2233.00, 
2234.00, 
2235.00, 
2236.00, 
2237.00, 
2238.00, 
2239.00, 
2240.00, 
2241.00, 
2242.00, 
2243.00, 
2244.00, 
2245.00, 
2246.00, 
2247.00, 
2248.00, 
2249.00, 
2250.00, 
2251.00, 
2252.00, 
2253.00, 
2254.00, 
2255.00, 
2256.00, 
2257.00, 
2258.00, 
2259.00, 
2260.00, 
2261.00, 
2262.00, 
2263.00, 
2264.00, 
2265.00, 
2266.00, 
2267.00, 
2268.00, 
2269.00, 
2270.00, 
2271.00, 
2272.00, 
2273.00, 
2274.00, 
2275.00, 
2276.00, 
2277.00, 
2278.00, 
2279.00, 
2280.00, 
2281.00, 
2282.00, 
2283.00, 
2284.00, 
2285.00, 
2286.00, 
2287.00, 
2288.00, 
2289.00, 
2290.00, 
2291.00, 
2292.00, 
2293.00, 
2294.00, 
2295.00, 
2296.00, 
2297.00, 
2298.00, 
2299.00, 
2300.00, 
2301.00, 
2302.00, 
2303.00, 
2304.00, 
2305.00, 
2306.00, 
2307.00, 
2308.00, 
2309.00, 
2310.00, 
2311.00, 
2312.00, 
2313.00, 
2314.00, 
2315.00, 
2316.00, 
2317.00, 
2318.00, 
2319.00, 
2320.00, 
2321.00, 
2322.00, 
2323.00, 
2324.00, 
2325.00, 
2326.00, 
2327.00, 
2328.00, 
2329.00, 
2330.00, 
2331.00, 
2332.00, 
2333.00, 
2334.00, 
2335.00, 
2336.00, 
2337.00, 
2338.00, 
2339.00, 
2340.00, 
2341.00, 
2342.00, 
2343.00, 
2344.00, 
2345.00, 
2346.00, 
2347.00, 
2348.00, 
2349.00, 
2350.00, 
2351.00, 
2352.00, 
2353.00, 
2354.00, 
2355.00, 
2356.00, 
2357.00, 
2358.00, 
2359.00, 
2360.00, 
2361.00, 
2362.00, 
2363.00, 
2364.00, 
2365.00, 
2366.00, 
2367.00, 
2368.00, 
2369.00, 
2370.00, 
2371.00, 
2372.00, 
2373.00, 
2374.00, 
2375.00, 
2376.00, 
2377.00, 
2378.00, 
2379.00, 
2380.00, 
2381.00, 
2382.00, 
2383.00, 
2384.00, 
2385.00, 
2386.00, 
2387.00, 
2388.00, 
2389.00, 
2390.00, 
2391.00, 
2392.00, 
2393.00, 
2394.00, 
2395.00, 
2396.00, 
2397.00, 
2398.00, 
2399.00, 
2400.00, 
2401.00, 
2402.00, 
2403.00, 
2404.00, 
2405.00, 
2406.00, 
2407.00, 
2408.00, 
2409.00, 
2410.00, 
2411.00, 
2412.00, 
2413.00, 
2414.00, 
2415.00, 
2416.00, 
2417.00, 
2418.00, 
2419.00, 
2420.00, 
2421.00, 
2422.00, 
2423.00, 
2424.00, 
2425.00, 
2426.00, 
2427.00, 
2428.00, 
2429.00, 
2430.00, 
2431.00, 
2432.00, 
2433.00, 
2434.00, 
2435.00, 
2436.00, 
2437.00, 
2438.00, 
2439.00, 
2440.00, 
2441.00, 
2442.00, 
2443.00, 
2444.00, 
2445.00, 
2446.00, 
2447.00, 
2448.00, 
2449.00, 
2450.00, 
2451.00, 
2452.00, 
2453.00, 
2454.00, 
2455.00, 
2456.00, 
2457.00, 
2458.00, 
2459.00, 
2460.00, 
2461.00, 
2462.00, 
2463.00, 
2464.00, 
2465.00, 
2466.00, 
2467.00, 
2468.00, 
2469.00, 
2470.00, 
2471.00, 
2472.00, 
2473.00, 
2474.00, 
2475.00, 
2476.00, 
2477.00, 
2478.00, 
2479.00, 
2480.00, 
2481.00, 
2482.00, 
2483.00, 
2484.00, 
2485.00, 
2486.00, 
2487.00, 
2488.00, 
2489.00, 
2490.00, 
2491.00, 
2492.00, 
2493.00, 
2494.00, 
2495.00, 
2496.00, 
2497.00, 
2498.00, 
2499.00, 
2500.00, 
2501.00, 
2502.00, 
2503.00, 
2504.00, 
2505.00, 
2506.00, 
2507.00, 
2508.00, 
2509.00, 
2510.00, 
2511.00, 
2512.00, 
2513.00, 
2514.00, 
2515.00, 
2516.00, 
2517.00, 
2518.00, 
2519.00, 
2520.00, 
2521.00, 
2522.00, 
2523.00, 
2524.00, 
2525.00, 
2526.00, 
2527.00, 
2528.00, 
2529.00, 
2530.00, 
2531.00, 
2532.00, 
2533.00, 
2534.00, 
2535.00, 
2536.00, 
2537.00, 
2538.00, 
2539.00, 
2540.00, 
2541.00, 
2542.00, 
2543.00, 
2544.00, 
2545.00, 
2546.00, 
2547.00, 
2548.00, 
2549.00, 
2550.00, 
2551.00, 
2552.00, 
2553.00, 
2554.00, 
2555.00, 
2556.00, 
2557.00, 
2558.00, 
2559.00, 
2560.00, 
2561.00, 
2562.00, 
2563.00, 
2564.00, 
2565.00, 
2566.00, 
2567.00, 
2568.00, 
2569.00, 
2570.00, 
2571.00, 
2572.00, 
2573.00, 
2574.00, 
2575.00, 
2576.00, 
2577.00, 
2578.00, 
2579.00, 
2580.00, 
2581.00, 
2582.00, 
2583.00, 
2584.00, 
2585.00, 
2586.00, 
2587.00, 
2588.00, 
2589.00, 
2590.00, 
2591.00, 
2592.00, 
2593.00, 
2594.00, 
2595.00, 
2596.00, 
2597.00, 
2598.00, 
2599.00, 
2600.00, 
