"2cP4 - RawData"
"Wavelength nm.","T%"
200.00,0.004
201.00,0.004
202.00,0.004
203.00,0.001
204.00,0.002
205.00,0.001
206.00,0.001
207.00,0.002
208.00,0.004
209.00,0.000
210.00,0.002
211.00,0.001
212.00,0.002
213.00,0.002
214.00,0.004
215.00,-0.000
216.00,0.002
217.00,-0.001
218.00,-0.000
219.00,0.000
220.00,0.001
221.00,0.001
222.00,0.001
223.00,0.001
224.00,0.001
225.00,-0.003
226.00,0.003
227.00,0.001
228.00,0.001
229.00,0.001
230.00,-0.001
231.00,0.003
232.00,-0.000
233.00,-0.000
234.00,0.001
235.00,0.002
236.00,0.001
237.00,0.002
238.00,0.001
239.00,0.000
240.00,0.001
241.00,-0.000
242.00,0.001
243.00,0.000
244.00,0.002
245.00,-0.001
246.00,0.001
247.00,0.001
248.00,0.001
249.00,0.000
250.00,-0.001
251.00,0.001
252.00,-0.002
253.00,0.002
254.00,0.000
255.00,-0.001
256.00,-0.001
257.00,0.000
258.00,-0.001
259.00,-0.000
260.00,-0.000
261.00,-0.001
262.00,-0.000
263.00,0.001
264.00,-0.001
265.00,0.000
266.00,-0.002
267.00,0.000
268.00,-0.001
269.00,0.001
270.00,-0.000
271.00,-0.000
272.00,0.001
273.00,0.001
274.00,-0.000
275.00,0.001
276.00,0.001
277.00,0.001
278.00,-0.000
279.00,0.001
280.00,-0.001
281.00,0.000
282.00,0.001
283.00,0.000
284.00,0.000
285.00,0.001
286.00,-0.001
287.00,0.002
288.00,0.000
289.00,0.001
290.00,0.001
291.00,-0.001
292.00,0.001
293.00,0.002
294.00,-0.001
295.00,0.002
296.00,0.000
297.00,0.001
298.00,0.001
299.00,0.001
300.00,0.001
301.00,0.003
302.00,0.005
303.00,0.007
304.00,0.007
305.00,0.016
306.00,0.028
307.00,0.040
308.00,0.060
309.00,0.092
310.00,0.133
311.00,0.179
312.00,0.233
313.00,0.327
314.00,0.433
315.00,0.565
316.00,0.730
317.00,0.917
318.00,1.128
319.00,1.379
320.00,1.692
321.00,2.012
322.00,2.388
323.00,2.817
324.00,3.273
325.00,3.724
326.00,4.183
327.00,4.718
328.00,5.282
329.00,5.813
330.00,6.391
331.00,7.001
332.00,7.613
333.00,8.274
334.00,8.839
335.00,9.479
336.00,10.133
337.00,10.732
338.00,11.341
339.00,11.831
340.00,12.502
341.00,13.039
342.00,13.599
343.00,14.102
344.00,14.571
345.00,15.049
346.00,15.470
347.00,15.867
348.00,16.284
349.00,16.654
350.00,17.004
351.00,17.356
352.00,17.646
353.00,17.949
354.00,18.181
355.00,18.419
356.00,18.660
357.00,18.897
358.00,19.119
359.00,19.321
360.00,19.450
361.00,19.618
362.00,19.756
363.00,19.898
364.00,20.034
365.00,20.109
366.00,20.219
367.00,20.272
368.00,20.339
369.00,20.378
370.00,20.417
371.00,20.479
372.00,20.472
373.00,20.470
374.00,20.465
375.00,20.426
376.00,20.401
377.00,20.380
378.00,20.338
379.00,20.246
380.00,20.226
381.00,20.219
382.00,20.232
383.00,20.233
384.00,20.249
385.00,20.290
386.00,20.271
387.00,20.339
388.00,20.344
389.00,20.384
390.00,20.413
391.00,20.433
392.00,20.449
393.00,20.474
394.00,20.482
395.00,20.479
396.00,20.484
397.00,20.486
398.00,20.481
399.00,20.507
400.00,20.493
401.00,20.501
402.00,20.483
403.00,20.475
404.00,20.479
405.00,20.466
406.00,20.504
407.00,20.457
408.00,20.430
409.00,20.406
410.00,20.378
411.00,20.395
412.00,20.347
413.00,20.388
414.00,20.358
415.00,20.395
416.00,20.439
417.00,20.456
418.00,20.479
419.00,20.492
420.00,20.520
421.00,20.595
422.00,20.610
423.00,20.648
424.00,20.678
425.00,20.711
426.00,20.764
427.00,20.817
428.00,20.858
429.00,20.925
430.00,21.026
431.00,20.979
432.00,21.046
433.00,21.087
434.00,21.097
435.00,21.232
436.00,21.306
437.00,21.373
438.00,21.434
439.00,21.521
440.00,21.616
441.00,21.677
442.00,21.773
443.00,21.847
444.00,21.965
445.00,22.009
446.00,22.126
447.00,22.245
448.00,22.336
449.00,22.444
450.00,22.567
451.00,22.679
452.00,22.764
453.00,22.857
454.00,23.007
455.00,23.100
456.00,23.220
457.00,23.338
458.00,23.476
459.00,23.592
460.00,23.700
461.00,23.830
462.00,23.964
463.00,24.104
464.00,24.226
465.00,24.357
466.00,24.461
467.00,24.608
468.00,24.763
469.00,24.880
470.00,24.984
471.00,25.073
472.00,25.203
473.00,25.287
474.00,25.399
475.00,25.537
476.00,25.656
477.00,25.766
478.00,25.902
479.00,26.049
480.00,26.191
481.00,26.336
482.00,26.496
483.00,26.628
484.00,26.786
485.00,26.955
486.00,27.101
487.00,27.287
488.00,27.428
489.00,27.598
490.00,27.761
491.00,27.877
492.00,28.059
493.00,28.167
494.00,28.220
495.00,28.360
496.00,28.507
497.00,28.670
498.00,28.810
499.00,28.928
500.00,29.019
501.00,29.179
502.00,29.311
503.00,29.466
504.00,29.574
505.00,29.706
506.00,29.798
507.00,29.936
508.00,30.040
509.00,30.188
510.00,30.331
511.00,30.476
512.00,30.573
513.00,30.707
514.00,30.913
515.00,30.941
516.00,31.043
517.00,31.180
518.00,31.325
519.00,31.363
520.00,31.467
521.00,31.578
522.00,31.619
523.00,31.731
524.00,31.786
525.00,31.898
526.00,32.031
527.00,32.124
528.00,32.218
529.00,32.324
530.00,32.405
531.00,32.540
532.00,32.625
533.00,32.709
534.00,32.822
535.00,32.886
536.00,32.907
537.00,33.105
538.00,33.184
539.00,33.251
540.00,33.342
541.00,33.408
542.00,33.414
543.00,33.525
544.00,33.613
545.00,33.636
546.00,33.728
547.00,33.743
548.00,33.783
549.00,33.980
550.00,34.063
551.00,34.150
552.00,34.247
553.00,34.279
554.00,34.364
555.00,34.415
556.00,34.483
557.00,34.556
558.00,34.623
559.00,34.675
560.00,34.736
561.00,34.775
562.00,34.847
563.00,34.845
564.00,34.937
565.00,35.000
566.00,35.007
567.00,35.030
568.00,35.044
569.00,35.096
570.00,35.065
571.00,35.177
572.00,35.290
573.00,35.177
574.00,35.306
575.00,35.280
576.00,35.257
577.00,35.436
578.00,35.488
579.00,35.602
580.00,35.616
581.00,35.682
582.00,35.822
583.00,35.896
584.00,35.958
585.00,36.022
586.00,36.081
587.00,36.110
588.00,36.141
589.00,36.188
590.00,36.261
591.00,36.262
592.00,36.250
593.00,36.319
594.00,36.380
595.00,36.382
596.00,36.456
597.00,36.425
598.00,36.630
599.00,36.697
600.00,36.768
601.00,36.825
602.00,36.852
603.00,36.861
604.00,36.916
605.00,36.979
606.00,37.075
607.00,37.115
608.00,37.193
609.00,37.204
610.00,37.221
611.00,37.246
612.00,37.258
613.00,37.344
614.00,37.409
615.00,37.453
616.00,37.579
617.00,37.560
618.00,37.647
619.00,37.708
620.00,37.727
621.00,37.749
622.00,37.807
623.00,37.912
624.00,38.037
625.00,38.097
626.00,38.147
627.00,38.213
628.00,38.287
629.00,38.321
630.00,38.365
631.00,38.448
632.00,38.539
633.00,38.617
634.00,38.685
635.00,38.824
636.00,38.903
637.00,38.942
638.00,38.997
639.00,39.122
640.00,39.182
641.00,39.224
642.00,39.335
643.00,39.411
644.00,39.487
645.00,39.557
646.00,39.718
647.00,39.786
648.00,39.758
649.00,39.983
650.00,40.001
651.00,40.016
652.00,40.171
653.00,40.177
654.00,40.263
655.00,40.490
656.00,40.596
657.00,40.888
658.00,40.906
659.00,40.876
660.00,40.940
661.00,41.039
662.00,41.262
663.00,41.301
664.00,41.360
665.00,41.450
666.00,41.563
667.00,41.709
668.00,41.751
669.00,41.870
670.00,41.947
671.00,41.949
672.00,42.143
673.00,42.232
674.00,42.494
675.00,42.466
676.00,42.623
677.00,42.691
678.00,42.724
679.00,42.866
680.00,42.952
681.00,43.063
682.00,43.110
683.00,43.312
684.00,43.395
685.00,43.436
686.00,43.476
687.00,43.653
688.00,43.813
689.00,43.806
690.00,44.004
691.00,44.097
692.00,44.023
693.00,44.203
694.00,44.285
695.00,44.508
696.00,44.523
697.00,44.561
698.00,44.816
699.00,44.917
700.00,44.965
701.00,45.002
702.00,45.160
703.00,45.371
704.00,45.296
705.00,45.395
706.00,45.575
707.00,45.710
708.00,45.551
709.00,45.807
710.00,46.016
711.00,45.868
712.00,45.935
713.00,46.013
714.00,45.954
715.00,46.031
716.00,46.265
717.00,46.383
718.00,46.491
719.00,46.543
720.00,46.623
721.00,50.706
722.00,50.762
723.00,50.745
724.00,50.838
725.00,50.799
726.00,50.952
727.00,50.837
728.00,50.962
729.00,51.012
730.00,51.024
731.00,51.093
732.00,51.081
733.00,51.078
734.00,51.129
735.00,51.228
736.00,51.194
737.00,51.273
738.00,51.337
739.00,51.355
740.00,51.423
741.00,51.420
742.00,51.478
743.00,51.522
744.00,51.497
745.00,51.551
746.00,51.529
747.00,51.551
748.00,51.507
749.00,51.540
750.00,51.595
751.00,51.577
752.00,51.634
753.00,51.678
754.00,51.675
755.00,51.648
756.00,51.737
757.00,51.728
758.00,51.758
759.00,51.775
760.00,51.774
761.00,51.850
762.00,51.787
763.00,51.761
764.00,51.897
765.00,51.857
766.00,51.882
767.00,51.873
768.00,51.935
769.00,51.903
770.00,51.945
771.00,51.994
772.00,51.968
773.00,51.979
774.00,52.012
775.00,52.007
776.00,51.995
777.00,51.996
778.00,52.042
779.00,52.065
780.00,52.050
781.00,52.058
782.00,52.132
783.00,52.032
784.00,52.124
785.00,52.061
786.00,52.056
787.00,52.181
788.00,52.069
789.00,52.086
790.00,52.008
791.00,52.050
792.00,52.055
793.00,51.999
794.00,52.146
795.00,52.018
796.00,51.971
797.00,51.993
798.00,52.012
799.00,52.026
800.00,51.967
801.00,52.044
802.00,51.980
803.00,51.974
804.00,51.995
805.00,51.963
806.00,51.925
807.00,51.957
808.00,51.907
809.00,51.930
810.00,51.885
811.00,51.887
812.00,51.945
813.00,51.888
814.00,51.880
815.00,51.924
816.00,51.903
817.00,51.851
818.00,51.824
819.00,51.838
820.00,51.856
821.00,51.758
822.00,51.703
823.00,51.717
824.00,51.755
825.00,51.705
826.00,51.869
827.00,51.806
828.00,51.722
829.00,51.746
830.00,51.760
831.00,53.911
832.00,53.880
833.00,53.872
834.00,53.861
835.00,53.819
836.00,53.824
837.00,53.790
838.00,53.775
839.00,53.782
840.00,53.715
841.00,53.721
842.00,53.723
843.00,53.722
844.00,53.708
845.00,53.674
846.00,53.685
847.00,53.660
848.00,53.625
849.00,53.591
850.00,53.588
851.00,53.542
852.00,53.531
853.00,53.491
854.00,53.463
855.00,53.376
856.00,53.388
857.00,53.391
858.00,53.365
859.00,53.292
860.00,53.359
861.00,53.303
862.00,53.280
863.00,53.292
864.00,53.246
865.00,53.287
866.00,53.226
867.00,53.238
868.00,53.224
869.00,53.202
870.00,53.209
871.00,53.224
872.00,53.202
873.00,53.188
874.00,53.180
875.00,53.169
876.00,53.142
877.00,53.129
878.00,53.119
879.00,53.127
880.00,53.109
881.00,53.051
882.00,53.083
883.00,53.062
884.00,53.015
885.00,52.997
886.00,52.970
887.00,52.991
888.00,52.965
889.00,52.919
890.00,52.917
891.00,52.883
892.00,52.873
893.00,52.857
894.00,52.848
895.00,52.812
896.00,52.813
897.00,52.764
898.00,52.732
899.00,52.781
900.00,52.746
901.00,52.765
902.00,52.754
903.00,52.708
904.00,52.747
905.00,52.608
906.00,52.682
907.00,52.656
908.00,52.636
909.00,52.616
910.00,52.594
911.00,52.574
912.00,52.580
913.00,52.511
914.00,52.526
915.00,52.480
916.00,52.480
917.00,52.446
918.00,52.426
919.00,52.387
920.00,52.367
921.00,52.340
922.00,52.347
923.00,52.339
924.00,52.309
925.00,52.292
926.00,52.298
927.00,52.270
928.00,52.251
929.00,52.263
930.00,52.203
931.00,52.207
932.00,52.160
933.00,52.187
934.00,52.159
935.00,52.128
936.00,52.095
937.00,52.101
938.00,52.067
939.00,52.068
940.00,52.044
941.00,52.042
942.00,51.998
943.00,51.997
944.00,51.938
945.00,51.951
946.00,52.053
947.00,51.910
948.00,51.884
949.00,51.885
950.00,51.867
951.00,51.829
952.00,51.812
953.00,51.774
954.00,51.763
955.00,51.726
956.00,51.713
957.00,51.672
958.00,51.697
959.00,51.643
960.00,51.643
961.00,51.710
962.00,51.619
963.00,51.576
964.00,51.560
965.00,51.547
966.00,51.550
967.00,51.536
968.00,51.524
969.00,51.565
970.00,51.500
971.00,51.524
972.00,51.504
973.00,51.537
974.00,51.539
975.00,51.508
976.00,51.531
977.00,51.520
978.00,51.545
979.00,51.495
980.00,51.546
981.00,51.534
982.00,51.494
983.00,51.513
984.00,51.493
985.00,51.495
986.00,51.476
987.00,51.473
988.00,51.454
989.00,51.451
990.00,51.450
991.00,51.425
992.00,51.447
993.00,51.403
994.00,51.415
995.00,51.394
996.00,51.376
997.00,51.371
998.00,51.319
999.00,51.373
1000.00,51.303
1001.00,51.315
1002.00,51.311
1003.00,51.302
1004.00,51.274
1005.00,51.249
1006.00,51.271
1007.00,51.231
1008.00,51.228
1009.00,51.194
1010.00,51.194
1011.00,51.193
1012.00,51.147
1013.00,51.177
1014.00,51.128
1015.00,51.134
1016.00,51.091
1017.00,51.091
1018.00,51.093
1019.00,51.061
1020.00,51.055
1021.00,51.036
1022.00,51.047
1023.00,50.981
1024.00,50.999
1025.00,50.988
1026.00,50.971
1027.00,50.957
1028.00,50.942
1029.00,50.921
1030.00,50.885
1031.00,50.883
1032.00,50.864
1033.00,50.857
1034.00,50.820
1035.00,50.797
1036.00,50.789
1037.00,50.751
1038.00,50.757
1039.00,50.717
1040.00,50.718
1041.00,50.675
1042.00,50.669
1043.00,50.645
1044.00,50.668
1045.00,50.652
1046.00,50.654
1047.00,50.677
1048.00,50.667
1049.00,50.685
1050.00,50.693
1051.00,50.706
1052.00,50.713
1053.00,50.722
1054.00,50.712
1055.00,50.746
1056.00,50.738
1057.00,50.749
1058.00,50.736
1059.00,50.722
1060.00,50.764
1061.00,50.730
1062.00,50.702
1063.00,50.716
1064.00,50.703
1065.00,50.702
1066.00,50.687
1067.00,50.664
1068.00,50.687
1069.00,50.658
1070.00,50.634
1071.00,50.642
1072.00,50.652
1073.00,50.610
1074.00,50.632
1075.00,50.604
1076.00,50.608
1077.00,50.592
1078.00,50.578
1079.00,50.571
1080.00,50.576
1081.00,50.542
1082.00,50.547
1083.00,50.534
1084.00,50.516
1085.00,50.524
1086.00,50.506
1087.00,50.496
1088.00,50.490
1089.00,50.467
1090.00,50.482
1091.00,50.471
1092.00,50.445
1093.00,50.436
1094.00,50.418
1095.00,50.405
1096.00,50.407
1097.00,50.397
1098.00,50.391
1099.00,50.377
1100.00,50.366
1101.00,50.381
1102.00,50.355
1103.00,50.343
1104.00,50.354
1105.00,50.322
1106.00,50.308
1107.00,50.333
1108.00,50.284
1109.00,50.288
1110.00,50.272
1111.00,50.265
1112.00,50.259
1113.00,50.248
1114.00,50.240
1115.00,50.240
1116.00,50.232
1117.00,50.207
1118.00,50.219
1119.00,50.196
1120.00,50.206
1121.00,50.216
1122.00,50.206
1123.00,50.192
1124.00,50.183
1125.00,50.166
1126.00,50.170
1127.00,50.172
1128.00,50.146
1129.00,50.124
1130.00,50.112
1131.00,50.109
1132.00,50.102
1133.00,50.085
1134.00,50.099
1135.00,50.102
1136.00,50.074
1137.00,50.097
1138.00,50.078
1139.00,50.067
1140.00,50.067
1141.00,50.055
1142.00,50.058
1143.00,50.077
1144.00,50.043
1145.00,50.041
1146.00,50.054
1147.00,50.033
1148.00,50.038
1149.00,50.041
1150.00,50.026
1151.00,50.036
1152.00,49.999
1153.00,50.001
1154.00,49.990
1155.00,49.988
1156.00,49.985
1157.00,49.993
1158.00,49.979
1159.00,49.979
1160.00,49.975
1161.00,49.975
1162.00,49.968
1163.00,49.969
1164.00,49.960
1165.00,49.955
1166.00,49.946
1167.00,49.954
1168.00,49.987
1169.00,49.946
1170.00,49.971
1171.00,49.942
1172.00,49.955
1173.00,49.954
1174.00,49.944
1175.00,49.956
1176.00,49.953
1177.00,49.943
1178.00,49.943
1179.00,49.952
1180.00,49.926
1181.00,49.947
1182.00,49.919
1183.00,49.909
1184.00,49.897
1185.00,49.896
1186.00,49.896
1187.00,49.913
1188.00,49.902
1189.00,49.906
1190.00,49.905
1191.00,49.893
1192.00,49.916
1193.00,49.902
1194.00,49.899
1195.00,49.886
1196.00,49.911
1197.00,49.904
1198.00,49.897
1199.00,49.896
1200.00,49.899
1201.00,49.911
1202.00,49.878
1203.00,49.902
1204.00,49.882
1205.00,49.892
1206.00,49.885
1207.00,49.880
1208.00,49.883
1209.00,49.869
1210.00,49.872
1211.00,49.856
1212.00,49.880
1213.00,49.839
1214.00,49.868
1215.00,49.858
1216.00,49.852
1217.00,49.880
1218.00,49.846
1219.00,49.870
1220.00,49.854
1221.00,49.875
1222.00,49.868
1223.00,49.885
1224.00,49.876
1225.00,49.855
1226.00,49.871
1227.00,49.853
1228.00,49.880
1229.00,49.880
1230.00,49.904
1231.00,49.891
1232.00,49.898
1233.00,49.917
1234.00,49.917
1235.00,49.910
1236.00,49.915
1237.00,49.923
1238.00,49.908
1239.00,49.923
1240.00,49.918
1241.00,49.929
1242.00,49.922
1243.00,49.919
1244.00,49.914
1245.00,49.941
1246.00,49.922
1247.00,49.936
1248.00,49.934
1249.00,49.921
1250.00,49.946
1251.00,49.918
1252.00,49.953
1253.00,49.930
1254.00,49.942
1255.00,49.939
1256.00,49.921
1257.00,49.894
1258.00,49.949
1259.00,49.940
1260.00,49.956
1261.00,49.957
1262.00,49.948
1263.00,49.956
1264.00,49.960
1265.00,49.947
1266.00,49.956
1267.00,49.963
1268.00,49.971
1269.00,49.986
1270.00,49.996
1271.00,49.977
1272.00,49.993
1273.00,50.002
1274.00,49.995
1275.00,50.002
1276.00,49.993
1277.00,50.007
1278.00,50.025
1279.00,50.016
1280.00,50.026
1281.00,50.028
1282.00,50.029
1283.00,50.014
1284.00,50.027
1285.00,50.021
1286.00,50.032
1287.00,50.023
1288.00,50.033
1289.00,50.029
1290.00,50.049
1291.00,50.059
1292.00,50.052
1293.00,50.054
1294.00,50.097
1295.00,50.077
1296.00,50.074
1297.00,50.080
1298.00,50.093
1299.00,50.088
1300.00,50.100
1301.00,50.097
1302.00,50.097
1303.00,50.115
1304.00,50.095
1305.00,50.138
1306.00,50.121
1307.00,50.157
1308.00,50.139
1309.00,50.142
1310.00,50.146
1311.00,50.148
1312.00,50.132
1313.00,50.146
1314.00,50.153
1315.00,50.154
1316.00,50.159
1317.00,50.182
1318.00,50.200
1319.00,50.194
1320.00,50.211
1321.00,50.366
1322.00,50.383
1323.00,50.347
1324.00,50.373
1325.00,50.343
1326.00,50.358
1327.00,50.340
1328.00,50.346
1329.00,50.347
1330.00,50.359
1331.00,50.350
1332.00,50.353
1333.00,50.358
1334.00,50.373
1335.00,50.387
1336.00,50.417
1337.00,50.427
1338.00,50.499
1339.00,50.540
1340.00,50.587
1341.00,50.660
1342.00,50.734
1343.00,50.772
1344.00,50.824
1345.00,50.877
1346.00,50.943
1347.00,51.031
1348.00,50.952
1349.00,50.982
1350.00,51.006
1351.00,51.006
1352.00,51.018
1353.00,51.009
1354.00,51.025
1355.00,51.000
1356.00,51.028
1357.00,51.033
1358.00,51.056
1359.00,51.066
1360.00,51.128
1361.00,51.048
1362.00,50.998
1363.00,51.143
1364.00,51.088
1365.00,51.066
1366.00,51.153
1367.00,51.046
1368.00,51.012
1369.00,51.064
1370.00,51.062
1371.00,50.981
1372.00,51.023
1373.00,51.006
1374.00,51.012
1375.00,51.021
1376.00,51.055
1377.00,50.887
1378.00,51.065
1379.00,51.030
1380.00,51.031
1381.00,51.038
1382.00,51.020
1383.00,51.010
1384.00,50.968
1385.00,50.971
1386.00,51.033
1387.00,50.992
1388.00,50.965
1389.00,50.989
1390.00,51.063
1391.00,50.981
1392.00,50.997
1393.00,50.992
1394.00,51.012
1395.00,50.998
1396.00,50.960
1397.00,50.963
1398.00,51.066
1399.00,51.058
1400.00,50.975
1401.00,50.988
1402.00,51.085
1403.00,51.037
1404.00,51.034
1405.00,51.057
1406.00,51.032
1407.00,51.062
1408.00,51.109
1409.00,51.040
1410.00,51.090
1411.00,51.065
1412.00,51.112
1413.00,51.086
1414.00,51.105
1415.00,51.132
1416.00,51.119
1417.00,51.145
1418.00,51.130
1419.00,51.135
1420.00,51.163
1421.00,51.196
1422.00,51.200
1423.00,51.210
1424.00,51.214
1425.00,51.233
1426.00,51.228
1427.00,51.266
1428.00,51.249
1429.00,51.265
1430.00,51.263
1431.00,51.288
1432.00,51.302
1433.00,51.320
1434.00,51.312
1435.00,51.365
1436.00,51.369
1437.00,51.371
1438.00,51.379
1439.00,51.417
1440.00,51.455
1441.00,51.448
1442.00,51.453
1443.00,51.486
1444.00,51.476
1445.00,51.476
1446.00,51.497
1447.00,51.517
1448.00,51.545
1449.00,51.557
1450.00,51.550
1451.00,51.583
1452.00,51.579
1453.00,51.592
1454.00,51.618
1455.00,51.633
1456.00,51.657
1457.00,51.655
1458.00,51.686
1459.00,51.705
1460.00,51.734
1461.00,51.719
1462.00,51.731
1463.00,51.759
1464.00,51.767
1465.00,51.780
1466.00,51.774
1467.00,51.802
1468.00,51.843
1469.00,51.820
1470.00,51.855
1471.00,51.864
1472.00,51.872
1473.00,51.877
1474.00,51.918
1475.00,51.913
1476.00,51.924
1477.00,51.920
1478.00,51.951
1479.00,51.959
1480.00,51.946
1481.00,51.972
1482.00,52.004
1483.00,52.003
1484.00,52.013
1485.00,52.032
1486.00,52.027
1487.00,52.052
1488.00,52.071
1489.00,52.064
1490.00,52.094
1491.00,52.090
1492.00,52.111
1493.00,52.110
1494.00,52.125
1495.00,52.126
1496.00,52.137
1497.00,52.144
1498.00,52.152
1499.00,52.159
1500.00,52.175
1501.00, 
1502.00, 
1503.00, 
1504.00, 
1505.00, 
1506.00, 
1507.00, 
1508.00, 
1509.00, 
1510.00, 
1511.00, 
1512.00, 
1513.00, 
1514.00, 
1515.00, 
1516.00, 
1517.00, 
1518.00, 
1519.00, 
1520.00, 
1521.00, 
1522.00, 
1523.00, 
1524.00, 
1525.00, 
1526.00, 
1527.00, 
1528.00, 
1529.00, 
1530.00, 
1531.00, 
1532.00, 
1533.00, 
1534.00, 
1535.00, 
1536.00, 
1537.00, 
1538.00, 
1539.00, 
1540.00, 
1541.00, 
1542.00, 
1543.00, 
1544.00, 
1545.00, 
1546.00, 
1547.00, 
1548.00, 
1549.00, 
1550.00, 
1551.00, 
1552.00, 
1553.00, 
1554.00, 
1555.00, 
1556.00, 
1557.00, 
1558.00, 
1559.00, 
1560.00, 
1561.00, 
1562.00, 
1563.00, 
1564.00, 
1565.00, 
1566.00, 
1567.00, 
1568.00, 
1569.00, 
1570.00, 
1571.00, 
1572.00, 
1573.00, 
1574.00, 
1575.00, 
1576.00, 
1577.00, 
1578.00, 
1579.00, 
1580.00, 
1581.00, 
1582.00, 
1583.00, 
1584.00, 
1585.00, 
1586.00, 
1587.00, 
1588.00, 
1589.00, 
1590.00, 
1591.00, 
1592.00, 
1593.00, 
1594.00, 
1595.00, 
1596.00, 
1597.00, 
1598.00, 
1599.00, 
1600.00, 
1601.00, 
1602.00, 
1603.00, 
1604.00, 
1605.00, 
1606.00, 
1607.00, 
1608.00, 
1609.00, 
1610.00, 
1611.00, 
1612.00, 
1613.00, 
1614.00, 
1615.00, 
1616.00, 
1617.00, 
1618.00, 
1619.00, 
1620.00, 
1621.00, 
1622.00, 
1623.00, 
1624.00, 
1625.00, 
1626.00, 
1627.00, 
1628.00, 
1629.00, 
1630.00, 
1631.00, 
1632.00, 
1633.00, 
1634.00, 
1635.00, 
1636.00, 
1637.00, 
1638.00, 
1639.00, 
1640.00, 
1641.00, 
1642.00, 
1643.00, 
1644.00, 
1645.00, 
1646.00, 
1647.00, 
1648.00, 
1649.00, 
1650.00, 
1651.00, 
1652.00, 
1653.00, 
1654.00, 
1655.00, 
1656.00, 
1657.00, 
1658.00, 
1659.00, 
1660.00, 
1661.00, 
1662.00, 
1663.00, 
1664.00, 
1665.00, 
1666.00, 
1667.00, 
1668.00, 
1669.00, 
1670.00, 
1671.00, 
1672.00, 
1673.00, 
1674.00, 
1675.00, 
1676.00, 
1677.00, 
1678.00, 
1679.00, 
1680.00, 
1681.00, 
1682.00, 
1683.00, 
1684.00, 
1685.00, 
1686.00, 
1687.00, 
1688.00, 
1689.00, 
1690.00, 
1691.00, 
1692.00, 
1693.00, 
1694.00, 
1695.00, 
1696.00, 
1697.00, 
1698.00, 
1699.00, 
1700.00, 
1701.00, 
1702.00, 
1703.00, 
1704.00, 
1705.00, 
1706.00, 
1707.00, 
1708.00, 
1709.00, 
1710.00, 
1711.00, 
1712.00, 
1713.00, 
1714.00, 
1715.00, 
1716.00, 
1717.00, 
1718.00, 
1719.00, 
1720.00, 
1721.00, 
1722.00, 
1723.00, 
1724.00, 
1725.00, 
1726.00, 
1727.00, 
1728.00, 
1729.00, 
1730.00, 
1731.00, 
1732.00, 
1733.00, 
1734.00, 
1735.00, 
1736.00, 
1737.00, 
1738.00, 
1739.00, 
1740.00, 
1741.00, 
1742.00, 
1743.00, 
1744.00, 
1745.00, 
1746.00, 
1747.00, 
1748.00, 
1749.00, 
1750.00, 
1751.00, 
1752.00, 
1753.00, 
1754.00, 
1755.00, 
1756.00, 
1757.00, 
1758.00, 
1759.00, 
1760.00, 
1761.00, 
1762.00, 
1763.00, 
1764.00, 
1765.00, 
1766.00, 
1767.00, 
1768.00, 
1769.00, 
1770.00, 
1771.00, 
1772.00, 
1773.00, 
1774.00, 
1775.00, 
1776.00, 
1777.00, 
1778.00, 
1779.00, 
1780.00, 
1781.00, 
1782.00, 
1783.00, 
1784.00, 
1785.00, 
1786.00, 
1787.00, 
1788.00, 
1789.00, 
1790.00, 
1791.00, 
1792.00, 
1793.00, 
1794.00, 
1795.00, 
1796.00, 
1797.00, 
1798.00, 
1799.00, 
1800.00, 
1801.00, 
1802.00, 
1803.00, 
1804.00, 
1805.00, 
1806.00, 
1807.00, 
1808.00, 
1809.00, 
1810.00, 
1811.00, 
1812.00, 
1813.00, 
1814.00, 
1815.00, 
1816.00, 
1817.00, 
1818.00, 
1819.00, 
1820.00, 
1821.00, 
1822.00, 
1823.00, 
1824.00, 
1825.00, 
1826.00, 
1827.00, 
1828.00, 
1829.00, 
1830.00, 
1831.00, 
1832.00, 
1833.00, 
1834.00, 
1835.00, 
1836.00, 
1837.00, 
1838.00, 
1839.00, 
1840.00, 
1841.00, 
1842.00, 
1843.00, 
1844.00, 
1845.00, 
1846.00, 
1847.00, 
1848.00, 
1849.00, 
1850.00, 
1851.00, 
1852.00, 
1853.00, 
1854.00, 
1855.00, 
1856.00, 
1857.00, 
1858.00, 
1859.00, 
1860.00, 
1861.00, 
1862.00, 
1863.00, 
1864.00, 
1865.00, 
1866.00, 
1867.00, 
1868.00, 
1869.00, 
1870.00, 
1871.00, 
1872.00, 
1873.00, 
1874.00, 
1875.00, 
1876.00, 
1877.00, 
1878.00, 
1879.00, 
1880.00, 
1881.00, 
1882.00, 
1883.00, 
1884.00, 
1885.00, 
1886.00, 
1887.00, 
1888.00, 
1889.00, 
1890.00, 
1891.00, 
1892.00, 
1893.00, 
1894.00, 
1895.00, 
1896.00, 
1897.00, 
1898.00, 
1899.00, 
1900.00, 
1901.00, 
1902.00, 
1903.00, 
1904.00, 
1905.00, 
1906.00, 
1907.00, 
1908.00, 
1909.00, 
1910.00, 
1911.00, 
1912.00, 
1913.00, 
1914.00, 
1915.00, 
1916.00, 
1917.00, 
1918.00, 
1919.00, 
1920.00, 
1921.00, 
1922.00, 
1923.00, 
1924.00, 
1925.00, 
1926.00, 
1927.00, 
1928.00, 
1929.00, 
1930.00, 
1931.00, 
1932.00, 
1933.00, 
1934.00, 
1935.00, 
1936.00, 
1937.00, 
1938.00, 
1939.00, 
1940.00, 
1941.00, 
1942.00, 
1943.00, 
1944.00, 
1945.00, 
1946.00, 
1947.00, 
1948.00, 
1949.00, 
1950.00, 
1951.00, 
1952.00, 
1953.00, 
1954.00, 
1955.00, 
1956.00, 
1957.00, 
1958.00, 
1959.00, 
1960.00, 
1961.00, 
1962.00, 
1963.00, 
1964.00, 
1965.00, 
1966.00, 
1967.00, 
1968.00, 
1969.00, 
1970.00, 
1971.00, 
1972.00, 
1973.00, 
1974.00, 
1975.00, 
1976.00, 
1977.00, 
1978.00, 
1979.00, 
1980.00, 
1981.00, 
1982.00, 
1983.00, 
1984.00, 
1985.00, 
1986.00, 
1987.00, 
1988.00, 
1989.00, 
1990.00, 
1991.00, 
1992.00, 
1993.00, 
1994.00, 
1995.00, 
1996.00, 
1997.00, 
1998.00, 
1999.00, 
2000.00, 
2001.00, 
2002.00, 
2003.00, 
2004.00, 
2005.00, 
2006.00, 
2007.00, 
2008.00, 
2009.00, 
2010.00, 
2011.00, 
2012.00, 
2013.00, 
2014.00, 
2015.00, 
2016.00, 
2017.00, 
2018.00, 
2019.00, 
2020.00, 
2021.00, 
2022.00, 
2023.00, 
2024.00, 
2025.00, 
2026.00, 
2027.00, 
2028.00, 
2029.00, 
2030.00, 
2031.00, 
2032.00, 
2033.00, 
2034.00, 
2035.00, 
2036.00, 
2037.00, 
2038.00, 
2039.00, 
2040.00, 
2041.00, 
2042.00, 
2043.00, 
2044.00, 
2045.00, 
2046.00, 
2047.00, 
2048.00, 
2049.00, 
2050.00, 
2051.00, 
2052.00, 
2053.00, 
2054.00, 
2055.00, 
2056.00, 
2057.00, 
2058.00, 
2059.00, 
2060.00, 
2061.00, 
2062.00, 
2063.00, 
2064.00, 
2065.00, 
2066.00, 
2067.00, 
2068.00, 
2069.00, 
2070.00, 
2071.00, 
2072.00, 
2073.00, 
2074.00, 
2075.00, 
2076.00, 
2077.00, 
2078.00, 
2079.00, 
2080.00, 
2081.00, 
2082.00, 
2083.00, 
2084.00, 
2085.00, 
2086.00, 
2087.00, 
2088.00, 
2089.00, 
2090.00, 
2091.00, 
2092.00, 
2093.00, 
2094.00, 
2095.00, 
2096.00, 
2097.00, 
2098.00, 
2099.00, 
2100.00, 
2101.00, 
2102.00, 
2103.00, 
2104.00, 
2105.00, 
2106.00, 
2107.00, 
2108.00, 
2109.00, 
2110.00, 
2111.00, 
2112.00, 
2113.00, 
2114.00, 
2115.00, 
2116.00, 
2117.00, 
2118.00, 
2119.00, 
2120.00, 
2121.00, 
2122.00, 
2123.00, 
2124.00, 
2125.00, 
2126.00, 
2127.00, 
2128.00, 
2129.00, 
2130.00, 
2131.00, 
2132.00, 
2133.00, 
2134.00, 
2135.00, 
2136.00, 
2137.00, 
2138.00, 
2139.00, 
2140.00, 
2141.00, 
2142.00, 
2143.00, 
2144.00, 
2145.00, 
2146.00, 
2147.00, 
2148.00, 
2149.00, 
2150.00, 
2151.00, 
2152.00, 
2153.00, 
2154.00, 
2155.00, 
2156.00, 
2157.00, 
2158.00, 
2159.00, 
2160.00, 
2161.00, 
2162.00, 
2163.00, 
2164.00, 
2165.00, 
2166.00, 
2167.00, 
2168.00, 
2169.00, 
2170.00, 
2171.00, 
2172.00, 
2173.00, 
2174.00, 
2175.00, 
2176.00, 
2177.00, 
2178.00, 
2179.00, 
2180.00, 
2181.00, 
2182.00, 
2183.00, 
2184.00, 
2185.00, 
2186.00, 
2187.00, 
2188.00, 
2189.00, 
2190.00, 
2191.00, 
2192.00, 
2193.00, 
2194.00, 
2195.00, 
2196.00, 
2197.00, 
2198.00, 
2199.00, 
2200.00, 
2201.00, 
2202.00, 
2203.00, 
2204.00, 
2205.00, 
2206.00, 
2207.00, 
2208.00, 
2209.00, 
2210.00, 
2211.00, 
2212.00, 
2213.00, 
2214.00, 
2215.00, 
2216.00, 
2217.00, 
2218.00, 
2219.00, 
2220.00, 
2221.00, 
2222.00, 
2223.00, 
2224.00, 
2225.00, 
2226.00, 
2227.00, 
2228.00, 
2229.00, 
2230.00, 
2231.00, 
2232.00, 
2233.00, 
2234.00, 
2235.00, 
2236.00, 
2237.00, 
2238.00, 
2239.00, 
2240.00, 
2241.00, 
2242.00, 
2243.00, 
2244.00, 
2245.00, 
2246.00, 
2247.00, 
2248.00, 
2249.00, 
2250.00, 
2251.00, 
2252.00, 
2253.00, 
2254.00, 
2255.00, 
2256.00, 
2257.00, 
2258.00, 
2259.00, 
2260.00, 
2261.00, 
2262.00, 
2263.00, 
2264.00, 
2265.00, 
2266.00, 
2267.00, 
2268.00, 
2269.00, 
2270.00, 
2271.00, 
2272.00, 
2273.00, 
2274.00, 
2275.00, 
2276.00, 
2277.00, 
2278.00, 
2279.00, 
2280.00, 
2281.00, 
2282.00, 
2283.00, 
2284.00, 
2285.00, 
2286.00, 
2287.00, 
2288.00, 
2289.00, 
2290.00, 
2291.00, 
2292.00, 
2293.00, 
2294.00, 
2295.00, 
2296.00, 
2297.00, 
2298.00, 
2299.00, 
2300.00, 
2301.00, 
2302.00, 
2303.00, 
2304.00, 
2305.00, 
2306.00, 
2307.00, 
2308.00, 
2309.00, 
2310.00, 
2311.00, 
2312.00, 
2313.00, 
2314.00, 
2315.00, 
2316.00, 
2317.00, 
2318.00, 
2319.00, 
2320.00, 
2321.00, 
2322.00, 
2323.00, 
2324.00, 
2325.00, 
2326.00, 
2327.00, 
2328.00, 
2329.00, 
2330.00, 
2331.00, 
2332.00, 
2333.00, 
2334.00, 
2335.00, 
2336.00, 
2337.00, 
2338.00, 
2339.00, 
2340.00, 
2341.00, 
2342.00, 
2343.00, 
2344.00, 
2345.00, 
2346.00, 
2347.00, 
2348.00, 
2349.00, 
2350.00, 
2351.00, 
2352.00, 
2353.00, 
2354.00, 
2355.00, 
2356.00, 
2357.00, 
2358.00, 
2359.00, 
2360.00, 
2361.00, 
2362.00, 
2363.00, 
2364.00, 
2365.00, 
2366.00, 
2367.00, 
2368.00, 
2369.00, 
2370.00, 
2371.00, 
2372.00, 
2373.00, 
2374.00, 
2375.00, 
2376.00, 
2377.00, 
2378.00, 
2379.00, 
2380.00, 
2381.00, 
2382.00, 
2383.00, 
2384.00, 
2385.00, 
2386.00, 
2387.00, 
2388.00, 
2389.00, 
2390.00, 
2391.00, 
2392.00, 
2393.00, 
2394.00, 
2395.00, 
2396.00, 
2397.00, 
2398.00, 
2399.00, 
2400.00, 
2401.00, 
2402.00, 
2403.00, 
2404.00, 
2405.00, 
2406.00, 
2407.00, 
2408.00, 
2409.00, 
2410.00, 
2411.00, 
2412.00, 
2413.00, 
2414.00, 
2415.00, 
2416.00, 
2417.00, 
2418.00, 
2419.00, 
2420.00, 
2421.00, 
2422.00, 
2423.00, 
2424.00, 
2425.00, 
2426.00, 
2427.00, 
2428.00, 
2429.00, 
2430.00, 
2431.00, 
2432.00, 
2433.00, 
2434.00, 
2435.00, 
2436.00, 
2437.00, 
2438.00, 
2439.00, 
2440.00, 
2441.00, 
2442.00, 
2443.00, 
2444.00, 
2445.00, 
2446.00, 
2447.00, 
2448.00, 
2449.00, 
2450.00, 
2451.00, 
2452.00, 
2453.00, 
2454.00, 
2455.00, 
2456.00, 
2457.00, 
2458.00, 
2459.00, 
2460.00, 
2461.00, 
2462.00, 
2463.00, 
2464.00, 
2465.00, 
2466.00, 
2467.00, 
2468.00, 
2469.00, 
2470.00, 
2471.00, 
2472.00, 
2473.00, 
2474.00, 
2475.00, 
2476.00, 
2477.00, 
2478.00, 
2479.00, 
2480.00, 
2481.00, 
2482.00, 
2483.00, 
2484.00, 
2485.00, 
2486.00, 
2487.00, 
2488.00, 
2489.00, 
2490.00, 
2491.00, 
2492.00, 
2493.00, 
2494.00, 
2495.00, 
2496.00, 
2497.00, 
2498.00, 
2499.00, 
2500.00, 
2501.00, 
2502.00, 
2503.00, 
2504.00, 
2505.00, 
2506.00, 
2507.00, 
2508.00, 
2509.00, 
2510.00, 
2511.00, 
2512.00, 
2513.00, 
2514.00, 
2515.00, 
2516.00, 
2517.00, 
2518.00, 
2519.00, 
2520.00, 
2521.00, 
2522.00, 
2523.00, 
2524.00, 
2525.00, 
2526.00, 
2527.00, 
2528.00, 
2529.00, 
2530.00, 
2531.00, 
2532.00, 
2533.00, 
2534.00, 
2535.00, 
2536.00, 
2537.00, 
2538.00, 
2539.00, 
2540.00, 
2541.00, 
2542.00, 
2543.00, 
2544.00, 
2545.00, 
2546.00, 
2547.00, 
2548.00, 
2549.00, 
2550.00, 
2551.00, 
2552.00, 
2553.00, 
2554.00, 
2555.00, 
2556.00, 
2557.00, 
2558.00, 
2559.00, 
2560.00, 
2561.00, 
2562.00, 
2563.00, 
2564.00, 
2565.00, 
2566.00, 
2567.00, 
2568.00, 
2569.00, 
2570.00, 
2571.00, 
2572.00, 
2573.00, 
2574.00, 
2575.00, 
2576.00, 
2577.00, 
2578.00, 
2579.00, 
2580.00, 
2581.00, 
2582.00, 
2583.00, 
2584.00, 
2585.00, 
2586.00, 
2587.00, 
2588.00, 
2589.00, 
2590.00, 
2591.00, 
2592.00, 
2593.00, 
2594.00, 
2595.00, 
2596.00, 
2597.00, 
2598.00, 
2599.00, 
2600.00, 
