"1cP1 - RawData"
"Wavelength nm.","T%"
200.00,-0.001
201.00,0.000
202.00,0.002
203.00,-0.001
204.00,0.005
205.00,0.002
206.00,0.001
207.00,0.002
208.00,0.003
209.00,0.000
210.00,0.001
211.00,0.001
212.00,0.000
213.00,-0.001
214.00,0.002
215.00,0.001
216.00,0.001
217.00,0.001
218.00,0.002
219.00,0.001
220.00,0.003
221.00,0.001
222.00,-0.001
223.00,0.001
224.00,0.003
225.00,0.001
226.00,-0.001
227.00,0.001
228.00,0.002
229.00,0.002
230.00,0.000
231.00,-0.000
232.00,0.001
233.00,-0.001
234.00,0.002
235.00,0.001
236.00,0.002
237.00,-0.000
238.00,0.001
239.00,-0.001
240.00,0.000
241.00,0.001
242.00,0.001
243.00,0.002
244.00,0.001
245.00,0.001
246.00,0.002
247.00,0.001
248.00,0.002
249.00,0.001
250.00,0.001
251.00,-0.000
252.00,-0.000
253.00,0.003
254.00,-0.001
255.00,0.000
256.00,-0.000
257.00,-0.001
258.00,0.002
259.00,0.000
260.00,0.001
261.00,0.001
262.00,-0.001
263.00,-0.000
264.00,0.002
265.00,-0.001
266.00,0.000
267.00,0.001
268.00,0.002
269.00,0.001
270.00,-0.000
271.00,-0.001
272.00,0.002
273.00,-0.000
274.00,0.002
275.00,-0.000
276.00,0.001
277.00,0.002
278.00,-0.000
279.00,-0.001
280.00,0.002
281.00,0.001
282.00,0.001
283.00,0.001
284.00,0.001
285.00,-0.001
286.00,-0.000
287.00,-0.000
288.00,-0.000
289.00,-0.001
290.00,0.000
291.00,0.001
292.00,-0.001
293.00,-0.001
294.00,0.001
295.00,0.002
296.00,0.001
297.00,0.000
298.00,-0.000
299.00,0.001
300.00,0.000
301.00,0.001
302.00,0.001
303.00,0.001
304.00,-0.001
305.00,0.002
306.00,0.003
307.00,0.005
308.00,0.007
309.00,0.014
310.00,0.020
311.00,0.029
312.00,0.047
313.00,0.075
314.00,0.111
315.00,0.169
316.00,0.222
317.00,0.333
318.00,0.451
319.00,0.608
320.00,0.811
321.00,1.049
322.00,1.337
323.00,1.695
324.00,2.098
325.00,2.528
326.00,2.984
327.00,3.569
328.00,4.169
329.00,4.817
330.00,5.526
331.00,6.236
332.00,7.009
333.00,7.852
334.00,8.665
335.00,9.560
336.00,10.423
337.00,11.311
338.00,12.207
339.00,13.042
340.00,13.876
341.00,14.766
342.00,15.497
343.00,16.401
344.00,17.138
345.00,17.918
346.00,18.607
347.00,19.292
348.00,19.952
349.00,20.548
350.00,21.103
351.00,21.656
352.00,22.144
353.00,22.652
354.00,23.130
355.00,23.509
356.00,23.924
357.00,24.289
358.00,24.615
359.00,25.057
360.00,25.389
361.00,25.622
362.00,25.935
363.00,26.189
364.00,26.321
365.00,26.444
366.00,26.639
367.00,26.759
368.00,26.924
369.00,26.985
370.00,27.092
371.00,27.105
372.00,27.132
373.00,27.155
374.00,27.166
375.00,27.127
376.00,27.031
377.00,27.003
378.00,26.842
379.00,26.808
380.00,26.823
381.00,26.817
382.00,26.806
383.00,26.856
384.00,26.985
385.00,27.096
386.00,27.124
387.00,27.302
388.00,27.415
389.00,27.467
390.00,27.591
391.00,27.613
392.00,27.696
393.00,27.701
394.00,27.813
395.00,27.869
396.00,27.854
397.00,27.910
398.00,27.959
399.00,27.980
400.00,27.984
401.00,27.994
402.00,28.013
403.00,28.009
404.00,28.014
405.00,28.029
406.00,27.993
407.00,27.965
408.00,27.968
409.00,27.894
410.00,27.816
411.00,27.799
412.00,27.784
413.00,27.805
414.00,27.757
415.00,27.741
416.00,27.819
417.00,27.750
418.00,27.795
419.00,27.859
420.00,27.911
421.00,27.990
422.00,27.938
423.00,28.032
424.00,28.042
425.00,28.072
426.00,28.103
427.00,28.169
428.00,28.200
429.00,28.193
430.00,28.245
431.00,28.291
432.00,28.328
433.00,28.413
434.00,28.421
435.00,28.436
436.00,28.500
437.00,28.527
438.00,28.668
439.00,28.695
440.00,28.785
441.00,28.832
442.00,28.905
443.00,29.010
444.00,29.111
445.00,29.166
446.00,29.219
447.00,29.337
448.00,29.466
449.00,29.552
450.00,29.601
451.00,29.727
452.00,29.768
453.00,30.000
454.00,30.090
455.00,30.095
456.00,30.237
457.00,30.307
458.00,30.397
459.00,30.511
460.00,30.692
461.00,30.788
462.00,30.904
463.00,31.016
464.00,31.157
465.00,31.221
466.00,31.345
467.00,31.504
468.00,31.556
469.00,31.654
470.00,31.739
471.00,31.792
472.00,31.920
473.00,31.967
474.00,32.054
475.00,32.176
476.00,32.235
477.00,32.369
478.00,32.446
479.00,32.662
480.00,32.763
481.00,32.770
482.00,32.989
483.00,33.070
484.00,33.295
485.00,33.410
486.00,33.567
487.00,33.695
488.00,33.785
489.00,33.951
490.00,34.083
491.00,34.144
492.00,34.299
493.00,34.486
494.00,34.641
495.00,34.666
496.00,34.813
497.00,34.846
498.00,34.997
499.00,35.152
500.00,35.247
501.00,35.305
502.00,35.475
503.00,35.602
504.00,35.617
505.00,35.764
506.00,35.882
507.00,35.934
508.00,36.047
509.00,36.221
510.00,36.331
511.00,36.393
512.00,36.581
513.00,36.674
514.00,36.752
515.00,36.852
516.00,36.982
517.00,37.035
518.00,37.185
519.00,37.190
520.00,37.216
521.00,37.377
522.00,37.418
523.00,37.425
524.00,37.543
525.00,37.647
526.00,37.719
527.00,37.721
528.00,37.807
529.00,37.965
530.00,38.139
531.00,38.277
532.00,38.329
533.00,38.415
534.00,38.533
535.00,38.612
536.00,38.625
537.00,38.711
538.00,38.803
539.00,38.828
540.00,38.925
541.00,38.957
542.00,38.989
543.00,39.027
544.00,39.109
545.00,39.201
546.00,39.245
547.00,39.339
548.00,39.467
549.00,39.502
550.00,39.517
551.00,39.636
552.00,39.681
553.00,39.713
554.00,39.831
555.00,39.807
556.00,39.869
557.00,39.955
558.00,40.036
559.00,40.080
560.00,40.161
561.00,40.246
562.00,40.222
563.00,40.301
564.00,40.339
565.00,40.346
566.00,40.337
567.00,40.411
568.00,40.380
569.00,40.523
570.00,40.526
571.00,40.566
572.00,40.562
573.00,40.555
574.00,40.604
575.00,40.643
576.00,40.653
577.00,40.671
578.00,40.791
579.00,40.851
580.00,40.855
581.00,41.069
582.00,41.092
583.00,41.060
584.00,41.168
585.00,41.241
586.00,41.290
587.00,41.350
588.00,41.356
589.00,41.267
590.00,41.333
591.00,41.417
592.00,41.384
593.00,41.387
594.00,41.560
595.00,41.671
596.00,41.589
597.00,41.591
598.00,41.767
599.00,41.776
600.00,41.787
601.00,41.833
602.00,41.829
603.00,41.871
604.00,41.915
605.00,41.920
606.00,41.938
607.00,41.979
608.00,42.126
609.00,42.227
610.00,42.096
611.00,42.173
612.00,42.186
613.00,42.279
614.00,42.293
615.00,42.368
616.00,42.476
617.00,42.389
618.00,42.409
619.00,42.414
620.00,42.492
621.00,42.528
622.00,42.575
623.00,42.675
624.00,42.709
625.00,42.764
626.00,42.872
627.00,42.863
628.00,42.812
629.00,42.824
630.00,42.910
631.00,42.857
632.00,42.929
633.00,43.081
634.00,43.129
635.00,43.309
636.00,43.317
637.00,43.288
638.00,43.284
639.00,43.383
640.00,43.423
641.00,43.467
642.00,43.557
643.00,43.550
644.00,43.611
645.00,43.683
646.00,43.803
647.00,43.836
648.00,43.884
649.00,43.838
650.00,43.839
651.00,43.955
652.00,44.033
653.00,44.011
654.00,43.991
655.00,44.167
656.00,44.467
657.00,44.249
658.00,44.289
659.00,44.430
660.00,44.550
661.00,44.346
662.00,44.514
663.00,44.640
664.00,44.867
665.00,44.992
666.00,44.897
667.00,45.039
668.00,44.998
669.00,44.970
670.00,45.358
671.00,45.167
672.00,45.190
673.00,45.421
674.00,45.339
675.00,45.455
676.00,45.647
677.00,45.772
678.00,45.431
679.00,45.700
680.00,45.702
681.00,45.969
682.00,45.882
683.00,45.756
684.00,45.724
685.00,46.034
686.00,46.176
687.00,46.134
688.00,46.051
689.00,46.169
690.00,46.394
691.00,46.492
692.00,46.321
693.00,46.275
694.00,46.316
695.00,46.755
696.00,46.843
697.00,46.673
698.00,46.752
699.00,46.844
700.00,46.872
701.00,46.840
702.00,47.021
703.00,47.097
704.00,47.111
705.00,47.049
706.00,47.208
707.00,47.140
708.00,47.011
709.00,47.423
710.00,47.692
711.00,47.232
712.00,47.356
713.00,47.409
714.00,47.411
715.00,47.356
716.00,47.174
717.00,47.796
718.00,48.090
719.00,47.610
720.00,47.760
721.00,52.358
722.00,52.301
723.00,52.346
724.00,52.273
725.00,52.354
726.00,52.318
727.00,52.328
728.00,52.348
729.00,52.302
730.00,52.214
731.00,52.248
732.00,52.276
733.00,52.222
734.00,52.238
735.00,52.298
736.00,52.335
737.00,52.335
738.00,52.345
739.00,52.314
740.00,52.342
741.00,52.287
742.00,52.429
743.00,52.401
744.00,52.270
745.00,52.302
746.00,52.321
747.00,52.236
748.00,52.236
749.00,52.212
750.00,52.199
751.00,52.215
752.00,52.223
753.00,52.108
754.00,52.130
755.00,52.110
756.00,52.075
757.00,52.114
758.00,52.107
759.00,52.049
760.00,52.113
761.00,52.076
762.00,52.115
763.00,52.040
764.00,52.075
765.00,52.070
766.00,52.010
767.00,52.114
768.00,52.063
769.00,52.103
770.00,52.082
771.00,52.028
772.00,52.159
773.00,52.006
774.00,51.989
775.00,52.073
776.00,51.938
777.00,52.019
778.00,51.983
779.00,52.015
780.00,51.965
781.00,51.936
782.00,51.976
783.00,51.897
784.00,51.901
785.00,51.846
786.00,51.846
787.00,51.781
788.00,51.798
789.00,51.840
790.00,51.725
791.00,51.789
792.00,51.784
793.00,51.671
794.00,51.538
795.00,51.712
796.00,51.638
797.00,51.545
798.00,51.578
799.00,51.533
800.00,51.575
801.00,51.508
802.00,51.474
803.00,51.548
804.00,51.445
805.00,51.470
806.00,51.450
807.00,51.391
808.00,51.317
809.00,51.341
810.00,51.297
811.00,51.367
812.00,51.342
813.00,51.286
814.00,51.300
815.00,51.206
816.00,51.183
817.00,51.166
818.00,51.085
819.00,51.136
820.00,51.006
821.00,51.053
822.00,51.122
823.00,51.040
824.00,51.006
825.00,51.028
826.00,50.957
827.00,51.058
828.00,50.986
829.00,50.927
830.00,50.952
831.00,53.204
832.00,53.173
833.00,53.144
834.00,53.162
835.00,53.178
836.00,53.045
837.00,53.061
838.00,53.068
839.00,53.058
840.00,53.007
841.00,52.995
842.00,52.956
843.00,52.962
844.00,52.925
845.00,52.874
846.00,52.917
847.00,52.869
848.00,52.849
849.00,52.831
850.00,52.780
851.00,52.699
852.00,52.709
853.00,52.660
854.00,52.636
855.00,52.502
856.00,52.588
857.00,52.516
858.00,52.503
859.00,52.493
860.00,52.488
861.00,52.478
862.00,52.423
863.00,52.437
864.00,52.362
865.00,52.423
866.00,52.342
867.00,52.345
868.00,52.330
869.00,52.303
870.00,52.283
871.00,52.294
872.00,52.270
873.00,52.267
874.00,52.264
875.00,52.198
876.00,52.201
877.00,52.182
878.00,52.177
879.00,52.141
880.00,52.139
881.00,52.108
882.00,52.161
883.00,52.082
884.00,52.031
885.00,52.153
886.00,52.043
887.00,51.999
888.00,51.978
889.00,51.958
890.00,51.985
891.00,51.969
892.00,51.912
893.00,51.890
894.00,51.888
895.00,51.862
896.00,51.831
897.00,51.813
898.00,51.774
899.00,51.777
900.00,51.727
901.00,51.745
902.00,51.734
903.00,51.702
904.00,51.691
905.00,51.736
906.00,51.605
907.00,51.642
908.00,51.578
909.00,51.585
910.00,51.553
911.00,51.545
912.00,51.516
913.00,51.459
914.00,51.480
915.00,51.446
916.00,51.413
917.00,51.399
918.00,51.388
919.00,51.368
920.00,51.334
921.00,51.353
922.00,51.334
923.00,51.310
924.00,51.242
925.00,51.274
926.00,51.236
927.00,51.244
928.00,51.170
929.00,51.201
930.00,51.154
931.00,51.154
932.00,51.088
933.00,51.098
934.00,51.054
935.00,51.064
936.00,51.037
937.00,51.029
938.00,51.007
939.00,51.002
940.00,50.962
941.00,50.964
942.00,50.910
943.00,50.944
944.00,50.878
945.00,50.878
946.00,50.861
947.00,50.838
948.00,50.820
949.00,50.783
950.00,50.774
951.00,50.740
952.00,50.739
953.00,50.699
954.00,50.683
955.00,50.615
956.00,50.633
957.00,50.534
958.00,50.603
959.00,50.539
960.00,50.530
961.00,50.516
962.00,50.524
963.00,50.456
964.00,50.459
965.00,50.462
966.00,50.450
967.00,50.438
968.00,50.413
969.00,50.452
970.00,50.398
971.00,50.420
972.00,50.422
973.00,50.445
974.00,50.441
975.00,50.390
976.00,50.428
977.00,50.395
978.00,50.430
979.00,50.376
980.00,50.417
981.00,50.404
982.00,50.368
983.00,50.384
984.00,50.357
985.00,50.374
986.00,50.335
987.00,50.361
988.00,50.316
989.00,50.296
990.00,50.304
991.00,50.300
992.00,50.320
993.00,50.275
994.00,50.251
995.00,50.255
996.00,50.253
997.00,50.240
998.00,50.201
999.00,50.234
1000.00,50.168
1001.00,50.171
1002.00,50.115
1003.00,50.162
1004.00,50.150
1005.00,50.104
1006.00,50.157
1007.00,50.100
1008.00,50.089
1009.00,50.080
1010.00,50.078
1011.00,50.071
1012.00,50.033
1013.00,50.054
1014.00,50.008
1015.00,50.019
1016.00,49.971
1017.00,49.992
1018.00,49.992
1019.00,49.925
1020.00,49.937
1021.00,49.894
1022.00,49.886
1023.00,49.849
1024.00,49.856
1025.00,49.840
1026.00,49.832
1027.00,49.820
1028.00,49.806
1029.00,49.786
1030.00,49.779
1031.00,49.764
1032.00,49.709
1033.00,49.743
1034.00,49.701
1035.00,49.660
1036.00,49.622
1037.00,49.620
1038.00,49.603
1039.00,49.585
1040.00,49.596
1041.00,49.552
1042.00,49.567
1043.00,49.543
1044.00,49.562
1045.00,49.540
1046.00,49.531
1047.00,49.547
1048.00,49.553
1049.00,49.564
1050.00,49.565
1051.00,49.594
1052.00,49.593
1053.00,49.608
1054.00,49.591
1055.00,49.612
1056.00,49.633
1057.00,49.639
1058.00,49.614
1059.00,49.606
1060.00,49.622
1061.00,49.607
1062.00,49.597
1063.00,49.626
1064.00,49.596
1065.00,49.592
1066.00,49.576
1067.00,49.583
1068.00,49.598
1069.00,49.542
1070.00,49.542
1071.00,49.530
1072.00,49.558
1073.00,49.522
1074.00,49.520
1075.00,49.514
1076.00,49.530
1077.00,49.490
1078.00,49.489
1079.00,49.491
1080.00,49.456
1081.00,49.454
1082.00,49.449
1083.00,49.445
1084.00,49.433
1085.00,49.435
1086.00,49.423
1087.00,49.411
1088.00,49.402
1089.00,49.389
1090.00,49.393
1091.00,49.438
1092.00,49.415
1093.00,49.362
1094.00,49.344
1095.00,49.344
1096.00,49.334
1097.00,49.341
1098.00,49.329
1099.00,49.310
1100.00,49.311
1101.00,49.297
1102.00,49.282
1103.00,49.287
1104.00,49.271
1105.00,49.269
1106.00,49.249
1107.00,49.248
1108.00,49.241
1109.00,49.233
1110.00,49.211
1111.00,49.213
1112.00,49.206
1113.00,49.194
1114.00,49.198
1115.00,49.204
1116.00,49.192
1117.00,49.176
1118.00,49.170
1119.00,49.174
1120.00,49.156
1121.00,49.139
1122.00,49.146
1123.00,49.150
1124.00,49.151
1125.00,49.182
1126.00,49.130
1127.00,49.127
1128.00,49.104
1129.00,49.082
1130.00,49.081
1131.00,49.080
1132.00,49.074
1133.00,49.081
1134.00,49.055
1135.00,49.024
1136.00,49.050
1137.00,49.057
1138.00,49.068
1139.00,49.076
1140.00,49.046
1141.00,49.046
1142.00,49.038
1143.00,49.028
1144.00,49.006
1145.00,49.015
1146.00,49.007
1147.00,49.006
1148.00,48.995
1149.00,49.028
1150.00,49.022
1151.00,49.019
1152.00,49.002
1153.00,48.992
1154.00,48.974
1155.00,48.984
1156.00,48.980
1157.00,48.989
1158.00,48.977
1159.00,48.976
1160.00,48.973
1161.00,48.979
1162.00,48.974
1163.00,48.983
1164.00,48.972
1165.00,48.970
1166.00,48.969
1167.00,48.978
1168.00,48.980
1169.00,48.966
1170.00,48.977
1171.00,48.956
1172.00,48.959
1173.00,48.959
1174.00,48.959
1175.00,48.971
1176.00,48.962
1177.00,48.949
1178.00,48.958
1179.00,48.961
1180.00,48.953
1181.00,48.962
1182.00,48.953
1183.00,48.937
1184.00,48.921
1185.00,48.952
1186.00,48.947
1187.00,48.941
1188.00,48.933
1189.00,48.942
1190.00,48.934
1191.00,48.936
1192.00,48.962
1193.00,48.961
1194.00,48.954
1195.00,48.929
1196.00,48.973
1197.00,48.956
1198.00,48.947
1199.00,48.944
1200.00,48.961
1201.00,48.989
1202.00,48.940
1203.00,48.942
1204.00,48.934
1205.00,48.952
1206.00,48.936
1207.00,48.949
1208.00,48.938
1209.00,48.950
1210.00,48.947
1211.00,48.951
1212.00,48.968
1213.00,48.936
1214.00,48.956
1215.00,48.935
1216.00,48.942
1217.00,48.942
1218.00,48.932
1219.00,48.950
1220.00,48.949
1221.00,48.964
1222.00,48.945
1223.00,48.971
1224.00,48.974
1225.00,48.960
1226.00,48.970
1227.00,48.967
1228.00,48.983
1229.00,48.974
1230.00,48.989
1231.00,48.983
1232.00,49.003
1233.00,49.002
1234.00,49.014
1235.00,49.004
1236.00,48.999
1237.00,49.012
1238.00,49.013
1239.00,49.006
1240.00,48.995
1241.00,49.007
1242.00,49.010
1243.00,49.028
1244.00,49.004
1245.00,49.048
1246.00,49.058
1247.00,49.029
1248.00,49.037
1249.00,49.055
1250.00,49.056
1251.00,49.045
1252.00,49.061
1253.00,49.045
1254.00,49.075
1255.00,49.076
1256.00,49.044
1257.00,49.050
1258.00,49.092
1259.00,49.089
1260.00,49.124
1261.00,49.109
1262.00,49.115
1263.00,49.103
1264.00,49.105
1265.00,49.108
1266.00,49.112
1267.00,49.136
1268.00,49.136
1269.00,49.129
1270.00,49.152
1271.00,49.164
1272.00,49.157
1273.00,49.176
1274.00,49.183
1275.00,49.190
1276.00,49.196
1277.00,49.187
1278.00,49.196
1279.00,49.205
1280.00,49.188
1281.00,49.215
1282.00,49.232
1283.00,49.202
1284.00,49.212
1285.00,49.212
1286.00,49.232
1287.00,49.223
1288.00,49.229
1289.00,49.231
1290.00,49.261
1291.00,49.248
1292.00,49.258
1293.00,49.259
1294.00,49.271
1295.00,49.289
1296.00,49.277
1297.00,49.302
1298.00,49.327
1299.00,49.318
1300.00,49.325
1301.00,49.313
1302.00,49.326
1303.00,49.340
1304.00,49.336
1305.00,49.359
1306.00,49.367
1307.00,49.367
1308.00,49.354
1309.00,49.372
1310.00,49.381
1311.00,49.363
1312.00,49.368
1313.00,49.386
1314.00,49.426
1315.00,49.433
1316.00,49.424
1317.00,49.449
1318.00,49.449
1319.00,49.453
1320.00,49.465
1321.00,49.619
1322.00,49.616
1323.00,49.609
1324.00,49.597
1325.00,49.579
1326.00,49.606
1327.00,49.594
1328.00,49.598
1329.00,49.616
1330.00,49.596
1331.00,49.641
1332.00,49.623
1333.00,49.662
1334.00,49.643
1335.00,49.696
1336.00,49.729
1337.00,49.744
1338.00,49.800
1339.00,49.844
1340.00,49.903
1341.00,49.971
1342.00,50.038
1343.00,50.072
1344.00,50.101
1345.00,50.190
1346.00,50.236
1347.00,50.184
1348.00,50.237
1349.00,50.280
1350.00,50.333
1351.00,50.315
1352.00,50.362
1353.00,50.376
1354.00,50.353
1355.00,50.268
1356.00,50.386
1357.00,50.390
1358.00,50.443
1359.00,50.513
1360.00,50.486
1361.00,50.192
1362.00,50.189
1363.00,50.596
1364.00,50.447
1365.00,50.523
1366.00,50.798
1367.00,50.359
1368.00,50.318
1369.00,50.487
1370.00,50.362
1371.00,50.273
1372.00,50.369
1373.00,50.416
1374.00,50.425
1375.00,50.409
1376.00,50.362
1377.00,50.413
1378.00,50.497
1379.00,50.438
1380.00,50.431
1381.00,50.350
1382.00,50.463
1383.00,50.425
1384.00,50.329
1385.00,50.402
1386.00,50.404
1387.00,50.389
1388.00,50.336
1389.00,50.370
1390.00,50.472
1391.00,50.271
1392.00,50.462
1393.00,50.580
1394.00,50.390
1395.00,50.293
1396.00,50.304
1397.00,50.368
1398.00,50.608
1399.00,50.332
1400.00,50.303
1401.00,50.353
1402.00,50.532
1403.00,50.353
1404.00,50.379
1405.00,50.456
1406.00,50.417
1407.00,50.476
1408.00,50.437
1409.00,50.413
1410.00,50.462
1411.00,50.480
1412.00,50.528
1413.00,50.315
1414.00,50.462
1415.00,50.502
1416.00,50.530
1417.00,50.584
1418.00,50.531
1419.00,50.516
1420.00,50.555
1421.00,50.581
1422.00,50.587
1423.00,50.602
1424.00,50.591
1425.00,50.615
1426.00,50.673
1427.00,50.708
1428.00,50.695
1429.00,50.640
1430.00,50.694
1431.00,50.699
1432.00,50.689
1433.00,50.729
1434.00,50.720
1435.00,50.767
1436.00,50.798
1437.00,50.787
1438.00,50.803
1439.00,50.817
1440.00,50.855
1441.00,50.862
1442.00,50.870
1443.00,50.837
1444.00,50.999
1445.00,50.928
1446.00,50.933
1447.00,50.984
1448.00,51.008
1449.00,51.049
1450.00,51.043
1451.00,51.063
1452.00,51.096
1453.00,51.095
1454.00,51.103
1455.00,51.129
1456.00,51.142
1457.00,51.140
1458.00,51.176
1459.00,51.188
1460.00,51.204
1461.00,51.203
1462.00,51.238
1463.00,51.246
1464.00,51.251
1465.00,51.259
1466.00,51.276
1467.00,51.302
1468.00,51.353
1469.00,51.336
1470.00,51.361
1471.00,51.371
1472.00,51.368
1473.00,51.391
1474.00,51.416
1475.00,51.442
1476.00,51.455
1477.00,51.460
1478.00,51.480
1479.00,51.486
1480.00,51.493
1481.00,51.517
1482.00,51.547
1483.00,51.557
1484.00,51.578
1485.00,51.596
1486.00,51.599
1487.00,51.615
1488.00,51.634
1489.00,51.631
1490.00,51.633
1491.00,51.652
1492.00,51.674
1493.00,51.662
1494.00,51.701
1495.00,51.703
1496.00,51.731
1497.00,51.729
1498.00,51.729
1499.00,51.753
1500.00,51.777
1501.00, 
1502.00, 
1503.00, 
1504.00, 
1505.00, 
1506.00, 
1507.00, 
1508.00, 
1509.00, 
1510.00, 
1511.00, 
1512.00, 
1513.00, 
1514.00, 
1515.00, 
1516.00, 
1517.00, 
1518.00, 
1519.00, 
1520.00, 
1521.00, 
1522.00, 
1523.00, 
1524.00, 
1525.00, 
1526.00, 
1527.00, 
1528.00, 
1529.00, 
1530.00, 
1531.00, 
1532.00, 
1533.00, 
1534.00, 
1535.00, 
1536.00, 
1537.00, 
1538.00, 
1539.00, 
1540.00, 
1541.00, 
1542.00, 
1543.00, 
1544.00, 
1545.00, 
1546.00, 
1547.00, 
1548.00, 
1549.00, 
1550.00, 
1551.00, 
1552.00, 
1553.00, 
1554.00, 
1555.00, 
1556.00, 
1557.00, 
1558.00, 
1559.00, 
1560.00, 
1561.00, 
1562.00, 
1563.00, 
1564.00, 
1565.00, 
1566.00, 
1567.00, 
1568.00, 
1569.00, 
1570.00, 
1571.00, 
1572.00, 
1573.00, 
1574.00, 
1575.00, 
1576.00, 
1577.00, 
1578.00, 
1579.00, 
1580.00, 
1581.00, 
1582.00, 
1583.00, 
1584.00, 
1585.00, 
1586.00, 
1587.00, 
1588.00, 
1589.00, 
1590.00, 
1591.00, 
1592.00, 
1593.00, 
1594.00, 
1595.00, 
1596.00, 
1597.00, 
1598.00, 
1599.00, 
1600.00, 
1601.00, 
1602.00, 
1603.00, 
1604.00, 
1605.00, 
1606.00, 
1607.00, 
1608.00, 
1609.00, 
1610.00, 
1611.00, 
1612.00, 
1613.00, 
1614.00, 
1615.00, 
1616.00, 
1617.00, 
1618.00, 
1619.00, 
1620.00, 
1621.00, 
1622.00, 
1623.00, 
1624.00, 
1625.00, 
1626.00, 
1627.00, 
1628.00, 
1629.00, 
1630.00, 
1631.00, 
1632.00, 
1633.00, 
1634.00, 
1635.00, 
1636.00, 
1637.00, 
1638.00, 
1639.00, 
1640.00, 
1641.00, 
1642.00, 
1643.00, 
1644.00, 
1645.00, 
1646.00, 
1647.00, 
1648.00, 
1649.00, 
1650.00, 
1651.00, 
1652.00, 
1653.00, 
1654.00, 
1655.00, 
1656.00, 
1657.00, 
1658.00, 
1659.00, 
1660.00, 
1661.00, 
1662.00, 
1663.00, 
1664.00, 
1665.00, 
1666.00, 
1667.00, 
1668.00, 
1669.00, 
1670.00, 
1671.00, 
1672.00, 
1673.00, 
1674.00, 
1675.00, 
1676.00, 
1677.00, 
1678.00, 
1679.00, 
1680.00, 
1681.00, 
1682.00, 
1683.00, 
1684.00, 
1685.00, 
1686.00, 
1687.00, 
1688.00, 
1689.00, 
1690.00, 
1691.00, 
1692.00, 
1693.00, 
1694.00, 
1695.00, 
1696.00, 
1697.00, 
1698.00, 
1699.00, 
1700.00, 
1701.00, 
1702.00, 
1703.00, 
1704.00, 
1705.00, 
1706.00, 
1707.00, 
1708.00, 
1709.00, 
1710.00, 
1711.00, 
1712.00, 
1713.00, 
1714.00, 
1715.00, 
1716.00, 
1717.00, 
1718.00, 
1719.00, 
1720.00, 
1721.00, 
1722.00, 
1723.00, 
1724.00, 
1725.00, 
1726.00, 
1727.00, 
1728.00, 
1729.00, 
1730.00, 
1731.00, 
1732.00, 
1733.00, 
1734.00, 
1735.00, 
1736.00, 
1737.00, 
1738.00, 
1739.00, 
1740.00, 
1741.00, 
1742.00, 
1743.00, 
1744.00, 
1745.00, 
1746.00, 
1747.00, 
1748.00, 
1749.00, 
1750.00, 
1751.00, 
1752.00, 
1753.00, 
1754.00, 
1755.00, 
1756.00, 
1757.00, 
1758.00, 
1759.00, 
1760.00, 
1761.00, 
1762.00, 
1763.00, 
1764.00, 
1765.00, 
1766.00, 
1767.00, 
1768.00, 
1769.00, 
1770.00, 
1771.00, 
1772.00, 
1773.00, 
1774.00, 
1775.00, 
1776.00, 
1777.00, 
1778.00, 
1779.00, 
1780.00, 
1781.00, 
1782.00, 
1783.00, 
1784.00, 
1785.00, 
1786.00, 
1787.00, 
1788.00, 
1789.00, 
1790.00, 
1791.00, 
1792.00, 
1793.00, 
1794.00, 
1795.00, 
1796.00, 
1797.00, 
1798.00, 
1799.00, 
1800.00, 
1801.00, 
1802.00, 
1803.00, 
1804.00, 
1805.00, 
1806.00, 
1807.00, 
1808.00, 
1809.00, 
1810.00, 
1811.00, 
1812.00, 
1813.00, 
1814.00, 
1815.00, 
1816.00, 
1817.00, 
1818.00, 
1819.00, 
1820.00, 
1821.00, 
1822.00, 
1823.00, 
1824.00, 
1825.00, 
1826.00, 
1827.00, 
1828.00, 
1829.00, 
1830.00, 
1831.00, 
1832.00, 
1833.00, 
1834.00, 
1835.00, 
1836.00, 
1837.00, 
1838.00, 
1839.00, 
1840.00, 
1841.00, 
1842.00, 
1843.00, 
1844.00, 
1845.00, 
1846.00, 
1847.00, 
1848.00, 
1849.00, 
1850.00, 
1851.00, 
1852.00, 
1853.00, 
1854.00, 
1855.00, 
1856.00, 
1857.00, 
1858.00, 
1859.00, 
1860.00, 
1861.00, 
1862.00, 
1863.00, 
1864.00, 
1865.00, 
1866.00, 
1867.00, 
1868.00, 
1869.00, 
1870.00, 
1871.00, 
1872.00, 
1873.00, 
1874.00, 
1875.00, 
1876.00, 
1877.00, 
1878.00, 
1879.00, 
1880.00, 
1881.00, 
1882.00, 
1883.00, 
1884.00, 
1885.00, 
1886.00, 
1887.00, 
1888.00, 
1889.00, 
1890.00, 
1891.00, 
1892.00, 
1893.00, 
1894.00, 
1895.00, 
1896.00, 
1897.00, 
1898.00, 
1899.00, 
1900.00, 
1901.00, 
1902.00, 
1903.00, 
1904.00, 
1905.00, 
1906.00, 
1907.00, 
1908.00, 
1909.00, 
1910.00, 
1911.00, 
1912.00, 
1913.00, 
1914.00, 
1915.00, 
1916.00, 
1917.00, 
1918.00, 
1919.00, 
1920.00, 
1921.00, 
1922.00, 
1923.00, 
1924.00, 
1925.00, 
1926.00, 
1927.00, 
1928.00, 
1929.00, 
1930.00, 
1931.00, 
1932.00, 
1933.00, 
1934.00, 
1935.00, 
1936.00, 
1937.00, 
1938.00, 
1939.00, 
1940.00, 
1941.00, 
1942.00, 
1943.00, 
1944.00, 
1945.00, 
1946.00, 
1947.00, 
1948.00, 
1949.00, 
1950.00, 
1951.00, 
1952.00, 
1953.00, 
1954.00, 
1955.00, 
1956.00, 
1957.00, 
1958.00, 
1959.00, 
1960.00, 
1961.00, 
1962.00, 
1963.00, 
1964.00, 
1965.00, 
1966.00, 
1967.00, 
1968.00, 
1969.00, 
1970.00, 
1971.00, 
1972.00, 
1973.00, 
1974.00, 
1975.00, 
1976.00, 
1977.00, 
1978.00, 
1979.00, 
1980.00, 
1981.00, 
1982.00, 
1983.00, 
1984.00, 
1985.00, 
1986.00, 
1987.00, 
1988.00, 
1989.00, 
1990.00, 
1991.00, 
1992.00, 
1993.00, 
1994.00, 
1995.00, 
1996.00, 
1997.00, 
1998.00, 
1999.00, 
2000.00, 
2001.00, 
2002.00, 
2003.00, 
2004.00, 
2005.00, 
2006.00, 
2007.00, 
2008.00, 
2009.00, 
2010.00, 
2011.00, 
2012.00, 
2013.00, 
2014.00, 
2015.00, 
2016.00, 
2017.00, 
2018.00, 
2019.00, 
2020.00, 
2021.00, 
2022.00, 
2023.00, 
2024.00, 
2025.00, 
2026.00, 
2027.00, 
2028.00, 
2029.00, 
2030.00, 
2031.00, 
2032.00, 
2033.00, 
2034.00, 
2035.00, 
2036.00, 
2037.00, 
2038.00, 
2039.00, 
2040.00, 
2041.00, 
2042.00, 
2043.00, 
2044.00, 
2045.00, 
2046.00, 
2047.00, 
2048.00, 
2049.00, 
2050.00, 
2051.00, 
2052.00, 
2053.00, 
2054.00, 
2055.00, 
2056.00, 
2057.00, 
2058.00, 
2059.00, 
2060.00, 
2061.00, 
2062.00, 
2063.00, 
2064.00, 
2065.00, 
2066.00, 
2067.00, 
2068.00, 
2069.00, 
2070.00, 
2071.00, 
2072.00, 
2073.00, 
2074.00, 
2075.00, 
2076.00, 
2077.00, 
2078.00, 
2079.00, 
2080.00, 
2081.00, 
2082.00, 
2083.00, 
2084.00, 
2085.00, 
2086.00, 
2087.00, 
2088.00, 
2089.00, 
2090.00, 
2091.00, 
2092.00, 
2093.00, 
2094.00, 
2095.00, 
2096.00, 
2097.00, 
2098.00, 
2099.00, 
2100.00, 
2101.00, 
2102.00, 
2103.00, 
2104.00, 
2105.00, 
2106.00, 
2107.00, 
2108.00, 
2109.00, 
2110.00, 
2111.00, 
2112.00, 
2113.00, 
2114.00, 
2115.00, 
2116.00, 
2117.00, 
2118.00, 
2119.00, 
2120.00, 
2121.00, 
2122.00, 
2123.00, 
2124.00, 
2125.00, 
2126.00, 
2127.00, 
2128.00, 
2129.00, 
2130.00, 
2131.00, 
2132.00, 
2133.00, 
2134.00, 
2135.00, 
2136.00, 
2137.00, 
2138.00, 
2139.00, 
2140.00, 
2141.00, 
2142.00, 
2143.00, 
2144.00, 
2145.00, 
2146.00, 
2147.00, 
2148.00, 
2149.00, 
2150.00, 
2151.00, 
2152.00, 
2153.00, 
2154.00, 
2155.00, 
2156.00, 
2157.00, 
2158.00, 
2159.00, 
2160.00, 
2161.00, 
2162.00, 
2163.00, 
2164.00, 
2165.00, 
2166.00, 
2167.00, 
2168.00, 
2169.00, 
2170.00, 
2171.00, 
2172.00, 
2173.00, 
2174.00, 
2175.00, 
2176.00, 
2177.00, 
2178.00, 
2179.00, 
2180.00, 
2181.00, 
2182.00, 
2183.00, 
2184.00, 
2185.00, 
2186.00, 
2187.00, 
2188.00, 
2189.00, 
2190.00, 
2191.00, 
2192.00, 
2193.00, 
2194.00, 
2195.00, 
2196.00, 
2197.00, 
2198.00, 
2199.00, 
2200.00, 
2201.00, 
2202.00, 
2203.00, 
2204.00, 
2205.00, 
2206.00, 
2207.00, 
2208.00, 
2209.00, 
2210.00, 
2211.00, 
2212.00, 
2213.00, 
2214.00, 
2215.00, 
2216.00, 
2217.00, 
2218.00, 
2219.00, 
2220.00, 
2221.00, 
2222.00, 
2223.00, 
2224.00, 
2225.00, 
2226.00, 
2227.00, 
2228.00, 
2229.00, 
2230.00, 
2231.00, 
2232.00, 
2233.00, 
2234.00, 
2235.00, 
2236.00, 
2237.00, 
2238.00, 
2239.00, 
2240.00, 
2241.00, 
2242.00, 
2243.00, 
2244.00, 
2245.00, 
2246.00, 
2247.00, 
2248.00, 
2249.00, 
2250.00, 
2251.00, 
2252.00, 
2253.00, 
2254.00, 
2255.00, 
2256.00, 
2257.00, 
2258.00, 
2259.00, 
2260.00, 
2261.00, 
2262.00, 
2263.00, 
2264.00, 
2265.00, 
2266.00, 
2267.00, 
2268.00, 
2269.00, 
2270.00, 
2271.00, 
2272.00, 
2273.00, 
2274.00, 
2275.00, 
2276.00, 
2277.00, 
2278.00, 
2279.00, 
2280.00, 
2281.00, 
2282.00, 
2283.00, 
2284.00, 
2285.00, 
2286.00, 
2287.00, 
2288.00, 
2289.00, 
2290.00, 
2291.00, 
2292.00, 
2293.00, 
2294.00, 
2295.00, 
2296.00, 
2297.00, 
2298.00, 
2299.00, 
2300.00, 
2301.00, 
2302.00, 
2303.00, 
2304.00, 
2305.00, 
2306.00, 
2307.00, 
2308.00, 
2309.00, 
2310.00, 
2311.00, 
2312.00, 
2313.00, 
2314.00, 
2315.00, 
2316.00, 
2317.00, 
2318.00, 
2319.00, 
2320.00, 
2321.00, 
2322.00, 
2323.00, 
2324.00, 
2325.00, 
2326.00, 
2327.00, 
2328.00, 
2329.00, 
2330.00, 
2331.00, 
2332.00, 
2333.00, 
2334.00, 
2335.00, 
2336.00, 
2337.00, 
2338.00, 
2339.00, 
2340.00, 
2341.00, 
2342.00, 
2343.00, 
2344.00, 
2345.00, 
2346.00, 
2347.00, 
2348.00, 
2349.00, 
2350.00, 
2351.00, 
2352.00, 
2353.00, 
2354.00, 
2355.00, 
2356.00, 
2357.00, 
2358.00, 
2359.00, 
2360.00, 
2361.00, 
2362.00, 
2363.00, 
2364.00, 
2365.00, 
2366.00, 
2367.00, 
2368.00, 
2369.00, 
2370.00, 
2371.00, 
2372.00, 
2373.00, 
2374.00, 
2375.00, 
2376.00, 
2377.00, 
2378.00, 
2379.00, 
2380.00, 
2381.00, 
2382.00, 
2383.00, 
2384.00, 
2385.00, 
2386.00, 
2387.00, 
2388.00, 
2389.00, 
2390.00, 
2391.00, 
2392.00, 
2393.00, 
2394.00, 
2395.00, 
2396.00, 
2397.00, 
2398.00, 
2399.00, 
2400.00, 
2401.00, 
2402.00, 
2403.00, 
2404.00, 
2405.00, 
2406.00, 
2407.00, 
2408.00, 
2409.00, 
2410.00, 
2411.00, 
2412.00, 
2413.00, 
2414.00, 
2415.00, 
2416.00, 
2417.00, 
2418.00, 
2419.00, 
2420.00, 
2421.00, 
2422.00, 
2423.00, 
2424.00, 
2425.00, 
2426.00, 
2427.00, 
2428.00, 
2429.00, 
2430.00, 
2431.00, 
2432.00, 
2433.00, 
2434.00, 
2435.00, 
2436.00, 
2437.00, 
2438.00, 
2439.00, 
2440.00, 
2441.00, 
2442.00, 
2443.00, 
2444.00, 
2445.00, 
2446.00, 
2447.00, 
2448.00, 
2449.00, 
2450.00, 
2451.00, 
2452.00, 
2453.00, 
2454.00, 
2455.00, 
2456.00, 
2457.00, 
2458.00, 
2459.00, 
2460.00, 
2461.00, 
2462.00, 
2463.00, 
2464.00, 
2465.00, 
2466.00, 
2467.00, 
2468.00, 
2469.00, 
2470.00, 
2471.00, 
2472.00, 
2473.00, 
2474.00, 
2475.00, 
2476.00, 
2477.00, 
2478.00, 
2479.00, 
2480.00, 
2481.00, 
2482.00, 
2483.00, 
2484.00, 
2485.00, 
2486.00, 
2487.00, 
2488.00, 
2489.00, 
2490.00, 
2491.00, 
2492.00, 
2493.00, 
2494.00, 
2495.00, 
2496.00, 
2497.00, 
2498.00, 
2499.00, 
2500.00, 
2501.00, 
2502.00, 
2503.00, 
2504.00, 
2505.00, 
2506.00, 
2507.00, 
2508.00, 
2509.00, 
2510.00, 
2511.00, 
2512.00, 
2513.00, 
2514.00, 
2515.00, 
2516.00, 
2517.00, 
2518.00, 
2519.00, 
2520.00, 
2521.00, 
2522.00, 
2523.00, 
2524.00, 
2525.00, 
2526.00, 
2527.00, 
2528.00, 
2529.00, 
2530.00, 
2531.00, 
2532.00, 
2533.00, 
2534.00, 
2535.00, 
2536.00, 
2537.00, 
2538.00, 
2539.00, 
2540.00, 
2541.00, 
2542.00, 
2543.00, 
2544.00, 
2545.00, 
2546.00, 
2547.00, 
2548.00, 
2549.00, 
2550.00, 
2551.00, 
2552.00, 
2553.00, 
2554.00, 
2555.00, 
2556.00, 
2557.00, 
2558.00, 
2559.00, 
2560.00, 
2561.00, 
2562.00, 
2563.00, 
2564.00, 
2565.00, 
2566.00, 
2567.00, 
2568.00, 
2569.00, 
2570.00, 
2571.00, 
2572.00, 
2573.00, 
2574.00, 
2575.00, 
2576.00, 
2577.00, 
2578.00, 
2579.00, 
2580.00, 
2581.00, 
2582.00, 
2583.00, 
2584.00, 
2585.00, 
2586.00, 
2587.00, 
2588.00, 
2589.00, 
2590.00, 
2591.00, 
2592.00, 
2593.00, 
2594.00, 
2595.00, 
2596.00, 
2597.00, 
2598.00, 
2599.00, 
2600.00, 
