"1cP4 - RawData"
"Wavelength nm.","T%"
200.00,0.002
201.00,-0.001
202.00,0.003
203.00,0.001
204.00,0.001
205.00,-0.002
206.00,0.001
207.00,0.001
208.00,0.001
209.00,-0.002
210.00,0.001
211.00,0.000
212.00,0.001
213.00,0.000
214.00,-0.001
215.00,0.001
216.00,-0.002
217.00,0.001
218.00,0.004
219.00,0.002
220.00,-0.001
221.00,0.002
222.00,0.001
223.00,0.002
224.00,0.001
225.00,-0.004
226.00,0.000
227.00,-0.001
228.00,0.002
229.00,0.001
230.00,0.003
231.00,0.001
232.00,0.001
233.00,-0.002
234.00,0.001
235.00,0.002
236.00,0.002
237.00,-0.000
238.00,0.002
239.00,-0.001
240.00,0.001
241.00,0.002
242.00,0.001
243.00,0.001
244.00,0.001
245.00,0.001
246.00,-0.001
247.00,-0.001
248.00,0.001
249.00,0.002
250.00,0.000
251.00,0.000
252.00,-0.001
253.00,-0.000
254.00,0.001
255.00,-0.000
256.00,0.001
257.00,-0.001
258.00,-0.000
259.00,-0.000
260.00,0.000
261.00,0.000
262.00,-0.001
263.00,0.002
264.00,-0.000
265.00,0.001
266.00,-0.001
267.00,0.001
268.00,0.001
269.00,0.001
270.00,0.000
271.00,0.002
272.00,0.001
273.00,-0.000
274.00,0.001
275.00,0.000
276.00,0.000
277.00,-0.000
278.00,0.002
279.00,0.001
280.00,-0.000
281.00,0.001
282.00,0.001
283.00,0.001
284.00,0.001
285.00,-0.001
286.00,0.001
287.00,0.001
288.00,0.001
289.00,0.000
290.00,0.002
291.00,0.000
292.00,-0.000
293.00,-0.000
294.00,0.001
295.00,-0.001
296.00,-0.001
297.00,-0.000
298.00,0.001
299.00,0.000
300.00,0.002
301.00,-0.001
302.00,-0.000
303.00,0.001
304.00,0.001
305.00,0.002
306.00,0.003
307.00,0.004
308.00,0.007
309.00,0.012
310.00,0.018
311.00,0.031
312.00,0.047
313.00,0.072
314.00,0.103
315.00,0.158
316.00,0.223
317.00,0.323
318.00,0.430
319.00,0.583
320.00,0.778
321.00,1.001
322.00,1.282
323.00,1.627
324.00,2.006
325.00,2.398
326.00,2.829
327.00,3.394
328.00,3.946
329.00,4.566
330.00,5.228
331.00,5.938
332.00,6.662
333.00,7.425
334.00,8.196
335.00,9.016
336.00,9.834
337.00,10.658
338.00,11.510
339.00,12.248
340.00,13.056
341.00,13.883
342.00,14.667
343.00,15.396
344.00,16.079
345.00,16.849
346.00,17.466
347.00,18.102
348.00,18.723
349.00,19.267
350.00,19.758
351.00,20.246
352.00,20.641
353.00,21.198
354.00,21.615
355.00,21.988
356.00,22.354
357.00,22.643
358.00,22.932
359.00,23.347
360.00,23.642
361.00,23.871
362.00,24.045
363.00,24.315
364.00,24.391
365.00,24.553
366.00,24.728
367.00,24.853
368.00,24.970
369.00,25.004
370.00,25.069
371.00,25.096
372.00,25.072
373.00,25.116
374.00,25.124
375.00,25.077
376.00,24.988
377.00,24.922
378.00,24.828
379.00,24.712
380.00,24.736
381.00,24.723
382.00,24.722
383.00,24.774
384.00,24.850
385.00,24.959
386.00,24.988
387.00,25.125
388.00,25.194
389.00,25.260
390.00,25.273
391.00,25.398
392.00,25.384
393.00,25.511
394.00,25.537
395.00,25.625
396.00,25.557
397.00,25.606
398.00,25.631
399.00,25.652
400.00,25.681
401.00,25.701
402.00,25.690
403.00,25.708
404.00,25.697
405.00,25.687
406.00,25.680
407.00,25.626
408.00,25.636
409.00,25.564
410.00,25.509
411.00,25.544
412.00,25.472
413.00,25.526
414.00,25.466
415.00,25.477
416.00,25.555
417.00,25.485
418.00,25.518
419.00,25.603
420.00,25.645
421.00,25.697
422.00,25.695
423.00,25.734
424.00,25.782
425.00,25.803
426.00,25.824
427.00,25.907
428.00,25.933
429.00,25.949
430.00,26.034
431.00,26.102
432.00,26.159
433.00,26.182
434.00,26.186
435.00,26.293
436.00,26.297
437.00,26.427
438.00,26.507
439.00,26.548
440.00,26.648
441.00,26.701
442.00,26.783
443.00,26.900
444.00,26.973
445.00,27.055
446.00,27.156
447.00,27.243
448.00,27.335
449.00,27.474
450.00,27.572
451.00,27.692
452.00,27.776
453.00,27.979
454.00,28.080
455.00,28.102
456.00,28.259
457.00,28.338
458.00,28.422
459.00,28.560
460.00,28.735
461.00,28.857
462.00,28.961
463.00,29.119
464.00,29.252
465.00,29.369
466.00,29.466
467.00,29.658
468.00,29.712
469.00,29.829
470.00,29.900
471.00,30.012
472.00,30.137
473.00,30.204
474.00,30.336
475.00,30.456
476.00,30.508
477.00,30.640
478.00,30.776
479.00,30.925
480.00,31.060
481.00,31.163
482.00,31.358
483.00,31.469
484.00,31.678
485.00,31.765
486.00,31.923
487.00,32.055
488.00,32.169
489.00,32.368
490.00,32.498
491.00,32.587
492.00,32.769
493.00,32.967
494.00,33.094
495.00,33.121
496.00,33.246
497.00,33.334
498.00,33.517
499.00,33.633
500.00,33.752
501.00,33.861
502.00,33.978
503.00,34.127
504.00,34.181
505.00,34.255
506.00,34.330
507.00,34.433
508.00,34.583
509.00,34.773
510.00,34.899
511.00,34.962
512.00,35.137
513.00,35.308
514.00,35.398
515.00,35.467
516.00,35.594
517.00,35.618
518.00,35.768
519.00,35.834
520.00,35.869
521.00,35.963
522.00,36.082
523.00,36.111
524.00,36.204
525.00,36.316
526.00,36.386
527.00,36.424
528.00,36.499
529.00,36.671
530.00,36.809
531.00,36.927
532.00,37.001
533.00,37.079
534.00,37.187
535.00,37.260
536.00,37.271
537.00,37.405
538.00,37.463
539.00,37.485
540.00,37.595
541.00,37.670
542.00,37.662
543.00,37.713
544.00,37.828
545.00,37.860
546.00,37.925
547.00,38.092
548.00,38.118
549.00,38.144
550.00,38.233
551.00,38.359
552.00,38.391
553.00,38.412
554.00,38.502
555.00,38.504
556.00,38.543
557.00,38.611
558.00,38.703
559.00,38.768
560.00,38.884
561.00,38.889
562.00,38.962
563.00,38.979
564.00,39.019
565.00,39.040
566.00,39.045
567.00,39.098
568.00,39.084
569.00,39.157
570.00,39.220
571.00,39.248
572.00,39.268
573.00,39.253
574.00,39.311
575.00,39.269
576.00,39.308
577.00,39.331
578.00,39.431
579.00,39.530
580.00,39.545
581.00,39.721
582.00,39.707
583.00,39.696
584.00,39.864
585.00,39.889
586.00,39.925
587.00,40.035
588.00,40.023
589.00,39.933
590.00,39.993
591.00,40.101
592.00,40.032
593.00,40.139
594.00,40.255
595.00,40.306
596.00,40.345
597.00,40.342
598.00,40.410
599.00,40.426
600.00,40.457
601.00,40.432
602.00,40.518
603.00,40.552
604.00,40.541
605.00,40.584
606.00,40.626
607.00,40.598
608.00,40.839
609.00,40.918
610.00,40.789
611.00,40.812
612.00,40.923
613.00,40.990
614.00,40.983
615.00,41.080
616.00,41.166
617.00,41.080
618.00,41.116
619.00,41.184
620.00,41.256
621.00,41.240
622.00,41.314
623.00,41.441
624.00,41.453
625.00,41.522
626.00,41.576
627.00,41.674
628.00,41.636
629.00,41.651
630.00,41.707
631.00,41.759
632.00,41.872
633.00,41.940
634.00,42.042
635.00,42.119
636.00,42.172
637.00,42.218
638.00,42.249
639.00,42.402
640.00,42.350
641.00,42.381
642.00,42.435
643.00,42.564
644.00,42.572
645.00,42.683
646.00,42.821
647.00,42.855
648.00,42.914
649.00,42.884
650.00,42.906
651.00,43.039
652.00,43.083
653.00,43.096
654.00,43.117
655.00,43.267
656.00,43.597
657.00,43.433
658.00,43.552
659.00,43.662
660.00,43.781
661.00,43.651
662.00,43.692
663.00,43.859
664.00,44.126
665.00,44.275
666.00,44.125
667.00,44.336
668.00,44.261
669.00,44.430
670.00,44.736
671.00,44.459
672.00,44.637
673.00,45.025
674.00,44.812
675.00,44.901
676.00,45.104
677.00,45.197
678.00,44.974
679.00,45.213
680.00,45.267
681.00,45.522
682.00,45.497
683.00,45.478
684.00,45.688
685.00,45.636
686.00,45.455
687.00,45.573
688.00,45.726
689.00,45.821
690.00,45.978
691.00,46.260
692.00,45.985
693.00,45.862
694.00,46.145
695.00,46.484
696.00,46.471
697.00,46.447
698.00,46.533
699.00,46.731
700.00,46.681
701.00,46.645
702.00,46.879
703.00,46.952
704.00,47.039
705.00,46.909
706.00,46.985
707.00,47.043
708.00,46.898
709.00,47.264
710.00,47.654
711.00,47.237
712.00,47.268
713.00,47.439
714.00,47.549
715.00,47.562
716.00,47.493
717.00,47.677
718.00,47.811
719.00,47.764
720.00,47.772
721.00,52.257
722.00,52.282
723.00,52.311
724.00,52.236
725.00,52.296
726.00,52.294
727.00,52.315
728.00,52.331
729.00,52.294
730.00,52.338
731.00,52.276
732.00,52.264
733.00,52.335
734.00,52.334
735.00,52.378
736.00,52.381
737.00,52.370
738.00,52.444
739.00,52.465
740.00,52.514
741.00,52.555
742.00,52.555
743.00,52.603
744.00,52.505
745.00,52.454
746.00,52.520
747.00,52.506
748.00,52.498
749.00,52.421
750.00,52.444
751.00,52.422
752.00,52.518
753.00,52.354
754.00,52.415
755.00,52.405
756.00,52.448
757.00,52.459
758.00,52.438
759.00,52.420
760.00,52.462
761.00,52.403
762.00,52.427
763.00,52.488
764.00,52.448
765.00,52.399
766.00,52.376
767.00,52.482
768.00,52.476
769.00,52.478
770.00,52.516
771.00,52.439
772.00,52.478
773.00,52.428
774.00,52.454
775.00,52.463
776.00,52.393
777.00,52.503
778.00,52.411
779.00,52.506
780.00,52.432
781.00,52.408
782.00,52.534
783.00,52.411
784.00,52.465
785.00,52.347
786.00,52.386
787.00,52.301
788.00,52.297
789.00,52.317
790.00,52.268
791.00,52.354
792.00,52.270
793.00,52.207
794.00,52.055
795.00,52.301
796.00,52.184
797.00,52.100
798.00,52.156
799.00,52.084
800.00,52.047
801.00,52.022
802.00,52.059
803.00,52.070
804.00,51.995
805.00,52.097
806.00,52.011
807.00,51.990
808.00,51.947
809.00,51.904
810.00,51.929
811.00,51.959
812.00,51.856
813.00,51.865
814.00,51.884
815.00,51.812
816.00,51.812
817.00,51.763
818.00,51.651
819.00,51.730
820.00,51.646
821.00,51.710
822.00,51.676
823.00,51.607
824.00,51.616
825.00,51.635
826.00,51.556
827.00,51.640
828.00,51.569
829.00,51.497
830.00,51.583
831.00,53.839
832.00,53.843
833.00,53.747
834.00,53.771
835.00,53.813
836.00,53.685
837.00,53.681
838.00,53.676
839.00,53.690
840.00,53.617
841.00,53.594
842.00,53.621
843.00,53.618
844.00,53.578
845.00,53.532
846.00,53.518
847.00,53.486
848.00,53.505
849.00,53.447
850.00,53.406
851.00,53.322
852.00,53.351
853.00,53.288
854.00,53.297
855.00,53.225
856.00,53.210
857.00,53.196
858.00,53.161
859.00,53.154
860.00,53.133
861.00,53.160
862.00,53.078
863.00,53.090
864.00,53.047
865.00,53.093
866.00,53.054
867.00,53.054
868.00,53.017
869.00,52.993
870.00,52.997
871.00,52.991
872.00,52.963
873.00,52.984
874.00,52.960
875.00,52.903
876.00,52.892
877.00,52.881
878.00,52.860
879.00,52.840
880.00,52.845
881.00,52.834
882.00,52.854
883.00,52.778
884.00,52.741
885.00,52.897
886.00,52.723
887.00,52.679
888.00,52.677
889.00,52.643
890.00,52.657
891.00,52.623
892.00,52.592
893.00,52.575
894.00,52.539
895.00,52.666
896.00,52.523
897.00,52.465
898.00,52.462
899.00,52.488
900.00,52.449
901.00,52.474
902.00,52.450
903.00,52.405
904.00,52.379
905.00,52.419
906.00,52.312
907.00,52.347
908.00,52.286
909.00,52.305
910.00,52.267
911.00,52.240
912.00,52.242
913.00,52.165
914.00,52.215
915.00,52.154
916.00,52.156
917.00,52.126
918.00,52.134
919.00,52.084
920.00,52.050
921.00,52.083
922.00,52.069
923.00,52.005
924.00,51.993
925.00,52.003
926.00,51.973
927.00,51.965
928.00,51.945
929.00,51.915
930.00,51.877
931.00,51.863
932.00,51.865
933.00,51.848
934.00,51.780
935.00,51.787
936.00,51.741
937.00,51.724
938.00,51.731
939.00,51.743
940.00,51.694
941.00,51.701
942.00,51.650
943.00,51.674
944.00,51.611
945.00,51.632
946.00,51.610
947.00,51.580
948.00,51.543
949.00,51.525
950.00,51.498
951.00,51.468
952.00,51.473
953.00,51.401
954.00,51.388
955.00,51.434
956.00,51.372
957.00,51.287
958.00,51.344
959.00,51.274
960.00,51.274
961.00,51.260
962.00,51.265
963.00,51.227
964.00,51.207
965.00,51.217
966.00,51.199
967.00,51.178
968.00,51.160
969.00,51.199
970.00,51.182
971.00,51.183
972.00,51.149
973.00,51.179
974.00,51.189
975.00,51.144
976.00,51.182
977.00,51.152
978.00,51.181
979.00,51.159
980.00,51.170
981.00,51.152
982.00,51.140
983.00,51.149
984.00,51.135
985.00,51.185
986.00,51.110
987.00,51.141
988.00,51.096
989.00,51.082
990.00,51.088
991.00,51.065
992.00,51.078
993.00,51.048
994.00,51.041
995.00,51.018
996.00,51.023
997.00,51.006
998.00,50.971
999.00,50.995
1000.00,50.949
1001.00,50.943
1002.00,50.876
1003.00,50.915
1004.00,50.907
1005.00,50.881
1006.00,50.911
1007.00,50.876
1008.00,50.861
1009.00,50.835
1010.00,50.830
1011.00,50.822
1012.00,50.802
1013.00,50.809
1014.00,50.765
1015.00,50.812
1016.00,50.815
1017.00,50.756
1018.00,50.713
1019.00,50.691
1020.00,50.699
1021.00,50.672
1022.00,50.668
1023.00,50.638
1024.00,50.640
1025.00,50.613
1026.00,50.596
1027.00,50.562
1028.00,50.562
1029.00,50.545
1030.00,50.487
1031.00,50.548
1032.00,50.494
1033.00,50.498
1034.00,50.491
1035.00,50.452
1036.00,50.413
1037.00,50.396
1038.00,50.383
1039.00,50.359
1040.00,50.362
1041.00,50.311
1042.00,50.315
1043.00,50.295
1044.00,50.314
1045.00,50.297
1046.00,50.289
1047.00,50.307
1048.00,50.319
1049.00,50.324
1050.00,50.323
1051.00,50.366
1052.00,50.360
1053.00,50.380
1054.00,50.368
1055.00,50.400
1056.00,50.412
1057.00,50.422
1058.00,50.406
1059.00,50.400
1060.00,50.417
1061.00,50.397
1062.00,50.381
1063.00,50.376
1064.00,50.358
1065.00,50.363
1066.00,50.345
1067.00,50.350
1068.00,50.372
1069.00,50.343
1070.00,50.319
1071.00,50.295
1072.00,50.318
1073.00,50.292
1074.00,50.272
1075.00,50.272
1076.00,50.300
1077.00,50.281
1078.00,50.249
1079.00,50.256
1080.00,50.251
1081.00,50.235
1082.00,50.237
1083.00,50.218
1084.00,50.210
1085.00,50.205
1086.00,50.204
1087.00,50.207
1088.00,50.187
1089.00,50.187
1090.00,50.194
1091.00,50.190
1092.00,50.192
1093.00,50.156
1094.00,50.138
1095.00,50.139
1096.00,50.112
1097.00,50.111
1098.00,50.110
1099.00,50.095
1100.00,50.100
1101.00,50.087
1102.00,50.074
1103.00,50.077
1104.00,50.052
1105.00,50.035
1106.00,50.029
1107.00,50.013
1108.00,50.009
1109.00,50.014
1110.00,50.000
1111.00,50.005
1112.00,49.991
1113.00,49.984
1114.00,49.980
1115.00,49.976
1116.00,49.969
1117.00,49.960
1118.00,49.939
1119.00,49.935
1120.00,49.951
1121.00,49.918
1122.00,49.902
1123.00,49.953
1124.00,49.895
1125.00,49.898
1126.00,49.907
1127.00,49.897
1128.00,49.886
1129.00,49.876
1130.00,49.889
1131.00,49.882
1132.00,49.873
1133.00,49.866
1134.00,49.845
1135.00,49.815
1136.00,49.823
1137.00,49.838
1138.00,49.845
1139.00,49.847
1140.00,49.823
1141.00,49.828
1142.00,49.815
1143.00,49.831
1144.00,49.813
1145.00,49.820
1146.00,49.814
1147.00,49.814
1148.00,49.801
1149.00,49.815
1150.00,49.821
1151.00,49.805
1152.00,49.797
1153.00,49.798
1154.00,49.781
1155.00,49.795
1156.00,49.789
1157.00,49.788
1158.00,49.787
1159.00,49.791
1160.00,49.773
1161.00,49.783
1162.00,49.769
1163.00,49.782
1164.00,49.780
1165.00,49.772
1166.00,49.769
1167.00,49.766
1168.00,49.772
1169.00,49.763
1170.00,49.762
1171.00,49.746
1172.00,49.757
1173.00,49.749
1174.00,49.762
1175.00,49.764
1176.00,49.761
1177.00,49.757
1178.00,49.759
1179.00,49.764
1180.00,49.763
1181.00,49.782
1182.00,49.769
1183.00,49.788
1184.00,49.785
1185.00,49.764
1186.00,49.750
1187.00,49.762
1188.00,49.749
1189.00,49.756
1190.00,49.747
1191.00,49.743
1192.00,49.757
1193.00,49.749
1194.00,49.760
1195.00,49.727
1196.00,49.773
1197.00,49.763
1198.00,49.750
1199.00,49.766
1200.00,49.758
1201.00,49.766
1202.00,49.741
1203.00,49.731
1204.00,49.725
1205.00,49.756
1206.00,49.739
1207.00,49.750
1208.00,49.739
1209.00,49.748
1210.00,49.760
1211.00,49.762
1212.00,49.778
1213.00,49.738
1214.00,49.781
1215.00,49.760
1216.00,49.764
1217.00,49.760
1218.00,49.749
1219.00,49.768
1220.00,49.748
1221.00,49.765
1222.00,49.747
1223.00,49.762
1224.00,49.760
1225.00,49.749
1226.00,49.751
1227.00,49.750
1228.00,49.758
1229.00,49.770
1230.00,49.802
1231.00,49.791
1232.00,49.816
1233.00,49.826
1234.00,49.830
1235.00,49.824
1236.00,49.832
1237.00,49.817
1238.00,49.833
1239.00,49.852
1240.00,49.822
1241.00,49.830
1242.00,49.837
1243.00,49.847
1244.00,49.825
1245.00,49.877
1246.00,49.863
1247.00,49.845
1248.00,49.855
1249.00,49.867
1250.00,49.865
1251.00,49.851
1252.00,49.875
1253.00,49.851
1254.00,49.884
1255.00,49.890
1256.00,49.844
1257.00,49.895
1258.00,49.914
1259.00,49.906
1260.00,49.951
1261.00,49.915
1262.00,49.923
1263.00,49.911
1264.00,49.926
1265.00,49.934
1266.00,49.943
1267.00,49.957
1268.00,49.964
1269.00,49.961
1270.00,49.977
1271.00,49.986
1272.00,49.985
1273.00,50.006
1274.00,50.013
1275.00,50.023
1276.00,50.016
1277.00,50.015
1278.00,50.019
1279.00,50.018
1280.00,50.014
1281.00,50.022
1282.00,50.046
1283.00,50.015
1284.00,50.035
1285.00,50.032
1286.00,50.050
1287.00,50.054
1288.00,50.063
1289.00,50.051
1290.00,50.096
1291.00,50.081
1292.00,50.076
1293.00,50.083
1294.00,50.097
1295.00,50.122
1296.00,50.113
1297.00,50.120
1298.00,50.148
1299.00,50.137
1300.00,50.143
1301.00,50.140
1302.00,50.161
1303.00,50.153
1304.00,50.164
1305.00,50.189
1306.00,50.178
1307.00,50.198
1308.00,50.196
1309.00,50.206
1310.00,50.215
1311.00,50.196
1312.00,50.193
1313.00,50.213
1314.00,50.237
1315.00,50.270
1316.00,50.253
1317.00,50.275
1318.00,50.291
1319.00,50.286
1320.00,50.300
1321.00,50.448
1322.00,50.435
1323.00,50.434
1324.00,50.428
1325.00,50.418
1326.00,50.451
1327.00,50.449
1328.00,50.417
1329.00,50.443
1330.00,50.446
1331.00,50.470
1332.00,50.458
1333.00,50.485
1334.00,50.498
1335.00,50.515
1336.00,50.510
1337.00,50.569
1338.00,50.617
1339.00,50.655
1340.00,50.720
1341.00,50.784
1342.00,50.858
1343.00,50.899
1344.00,50.930
1345.00,51.008
1346.00,51.037
1347.00,51.034
1348.00,51.079
1349.00,51.125
1350.00,51.124
1351.00,51.163
1352.00,51.155
1353.00,51.198
1354.00,51.177
1355.00,51.089
1356.00,51.230
1357.00,51.203
1358.00,51.259
1359.00,51.286
1360.00,51.307
1361.00,51.129
1362.00,51.079
1363.00,51.311
1364.00,51.239
1365.00,51.278
1366.00,51.369
1367.00,51.204
1368.00,51.211
1369.00,51.315
1370.00,51.195
1371.00,51.139
1372.00,51.198
1373.00,51.239
1374.00,51.252
1375.00,51.247
1376.00,51.213
1377.00,51.235
1378.00,51.285
1379.00,51.295
1380.00,51.300
1381.00,51.344
1382.00,51.256
1383.00,51.280
1384.00,51.184
1385.00,51.177
1386.00,51.245
1387.00,51.246
1388.00,51.122
1389.00,51.145
1390.00,50.860
1391.00,51.140
1392.00,51.287
1393.00,51.297
1394.00,51.258
1395.00,51.028
1396.00,51.257
1397.00,51.124
1398.00,51.520
1399.00,51.174
1400.00,51.147
1401.00,51.190
1402.00,51.417
1403.00,51.179
1404.00,51.223
1405.00,51.302
1406.00,51.280
1407.00,51.305
1408.00,51.286
1409.00,51.304
1410.00,51.348
1411.00,51.252
1412.00,51.398
1413.00,51.163
1414.00,51.284
1415.00,51.336
1416.00,51.368
1417.00,51.458
1418.00,51.381
1419.00,51.371
1420.00,51.430
1421.00,51.469
1422.00,51.451
1423.00,51.462
1424.00,51.459
1425.00,51.467
1426.00,51.510
1427.00,51.534
1428.00,51.530
1429.00,51.513
1430.00,51.574
1431.00,51.577
1432.00,51.588
1433.00,51.627
1434.00,51.616
1435.00,51.680
1436.00,51.693
1437.00,51.674
1438.00,51.695
1439.00,51.737
1440.00,51.746
1441.00,51.753
1442.00,51.758
1443.00,51.753
1444.00,51.876
1445.00,51.799
1446.00,51.778
1447.00,51.835
1448.00,51.868
1449.00,51.920
1450.00,51.902
1451.00,51.969
1452.00,51.943
1453.00,51.969
1454.00,51.968
1455.00,52.001
1456.00,52.016
1457.00,51.992
1458.00,52.055
1459.00,52.066
1460.00,52.061
1461.00,52.066
1462.00,52.096
1463.00,52.129
1464.00,52.147
1465.00,52.146
1466.00,52.164
1467.00,52.204
1468.00,52.219
1469.00,52.219
1470.00,52.275
1471.00,52.317
1472.00,52.276
1473.00,52.298
1474.00,52.322
1475.00,52.340
1476.00,52.351
1477.00,52.352
1478.00,52.372
1479.00,52.376
1480.00,52.388
1481.00,52.414
1482.00,52.439
1483.00,52.465
1484.00,52.477
1485.00,52.481
1486.00,52.488
1487.00,52.511
1488.00,52.537
1489.00,52.545
1490.00,52.541
1491.00,52.568
1492.00,52.583
1493.00,52.554
1494.00,52.607
1495.00,52.599
1496.00,52.645
1497.00,52.644
1498.00,52.643
1499.00,52.680
1500.00,52.690
1501.00, 
1502.00, 
1503.00, 
1504.00, 
1505.00, 
1506.00, 
1507.00, 
1508.00, 
1509.00, 
1510.00, 
1511.00, 
1512.00, 
1513.00, 
1514.00, 
1515.00, 
1516.00, 
1517.00, 
1518.00, 
1519.00, 
1520.00, 
1521.00, 
1522.00, 
1523.00, 
1524.00, 
1525.00, 
1526.00, 
1527.00, 
1528.00, 
1529.00, 
1530.00, 
1531.00, 
1532.00, 
1533.00, 
1534.00, 
1535.00, 
1536.00, 
1537.00, 
1538.00, 
1539.00, 
1540.00, 
1541.00, 
1542.00, 
1543.00, 
1544.00, 
1545.00, 
1546.00, 
1547.00, 
1548.00, 
1549.00, 
1550.00, 
1551.00, 
1552.00, 
1553.00, 
1554.00, 
1555.00, 
1556.00, 
1557.00, 
1558.00, 
1559.00, 
1560.00, 
1561.00, 
1562.00, 
1563.00, 
1564.00, 
1565.00, 
1566.00, 
1567.00, 
1568.00, 
1569.00, 
1570.00, 
1571.00, 
1572.00, 
1573.00, 
1574.00, 
1575.00, 
1576.00, 
1577.00, 
1578.00, 
1579.00, 
1580.00, 
1581.00, 
1582.00, 
1583.00, 
1584.00, 
1585.00, 
1586.00, 
1587.00, 
1588.00, 
1589.00, 
1590.00, 
1591.00, 
1592.00, 
1593.00, 
1594.00, 
1595.00, 
1596.00, 
1597.00, 
1598.00, 
1599.00, 
1600.00, 
1601.00, 
1602.00, 
1603.00, 
1604.00, 
1605.00, 
1606.00, 
1607.00, 
1608.00, 
1609.00, 
1610.00, 
1611.00, 
1612.00, 
1613.00, 
1614.00, 
1615.00, 
1616.00, 
1617.00, 
1618.00, 
1619.00, 
1620.00, 
1621.00, 
1622.00, 
1623.00, 
1624.00, 
1625.00, 
1626.00, 
1627.00, 
1628.00, 
1629.00, 
1630.00, 
1631.00, 
1632.00, 
1633.00, 
1634.00, 
1635.00, 
1636.00, 
1637.00, 
1638.00, 
1639.00, 
1640.00, 
1641.00, 
1642.00, 
1643.00, 
1644.00, 
1645.00, 
1646.00, 
1647.00, 
1648.00, 
1649.00, 
1650.00, 
1651.00, 
1652.00, 
1653.00, 
1654.00, 
1655.00, 
1656.00, 
1657.00, 
1658.00, 
1659.00, 
1660.00, 
1661.00, 
1662.00, 
1663.00, 
1664.00, 
1665.00, 
1666.00, 
1667.00, 
1668.00, 
1669.00, 
1670.00, 
1671.00, 
1672.00, 
1673.00, 
1674.00, 
1675.00, 
1676.00, 
1677.00, 
1678.00, 
1679.00, 
1680.00, 
1681.00, 
1682.00, 
1683.00, 
1684.00, 
1685.00, 
1686.00, 
1687.00, 
1688.00, 
1689.00, 
1690.00, 
1691.00, 
1692.00, 
1693.00, 
1694.00, 
1695.00, 
1696.00, 
1697.00, 
1698.00, 
1699.00, 
1700.00, 
1701.00, 
1702.00, 
1703.00, 
1704.00, 
1705.00, 
1706.00, 
1707.00, 
1708.00, 
1709.00, 
1710.00, 
1711.00, 
1712.00, 
1713.00, 
1714.00, 
1715.00, 
1716.00, 
1717.00, 
1718.00, 
1719.00, 
1720.00, 
1721.00, 
1722.00, 
1723.00, 
1724.00, 
1725.00, 
1726.00, 
1727.00, 
1728.00, 
1729.00, 
1730.00, 
1731.00, 
1732.00, 
1733.00, 
1734.00, 
1735.00, 
1736.00, 
1737.00, 
1738.00, 
1739.00, 
1740.00, 
1741.00, 
1742.00, 
1743.00, 
1744.00, 
1745.00, 
1746.00, 
1747.00, 
1748.00, 
1749.00, 
1750.00, 
1751.00, 
1752.00, 
1753.00, 
1754.00, 
1755.00, 
1756.00, 
1757.00, 
1758.00, 
1759.00, 
1760.00, 
1761.00, 
1762.00, 
1763.00, 
1764.00, 
1765.00, 
1766.00, 
1767.00, 
1768.00, 
1769.00, 
1770.00, 
1771.00, 
1772.00, 
1773.00, 
1774.00, 
1775.00, 
1776.00, 
1777.00, 
1778.00, 
1779.00, 
1780.00, 
1781.00, 
1782.00, 
1783.00, 
1784.00, 
1785.00, 
1786.00, 
1787.00, 
1788.00, 
1789.00, 
1790.00, 
1791.00, 
1792.00, 
1793.00, 
1794.00, 
1795.00, 
1796.00, 
1797.00, 
1798.00, 
1799.00, 
1800.00, 
1801.00, 
1802.00, 
1803.00, 
1804.00, 
1805.00, 
1806.00, 
1807.00, 
1808.00, 
1809.00, 
1810.00, 
1811.00, 
1812.00, 
1813.00, 
1814.00, 
1815.00, 
1816.00, 
1817.00, 
1818.00, 
1819.00, 
1820.00, 
1821.00, 
1822.00, 
1823.00, 
1824.00, 
1825.00, 
1826.00, 
1827.00, 
1828.00, 
1829.00, 
1830.00, 
1831.00, 
1832.00, 
1833.00, 
1834.00, 
1835.00, 
1836.00, 
1837.00, 
1838.00, 
1839.00, 
1840.00, 
1841.00, 
1842.00, 
1843.00, 
1844.00, 
1845.00, 
1846.00, 
1847.00, 
1848.00, 
1849.00, 
1850.00, 
1851.00, 
1852.00, 
1853.00, 
1854.00, 
1855.00, 
1856.00, 
1857.00, 
1858.00, 
1859.00, 
1860.00, 
1861.00, 
1862.00, 
1863.00, 
1864.00, 
1865.00, 
1866.00, 
1867.00, 
1868.00, 
1869.00, 
1870.00, 
1871.00, 
1872.00, 
1873.00, 
1874.00, 
1875.00, 
1876.00, 
1877.00, 
1878.00, 
1879.00, 
1880.00, 
1881.00, 
1882.00, 
1883.00, 
1884.00, 
1885.00, 
1886.00, 
1887.00, 
1888.00, 
1889.00, 
1890.00, 
1891.00, 
1892.00, 
1893.00, 
1894.00, 
1895.00, 
1896.00, 
1897.00, 
1898.00, 
1899.00, 
1900.00, 
1901.00, 
1902.00, 
1903.00, 
1904.00, 
1905.00, 
1906.00, 
1907.00, 
1908.00, 
1909.00, 
1910.00, 
1911.00, 
1912.00, 
1913.00, 
1914.00, 
1915.00, 
1916.00, 
1917.00, 
1918.00, 
1919.00, 
1920.00, 
1921.00, 
1922.00, 
1923.00, 
1924.00, 
1925.00, 
1926.00, 
1927.00, 
1928.00, 
1929.00, 
1930.00, 
1931.00, 
1932.00, 
1933.00, 
1934.00, 
1935.00, 
1936.00, 
1937.00, 
1938.00, 
1939.00, 
1940.00, 
1941.00, 
1942.00, 
1943.00, 
1944.00, 
1945.00, 
1946.00, 
1947.00, 
1948.00, 
1949.00, 
1950.00, 
1951.00, 
1952.00, 
1953.00, 
1954.00, 
1955.00, 
1956.00, 
1957.00, 
1958.00, 
1959.00, 
1960.00, 
1961.00, 
1962.00, 
1963.00, 
1964.00, 
1965.00, 
1966.00, 
1967.00, 
1968.00, 
1969.00, 
1970.00, 
1971.00, 
1972.00, 
1973.00, 
1974.00, 
1975.00, 
1976.00, 
1977.00, 
1978.00, 
1979.00, 
1980.00, 
1981.00, 
1982.00, 
1983.00, 
1984.00, 
1985.00, 
1986.00, 
1987.00, 
1988.00, 
1989.00, 
1990.00, 
1991.00, 
1992.00, 
1993.00, 
1994.00, 
1995.00, 
1996.00, 
1997.00, 
1998.00, 
1999.00, 
2000.00, 
2001.00, 
2002.00, 
2003.00, 
2004.00, 
2005.00, 
2006.00, 
2007.00, 
2008.00, 
2009.00, 
2010.00, 
2011.00, 
2012.00, 
2013.00, 
2014.00, 
2015.00, 
2016.00, 
2017.00, 
2018.00, 
2019.00, 
2020.00, 
2021.00, 
2022.00, 
2023.00, 
2024.00, 
2025.00, 
2026.00, 
2027.00, 
2028.00, 
2029.00, 
2030.00, 
2031.00, 
2032.00, 
2033.00, 
2034.00, 
2035.00, 
2036.00, 
2037.00, 
2038.00, 
2039.00, 
2040.00, 
2041.00, 
2042.00, 
2043.00, 
2044.00, 
2045.00, 
2046.00, 
2047.00, 
2048.00, 
2049.00, 
2050.00, 
2051.00, 
2052.00, 
2053.00, 
2054.00, 
2055.00, 
2056.00, 
2057.00, 
2058.00, 
2059.00, 
2060.00, 
2061.00, 
2062.00, 
2063.00, 
2064.00, 
2065.00, 
2066.00, 
2067.00, 
2068.00, 
2069.00, 
2070.00, 
2071.00, 
2072.00, 
2073.00, 
2074.00, 
2075.00, 
2076.00, 
2077.00, 
2078.00, 
2079.00, 
2080.00, 
2081.00, 
2082.00, 
2083.00, 
2084.00, 
2085.00, 
2086.00, 
2087.00, 
2088.00, 
2089.00, 
2090.00, 
2091.00, 
2092.00, 
2093.00, 
2094.00, 
2095.00, 
2096.00, 
2097.00, 
2098.00, 
2099.00, 
2100.00, 
2101.00, 
2102.00, 
2103.00, 
2104.00, 
2105.00, 
2106.00, 
2107.00, 
2108.00, 
2109.00, 
2110.00, 
2111.00, 
2112.00, 
2113.00, 
2114.00, 
2115.00, 
2116.00, 
2117.00, 
2118.00, 
2119.00, 
2120.00, 
2121.00, 
2122.00, 
2123.00, 
2124.00, 
2125.00, 
2126.00, 
2127.00, 
2128.00, 
2129.00, 
2130.00, 
2131.00, 
2132.00, 
2133.00, 
2134.00, 
2135.00, 
2136.00, 
2137.00, 
2138.00, 
2139.00, 
2140.00, 
2141.00, 
2142.00, 
2143.00, 
2144.00, 
2145.00, 
2146.00, 
2147.00, 
2148.00, 
2149.00, 
2150.00, 
2151.00, 
2152.00, 
2153.00, 
2154.00, 
2155.00, 
2156.00, 
2157.00, 
2158.00, 
2159.00, 
2160.00, 
2161.00, 
2162.00, 
2163.00, 
2164.00, 
2165.00, 
2166.00, 
2167.00, 
2168.00, 
2169.00, 
2170.00, 
2171.00, 
2172.00, 
2173.00, 
2174.00, 
2175.00, 
2176.00, 
2177.00, 
2178.00, 
2179.00, 
2180.00, 
2181.00, 
2182.00, 
2183.00, 
2184.00, 
2185.00, 
2186.00, 
2187.00, 
2188.00, 
2189.00, 
2190.00, 
2191.00, 
2192.00, 
2193.00, 
2194.00, 
2195.00, 
2196.00, 
2197.00, 
2198.00, 
2199.00, 
2200.00, 
2201.00, 
2202.00, 
2203.00, 
2204.00, 
2205.00, 
2206.00, 
2207.00, 
2208.00, 
2209.00, 
2210.00, 
2211.00, 
2212.00, 
2213.00, 
2214.00, 
2215.00, 
2216.00, 
2217.00, 
2218.00, 
2219.00, 
2220.00, 
2221.00, 
2222.00, 
2223.00, 
2224.00, 
2225.00, 
2226.00, 
2227.00, 
2228.00, 
2229.00, 
2230.00, 
2231.00, 
2232.00, 
2233.00, 
2234.00, 
2235.00, 
2236.00, 
2237.00, 
2238.00, 
2239.00, 
2240.00, 
2241.00, 
2242.00, 
2243.00, 
2244.00, 
2245.00, 
2246.00, 
2247.00, 
2248.00, 
2249.00, 
2250.00, 
2251.00, 
2252.00, 
2253.00, 
2254.00, 
2255.00, 
2256.00, 
2257.00, 
2258.00, 
2259.00, 
2260.00, 
2261.00, 
2262.00, 
2263.00, 
2264.00, 
2265.00, 
2266.00, 
2267.00, 
2268.00, 
2269.00, 
2270.00, 
2271.00, 
2272.00, 
2273.00, 
2274.00, 
2275.00, 
2276.00, 
2277.00, 
2278.00, 
2279.00, 
2280.00, 
2281.00, 
2282.00, 
2283.00, 
2284.00, 
2285.00, 
2286.00, 
2287.00, 
2288.00, 
2289.00, 
2290.00, 
2291.00, 
2292.00, 
2293.00, 
2294.00, 
2295.00, 
2296.00, 
2297.00, 
2298.00, 
2299.00, 
2300.00, 
2301.00, 
2302.00, 
2303.00, 
2304.00, 
2305.00, 
2306.00, 
2307.00, 
2308.00, 
2309.00, 
2310.00, 
2311.00, 
2312.00, 
2313.00, 
2314.00, 
2315.00, 
2316.00, 
2317.00, 
2318.00, 
2319.00, 
2320.00, 
2321.00, 
2322.00, 
2323.00, 
2324.00, 
2325.00, 
2326.00, 
2327.00, 
2328.00, 
2329.00, 
2330.00, 
2331.00, 
2332.00, 
2333.00, 
2334.00, 
2335.00, 
2336.00, 
2337.00, 
2338.00, 
2339.00, 
2340.00, 
2341.00, 
2342.00, 
2343.00, 
2344.00, 
2345.00, 
2346.00, 
2347.00, 
2348.00, 
2349.00, 
2350.00, 
2351.00, 
2352.00, 
2353.00, 
2354.00, 
2355.00, 
2356.00, 
2357.00, 
2358.00, 
2359.00, 
2360.00, 
2361.00, 
2362.00, 
2363.00, 
2364.00, 
2365.00, 
2366.00, 
2367.00, 
2368.00, 
2369.00, 
2370.00, 
2371.00, 
2372.00, 
2373.00, 
2374.00, 
2375.00, 
2376.00, 
2377.00, 
2378.00, 
2379.00, 
2380.00, 
2381.00, 
2382.00, 
2383.00, 
2384.00, 
2385.00, 
2386.00, 
2387.00, 
2388.00, 
2389.00, 
2390.00, 
2391.00, 
2392.00, 
2393.00, 
2394.00, 
2395.00, 
2396.00, 
2397.00, 
2398.00, 
2399.00, 
2400.00, 
2401.00, 
2402.00, 
2403.00, 
2404.00, 
2405.00, 
2406.00, 
2407.00, 
2408.00, 
2409.00, 
2410.00, 
2411.00, 
2412.00, 
2413.00, 
2414.00, 
2415.00, 
2416.00, 
2417.00, 
2418.00, 
2419.00, 
2420.00, 
2421.00, 
2422.00, 
2423.00, 
2424.00, 
2425.00, 
2426.00, 
2427.00, 
2428.00, 
2429.00, 
2430.00, 
2431.00, 
2432.00, 
2433.00, 
2434.00, 
2435.00, 
2436.00, 
2437.00, 
2438.00, 
2439.00, 
2440.00, 
2441.00, 
2442.00, 
2443.00, 
2444.00, 
2445.00, 
2446.00, 
2447.00, 
2448.00, 
2449.00, 
2450.00, 
2451.00, 
2452.00, 
2453.00, 
2454.00, 
2455.00, 
2456.00, 
2457.00, 
2458.00, 
2459.00, 
2460.00, 
2461.00, 
2462.00, 
2463.00, 
2464.00, 
2465.00, 
2466.00, 
2467.00, 
2468.00, 
2469.00, 
2470.00, 
2471.00, 
2472.00, 
2473.00, 
2474.00, 
2475.00, 
2476.00, 
2477.00, 
2478.00, 
2479.00, 
2480.00, 
2481.00, 
2482.00, 
2483.00, 
2484.00, 
2485.00, 
2486.00, 
2487.00, 
2488.00, 
2489.00, 
2490.00, 
2491.00, 
2492.00, 
2493.00, 
2494.00, 
2495.00, 
2496.00, 
2497.00, 
2498.00, 
2499.00, 
2500.00, 
2501.00, 
2502.00, 
2503.00, 
2504.00, 
2505.00, 
2506.00, 
2507.00, 
2508.00, 
2509.00, 
2510.00, 
2511.00, 
2512.00, 
2513.00, 
2514.00, 
2515.00, 
2516.00, 
2517.00, 
2518.00, 
2519.00, 
2520.00, 
2521.00, 
2522.00, 
2523.00, 
2524.00, 
2525.00, 
2526.00, 
2527.00, 
2528.00, 
2529.00, 
2530.00, 
2531.00, 
2532.00, 
2533.00, 
2534.00, 
2535.00, 
2536.00, 
2537.00, 
2538.00, 
2539.00, 
2540.00, 
2541.00, 
2542.00, 
2543.00, 
2544.00, 
2545.00, 
2546.00, 
2547.00, 
2548.00, 
2549.00, 
2550.00, 
2551.00, 
2552.00, 
2553.00, 
2554.00, 
2555.00, 
2556.00, 
2557.00, 
2558.00, 
2559.00, 
2560.00, 
2561.00, 
2562.00, 
2563.00, 
2564.00, 
2565.00, 
2566.00, 
2567.00, 
2568.00, 
2569.00, 
2570.00, 
2571.00, 
2572.00, 
2573.00, 
2574.00, 
2575.00, 
2576.00, 
2577.00, 
2578.00, 
2579.00, 
2580.00, 
2581.00, 
2582.00, 
2583.00, 
2584.00, 
2585.00, 
2586.00, 
2587.00, 
2588.00, 
2589.00, 
2590.00, 
2591.00, 
2592.00, 
2593.00, 
2594.00, 
2595.00, 
2596.00, 
2597.00, 
2598.00, 
2599.00, 
2600.00, 
