"2bP2 - RawData"
"Wavelength nm.","T%"
200.00,0.003
201.00,-0.001
202.00,0.006
203.00,0.003
204.00,-0.001
205.00,0.002
206.00,0.003
207.00,0.001
208.00,0.001
209.00,0.004
210.00,0.001
211.00,-0.001
212.00,0.002
213.00,0.001
214.00,0.002
215.00,0.003
216.00,0.004
217.00,0.002
218.00,-0.002
219.00,0.001
220.00,-0.001
221.00,0.003
222.00,0.002
223.00,0.001
224.00,0.001
225.00,-0.000
226.00,-0.001
227.00,-0.001
228.00,0.003
229.00,-0.000
230.00,0.004
231.00,0.003
232.00,0.000
233.00,-0.001
234.00,0.002
235.00,0.002
236.00,-0.001
237.00,0.000
238.00,-0.001
239.00,-0.001
240.00,0.002
241.00,-0.000
242.00,0.001
243.00,0.001
244.00,0.000
245.00,0.000
246.00,0.001
247.00,-0.000
248.00,0.001
249.00,0.001
250.00,0.001
251.00,-0.001
252.00,-0.000
253.00,0.001
254.00,0.000
255.00,0.001
256.00,0.000
257.00,0.001
258.00,-0.001
259.00,0.001
260.00,0.001
261.00,-0.001
262.00,0.000
263.00,0.001
264.00,0.000
265.00,-0.001
266.00,0.001
267.00,-0.001
268.00,0.001
269.00,0.002
270.00,0.002
271.00,0.001
272.00,0.001
273.00,0.001
274.00,-0.000
275.00,0.001
276.00,0.001
277.00,-0.001
278.00,0.001
279.00,0.001
280.00,0.001
281.00,-0.001
282.00,0.001
283.00,-0.000
284.00,-0.001
285.00,0.000
286.00,0.001
287.00,0.000
288.00,-0.000
289.00,0.000
290.00,0.001
291.00,-0.001
292.00,-0.000
293.00,0.002
294.00,0.001
295.00,0.001
296.00,0.001
297.00,0.001
298.00,0.000
299.00,0.002
300.00,0.003
301.00,0.005
302.00,0.008
303.00,0.009
304.00,0.015
305.00,0.026
306.00,0.039
307.00,0.056
308.00,0.088
309.00,0.129
310.00,0.180
311.00,0.234
312.00,0.331
313.00,0.444
314.00,0.582
315.00,0.750
316.00,0.954
317.00,1.191
318.00,1.459
319.00,1.783
320.00,2.161
321.00,2.570
322.00,3.034
323.00,3.552
324.00,4.089
325.00,4.629
326.00,5.174
327.00,5.847
328.00,6.524
329.00,7.190
330.00,7.889
331.00,8.610
332.00,9.350
333.00,10.055
334.00,10.769
335.00,11.534
336.00,12.256
337.00,12.943
338.00,13.680
339.00,14.349
340.00,15.031
341.00,15.713
342.00,16.333
343.00,16.910
344.00,17.407
345.00,18.048
346.00,18.553
347.00,19.016
348.00,19.508
349.00,19.930
350.00,20.306
351.00,20.707
352.00,21.032
353.00,21.366
354.00,21.710
355.00,21.972
356.00,22.256
357.00,22.455
358.00,22.703
359.00,22.995
360.00,23.228
361.00,23.383
362.00,23.558
363.00,23.744
364.00,23.863
365.00,23.899
366.00,24.061
367.00,24.115
368.00,24.221
369.00,24.242
370.00,24.304
371.00,24.318
372.00,24.294
373.00,24.307
374.00,24.321
375.00,24.299
376.00,24.273
377.00,24.241
378.00,24.194
379.00,24.100
380.00,24.106
381.00,24.073
382.00,24.052
383.00,24.051
384.00,24.107
385.00,24.151
386.00,24.150
387.00,24.260
388.00,24.278
389.00,24.277
390.00,24.340
391.00,24.366
392.00,24.380
393.00,24.395
394.00,24.398
395.00,24.413
396.00,24.387
397.00,24.451
398.00,24.462
399.00,24.465
400.00,24.422
401.00,24.462
402.00,24.445
403.00,24.458
404.00,24.447
405.00,24.427
406.00,24.401
407.00,24.376
408.00,24.384
409.00,24.307
410.00,24.229
411.00,24.277
412.00,24.232
413.00,24.254
414.00,24.242
415.00,24.244
416.00,24.310
417.00,24.253
418.00,24.300
419.00,24.324
420.00,24.424
421.00,24.495
422.00,24.461
423.00,24.527
424.00,24.561
425.00,24.574
426.00,24.607
427.00,24.640
428.00,24.729
429.00,24.748
430.00,24.804
431.00,24.843
432.00,24.871
433.00,24.966
434.00,24.996
435.00,25.091
436.00,25.117
437.00,25.190
438.00,25.246
439.00,25.321
440.00,25.406
441.00,25.476
442.00,25.563
443.00,25.647
444.00,25.751
445.00,25.833
446.00,25.928
447.00,26.030
448.00,26.109
449.00,26.234
450.00,26.332
451.00,26.449
452.00,26.527
453.00,26.717
454.00,26.815
455.00,26.810
456.00,26.976
457.00,27.045
458.00,27.150
459.00,27.295
460.00,27.469
461.00,27.584
462.00,27.687
463.00,27.833
464.00,27.954
465.00,28.067
466.00,28.198
467.00,28.327
468.00,28.445
469.00,28.527
470.00,28.654
471.00,28.744
472.00,28.843
473.00,28.926
474.00,29.056
475.00,29.190
476.00,29.197
477.00,29.361
478.00,29.481
479.00,29.693
480.00,29.811
481.00,29.915
482.00,30.083
483.00,30.222
484.00,30.442
485.00,30.561
486.00,30.699
487.00,30.851
488.00,30.953
489.00,31.122
490.00,31.258
491.00,31.396
492.00,31.520
493.00,31.705
494.00,31.871
495.00,31.859
496.00,31.971
497.00,32.035
498.00,32.196
499.00,32.410
500.00,32.524
501.00,32.580
502.00,32.671
503.00,32.778
504.00,32.918
505.00,33.116
506.00,33.264
507.00,33.345
508.00,33.485
509.00,33.644
510.00,33.727
511.00,33.844
512.00,34.034
513.00,34.184
514.00,34.238
515.00,34.385
516.00,34.467
517.00,34.521
518.00,34.704
519.00,34.730
520.00,34.795
521.00,34.921
522.00,34.993
523.00,35.028
524.00,35.110
525.00,35.264
526.00,35.302
527.00,35.350
528.00,35.402
529.00,35.585
530.00,35.746
531.00,35.861
532.00,35.995
533.00,35.970
534.00,36.120
535.00,36.235
536.00,36.246
537.00,36.362
538.00,36.405
539.00,36.482
540.00,36.534
541.00,36.605
542.00,36.666
543.00,36.655
544.00,36.810
545.00,36.901
546.00,36.924
547.00,37.007
548.00,37.132
549.00,37.108
550.00,37.221
551.00,37.352
552.00,37.410
553.00,37.428
554.00,37.488
555.00,37.498
556.00,37.573
557.00,37.616
558.00,37.679
559.00,37.814
560.00,37.905
561.00,37.784
562.00,37.908
563.00,38.048
564.00,37.971
565.00,38.104
566.00,38.097
567.00,38.139
568.00,38.187
569.00,38.230
570.00,38.282
571.00,38.309
572.00,38.326
573.00,38.320
574.00,38.381
575.00,38.360
576.00,38.377
577.00,38.375
578.00,38.554
579.00,38.648
580.00,38.641
581.00,38.820
582.00,38.861
583.00,38.865
584.00,38.995
585.00,39.036
586.00,39.117
587.00,39.174
588.00,39.159
589.00,39.080
590.00,39.233
591.00,39.290
592.00,39.287
593.00,39.299
594.00,39.392
595.00,39.508
596.00,39.529
597.00,39.531
598.00,39.623
599.00,39.638
600.00,39.696
601.00,39.722
602.00,39.730
603.00,39.737
604.00,39.788
605.00,39.843
606.00,39.840
607.00,39.911
608.00,40.049
609.00,40.156
610.00,40.047
611.00,40.066
612.00,40.141
613.00,40.194
614.00,40.243
615.00,40.345
616.00,40.425
617.00,40.402
618.00,40.434
619.00,40.452
620.00,40.497
621.00,40.609
622.00,40.616
623.00,40.758
624.00,40.770
625.00,40.742
626.00,40.911
627.00,40.946
628.00,40.954
629.00,40.996
630.00,41.034
631.00,41.119
632.00,41.210
633.00,41.324
634.00,41.425
635.00,41.519
636.00,41.545
637.00,41.570
638.00,41.615
639.00,41.699
640.00,41.738
641.00,41.781
642.00,41.892
643.00,41.922
644.00,41.981
645.00,42.104
646.00,42.180
647.00,42.225
648.00,42.358
649.00,42.345
650.00,42.271
651.00,42.495
652.00,42.562
653.00,42.559
654.00,42.626
655.00,42.786
656.00,43.148
657.00,42.957
658.00,43.079
659.00,43.212
660.00,43.327
661.00,43.301
662.00,43.194
663.00,43.402
664.00,43.681
665.00,43.821
666.00,43.713
667.00,43.818
668.00,43.903
669.00,43.943
670.00,44.243
671.00,44.111
672.00,44.189
673.00,44.314
674.00,44.462
675.00,44.548
676.00,44.674
677.00,44.891
678.00,44.546
679.00,44.665
680.00,44.946
681.00,45.219
682.00,45.174
683.00,45.197
684.00,45.354
685.00,45.312
686.00,45.192
687.00,45.419
688.00,45.529
689.00,45.490
690.00,45.792
691.00,46.034
692.00,45.843
693.00,45.822
694.00,46.028
695.00,46.226
696.00,46.343
697.00,46.236
698.00,46.395
699.00,46.527
700.00,46.500
701.00,46.525
702.00,46.737
703.00,46.816
704.00,46.909
705.00,46.855
706.00,46.951
707.00,46.984
708.00,46.879
709.00,47.201
710.00,47.663
711.00,47.202
712.00,47.374
713.00,47.468
714.00,47.579
715.00,47.598
716.00,47.519
717.00,47.787
718.00,47.908
719.00,47.843
720.00,47.922
721.00,52.352
722.00,52.356
723.00,52.431
724.00,52.409
725.00,52.454
726.00,52.411
727.00,52.459
728.00,52.537
729.00,52.514
730.00,52.543
731.00,52.553
732.00,52.488
733.00,52.607
734.00,52.605
735.00,52.687
736.00,52.637
737.00,52.739
738.00,52.831
739.00,52.806
740.00,52.836
741.00,52.868
742.00,52.943
743.00,52.933
744.00,52.929
745.00,52.853
746.00,52.923
747.00,52.895
748.00,52.846
749.00,52.879
750.00,52.864
751.00,52.915
752.00,52.874
753.00,52.876
754.00,52.875
755.00,52.853
756.00,52.940
757.00,52.955
758.00,52.930
759.00,52.938
760.00,52.940
761.00,52.966
762.00,52.977
763.00,53.055
764.00,53.029
765.00,53.007
766.00,52.963
767.00,53.046
768.00,53.076
769.00,53.128
770.00,53.149
771.00,53.112
772.00,53.153
773.00,53.101
774.00,53.085
775.00,53.137
776.00,53.080
777.00,53.218
778.00,53.098
779.00,53.199
780.00,53.117
781.00,53.046
782.00,53.180
783.00,53.106
784.00,53.155
785.00,53.091
786.00,53.089
787.00,53.024
788.00,53.074
789.00,53.076
790.00,53.050
791.00,53.081
792.00,53.034
793.00,53.025
794.00,52.885
795.00,53.020
796.00,53.030
797.00,52.936
798.00,53.025
799.00,52.970
800.00,52.910
801.00,52.952
802.00,52.943
803.00,52.984
804.00,52.945
805.00,52.920
806.00,52.919
807.00,52.867
808.00,52.866
809.00,52.844
810.00,52.831
811.00,52.855
812.00,52.829
813.00,52.797
814.00,52.741
815.00,52.762
816.00,52.784
817.00,52.667
818.00,52.711
819.00,52.704
820.00,52.652
821.00,52.753
822.00,52.693
823.00,52.597
824.00,52.625
825.00,52.612
826.00,52.513
827.00,52.629
828.00,52.646
829.00,52.548
830.00,52.532
831.00,55.014
832.00,54.981
833.00,54.918
834.00,54.960
835.00,54.973
836.00,54.869
837.00,54.895
838.00,54.859
839.00,54.879
840.00,54.835
841.00,54.824
842.00,54.812
843.00,54.797
844.00,54.771
845.00,54.736
846.00,54.746
847.00,54.717
848.00,54.708
849.00,54.692
850.00,54.625
851.00,54.556
852.00,54.547
853.00,54.535
854.00,54.503
855.00,54.451
856.00,54.464
857.00,54.434
858.00,54.396
859.00,54.386
860.00,54.376
861.00,54.383
862.00,54.343
863.00,54.370
864.00,54.295
865.00,54.321
866.00,54.301
867.00,54.288
868.00,54.272
869.00,54.258
870.00,54.243
871.00,54.239
872.00,54.243
873.00,54.236
874.00,54.219
875.00,54.197
876.00,54.185
877.00,54.205
878.00,54.159
879.00,54.092
880.00,54.182
881.00,54.050
882.00,54.306
883.00,54.079
884.00,54.061
885.00,54.012
886.00,54.016
887.00,53.977
888.00,53.985
889.00,53.951
890.00,53.970
891.00,53.925
892.00,53.937
893.00,53.894
894.00,53.892
895.00,53.839
896.00,53.864
897.00,53.813
898.00,53.796
899.00,53.827
900.00,53.790
901.00,53.768
902.00,53.760
903.00,53.697
904.00,53.712
905.00,53.750
906.00,53.654
907.00,53.698
908.00,53.656
909.00,53.609
910.00,53.662
911.00,53.605
912.00,53.598
913.00,53.540
914.00,53.537
915.00,53.534
916.00,53.503
917.00,53.469
918.00,53.489
919.00,53.459
920.00,53.393
921.00,53.413
922.00,53.619
923.00,53.383
924.00,53.360
925.00,53.355
926.00,53.338
927.00,53.329
928.00,53.291
929.00,53.316
930.00,53.240
931.00,53.263
932.00,53.201
933.00,53.221
934.00,53.176
935.00,53.204
936.00,53.151
937.00,53.159
938.00,53.114
939.00,53.127
940.00,53.091
941.00,53.071
942.00,53.024
943.00,53.050
944.00,52.995
945.00,52.992
946.00,52.977
947.00,52.959
948.00,52.937
949.00,52.903
950.00,52.885
951.00,52.865
952.00,52.861
953.00,52.810
954.00,52.793
955.00,52.756
956.00,52.749
957.00,52.648
958.00,52.730
959.00,52.658
960.00,52.655
961.00,52.635
962.00,52.666
963.00,52.607
964.00,52.600
965.00,52.599
966.00,52.589
967.00,52.575
968.00,52.556
969.00,52.599
970.00,52.566
971.00,52.575
972.00,52.529
973.00,52.576
974.00,52.584
975.00,52.540
976.00,52.576
977.00,52.557
978.00,52.588
979.00,52.542
980.00,52.559
981.00,52.557
982.00,52.531
983.00,52.531
984.00,52.517
985.00,52.532
986.00,52.484
987.00,52.521
988.00,52.477
989.00,52.459
990.00,52.469
991.00,52.454
992.00,52.478
993.00,52.435
994.00,52.413
995.00,52.416
996.00,52.396
997.00,52.393
998.00,52.365
999.00,52.386
1000.00,52.323
1001.00,52.332
1002.00,52.259
1003.00,52.316
1004.00,52.297
1005.00,52.257
1006.00,52.302
1007.00,52.252
1008.00,52.262
1009.00,52.248
1010.00,52.234
1011.00,52.229
1012.00,52.188
1013.00,52.193
1014.00,52.159
1015.00,52.177
1016.00,52.129
1017.00,52.137
1018.00,52.096
1019.00,52.096
1020.00,52.106
1021.00,52.072
1022.00,52.083
1023.00,52.041
1024.00,52.042
1025.00,52.031
1026.00,52.014
1027.00,51.980
1028.00,51.985
1029.00,51.971
1030.00,51.927
1031.00,51.948
1032.00,51.901
1033.00,51.892
1034.00,51.865
1035.00,51.825
1036.00,51.802
1037.00,51.786
1038.00,51.780
1039.00,51.756
1040.00,51.744
1041.00,51.704
1042.00,51.722
1043.00,51.684
1044.00,51.703
1045.00,51.696
1046.00,51.669
1047.00,51.701
1048.00,51.704
1049.00,51.713
1050.00,51.720
1051.00,51.746
1052.00,51.736
1053.00,51.749
1054.00,51.736
1055.00,51.757
1056.00,51.798
1057.00,51.787
1058.00,51.785
1059.00,51.794
1060.00,51.771
1061.00,51.757
1062.00,51.731
1063.00,51.745
1064.00,51.731
1065.00,51.732
1066.00,51.728
1067.00,51.731
1068.00,51.737
1069.00,51.704
1070.00,51.675
1071.00,51.656
1072.00,51.694
1073.00,51.656
1074.00,51.660
1075.00,51.645
1076.00,51.656
1077.00,51.628
1078.00,51.612
1079.00,51.603
1080.00,51.607
1081.00,51.593
1082.00,51.579
1083.00,51.582
1084.00,51.567
1085.00,51.565
1086.00,51.558
1087.00,51.551
1088.00,51.538
1089.00,51.534
1090.00,51.522
1091.00,51.532
1092.00,51.514
1093.00,51.492
1094.00,51.479
1095.00,51.468
1096.00,51.460
1097.00,51.457
1098.00,51.458
1099.00,51.473
1100.00,51.432
1101.00,51.411
1102.00,51.411
1103.00,51.408
1104.00,51.388
1105.00,51.420
1106.00,51.362
1107.00,51.364
1108.00,51.367
1109.00,51.365
1110.00,51.349
1111.00,51.349
1112.00,51.326
1113.00,51.320
1114.00,51.316
1115.00,51.309
1116.00,51.316
1117.00,51.289
1118.00,51.280
1119.00,51.307
1120.00,51.264
1121.00,51.256
1122.00,51.249
1123.00,51.253
1124.00,51.241
1125.00,51.219
1126.00,51.217
1127.00,51.230
1128.00,51.209
1129.00,51.191
1130.00,51.198
1131.00,51.195
1132.00,51.221
1133.00,51.209
1134.00,51.130
1135.00,51.213
1136.00,51.160
1137.00,51.148
1138.00,51.157
1139.00,51.159
1140.00,51.132
1141.00,51.134
1142.00,51.128
1143.00,51.139
1144.00,51.111
1145.00,51.120
1146.00,51.127
1147.00,51.119
1148.00,51.100
1149.00,51.118
1150.00,51.115
1151.00,51.103
1152.00,51.080
1153.00,51.084
1154.00,51.071
1155.00,51.076
1156.00,51.061
1157.00,51.078
1158.00,51.069
1159.00,51.054
1160.00,51.056
1161.00,51.065
1162.00,51.048
1163.00,51.065
1164.00,51.061
1165.00,51.057
1166.00,51.058
1167.00,51.040
1168.00,51.063
1169.00,51.042
1170.00,51.032
1171.00,51.034
1172.00,51.035
1173.00,51.021
1174.00,51.033
1175.00,51.036
1176.00,51.027
1177.00,51.020
1178.00,51.030
1179.00,51.028
1180.00,51.023
1181.00,51.048
1182.00,51.030
1183.00,51.006
1184.00,50.997
1185.00,51.014
1186.00,51.001
1187.00,51.006
1188.00,51.005
1189.00,51.005
1190.00,51.005
1191.00,50.993
1192.00,51.001
1193.00,51.023
1194.00,51.012
1195.00,50.995
1196.00,51.027
1197.00,50.999
1198.00,50.983
1199.00,50.981
1200.00,50.980
1201.00,51.006
1202.00,50.974
1203.00,50.959
1204.00,50.977
1205.00,50.995
1206.00,50.961
1207.00,50.978
1208.00,50.963
1209.00,50.962
1210.00,50.971
1211.00,50.962
1212.00,50.982
1213.00,50.930
1214.00,50.958
1215.00,50.957
1216.00,50.955
1217.00,50.959
1218.00,50.957
1219.00,50.977
1220.00,50.949
1221.00,50.971
1222.00,50.960
1223.00,50.977
1224.00,50.967
1225.00,50.950
1226.00,50.961
1227.00,50.945
1228.00,50.971
1229.00,50.971
1230.00,50.995
1231.00,50.985
1232.00,51.008
1233.00,51.010
1234.00,51.020
1235.00,51.014
1236.00,50.998
1237.00,51.010
1238.00,51.012
1239.00,51.015
1240.00,51.015
1241.00,51.041
1242.00,51.043
1243.00,51.042
1244.00,50.995
1245.00,51.027
1246.00,51.027
1247.00,50.996
1248.00,51.023
1249.00,51.033
1250.00,51.031
1251.00,51.032
1252.00,51.034
1253.00,51.023
1254.00,51.057
1255.00,51.054
1256.00,51.020
1257.00,51.014
1258.00,51.055
1259.00,51.055
1260.00,51.072
1261.00,51.073
1262.00,51.078
1263.00,51.064
1264.00,51.072
1265.00,51.075
1266.00,51.072
1267.00,51.090
1268.00,51.090
1269.00,51.072
1270.00,51.098
1271.00,51.106
1272.00,51.105
1273.00,51.127
1274.00,51.123
1275.00,51.125
1276.00,51.124
1277.00,51.123
1278.00,51.143
1279.00,51.136
1280.00,51.126
1281.00,51.154
1282.00,51.158
1283.00,51.146
1284.00,51.161
1285.00,51.145
1286.00,51.165
1287.00,51.169
1288.00,51.160
1289.00,51.154
1290.00,51.187
1291.00,51.179
1292.00,51.183
1293.00,51.173
1294.00,51.194
1295.00,51.216
1296.00,51.204
1297.00,51.201
1298.00,51.241
1299.00,51.208
1300.00,51.219
1301.00,51.231
1302.00,51.254
1303.00,51.249
1304.00,51.221
1305.00,51.250
1306.00,51.257
1307.00,51.242
1308.00,51.253
1309.00,51.275
1310.00,51.273
1311.00,51.259
1312.00,51.260
1313.00,51.270
1314.00,51.302
1315.00,51.311
1316.00,51.295
1317.00,51.321
1318.00,51.317
1319.00,51.311
1320.00,51.334
1321.00,51.477
1322.00,51.462
1323.00,51.456
1324.00,51.440
1325.00,51.443
1326.00,51.460
1327.00,51.446
1328.00,51.447
1329.00,51.471
1330.00,51.484
1331.00,51.460
1332.00,51.455
1333.00,51.479
1334.00,51.497
1335.00,51.510
1336.00,51.523
1337.00,51.570
1338.00,51.611
1339.00,51.662
1340.00,51.710
1341.00,51.783
1342.00,51.855
1343.00,51.890
1344.00,51.940
1345.00,52.047
1346.00,52.055
1347.00,52.031
1348.00,52.086
1349.00,52.093
1350.00,52.124
1351.00,52.135
1352.00,52.153
1353.00,52.192
1354.00,52.134
1355.00,52.045
1356.00,52.169
1357.00,52.169
1358.00,52.263
1359.00,52.331
1360.00,52.297
1361.00,51.974
1362.00,51.981
1363.00,52.299
1364.00,52.179
1365.00,52.249
1366.00,52.286
1367.00,52.114
1368.00,52.141
1369.00,52.290
1370.00,52.158
1371.00,52.087
1372.00,52.138
1373.00,52.155
1374.00,52.186
1375.00,52.160
1376.00,52.132
1377.00,52.225
1378.00,52.273
1379.00,52.202
1380.00,52.185
1381.00,52.010
1382.00,52.170
1383.00,52.150
1384.00,52.053
1385.00,52.058
1386.00,52.102
1387.00,52.038
1388.00,52.025
1389.00,52.044
1390.00,52.204
1391.00,51.955
1392.00,52.173
1393.00,52.299
1394.00,52.101
1395.00,51.966
1396.00,52.017
1397.00,52.018
1398.00,52.388
1399.00,52.077
1400.00,52.008
1401.00,52.075
1402.00,52.374
1403.00,52.076
1404.00,52.109
1405.00,52.211
1406.00,52.154
1407.00,52.203
1408.00,52.185
1409.00,52.159
1410.00,52.201
1411.00,52.244
1412.00,52.260
1413.00,51.993
1414.00,52.172
1415.00,52.211
1416.00,52.220
1417.00,52.257
1418.00,52.222
1419.00,52.224
1420.00,52.300
1421.00,52.334
1422.00,52.300
1423.00,52.309
1424.00,52.328
1425.00,52.339
1426.00,52.342
1427.00,52.361
1428.00,52.338
1429.00,52.317
1430.00,52.377
1431.00,52.371
1432.00,52.393
1433.00,52.444
1434.00,52.410
1435.00,52.469
1436.00,52.502
1437.00,52.465
1438.00,52.498
1439.00,52.531
1440.00,52.527
1441.00,52.525
1442.00,52.533
1443.00,52.552
1444.00,52.618
1445.00,52.564
1446.00,52.561
1447.00,52.614
1448.00,52.635
1449.00,52.675
1450.00,52.635
1451.00,52.661
1452.00,52.684
1453.00,52.711
1454.00,52.736
1455.00,52.776
1456.00,52.765
1457.00,52.755
1458.00,52.799
1459.00,52.790
1460.00,52.811
1461.00,52.810
1462.00,52.826
1463.00,52.857
1464.00,52.855
1465.00,52.860
1466.00,52.880
1467.00,52.911
1468.00,52.973
1469.00,52.923
1470.00,52.935
1471.00,52.956
1472.00,52.961
1473.00,52.983
1474.00,53.003
1475.00,53.021
1476.00,53.008
1477.00,53.020
1478.00,53.037
1479.00,53.052
1480.00,53.045
1481.00,53.052
1482.00,53.095
1483.00,53.113
1484.00,53.130
1485.00,53.109
1486.00,53.128
1487.00,53.136
1488.00,53.163
1489.00,53.164
1490.00,53.176
1491.00,53.185
1492.00,53.189
1493.00,53.187
1494.00,53.221
1495.00,53.209
1496.00,53.248
1497.00,53.225
1498.00,53.228
1499.00,53.264
1500.00,53.277
1501.00, 
1502.00, 
1503.00, 
1504.00, 
1505.00, 
1506.00, 
1507.00, 
1508.00, 
1509.00, 
1510.00, 
1511.00, 
1512.00, 
1513.00, 
1514.00, 
1515.00, 
1516.00, 
1517.00, 
1518.00, 
1519.00, 
1520.00, 
1521.00, 
1522.00, 
1523.00, 
1524.00, 
1525.00, 
1526.00, 
1527.00, 
1528.00, 
1529.00, 
1530.00, 
1531.00, 
1532.00, 
1533.00, 
1534.00, 
1535.00, 
1536.00, 
1537.00, 
1538.00, 
1539.00, 
1540.00, 
1541.00, 
1542.00, 
1543.00, 
1544.00, 
1545.00, 
1546.00, 
1547.00, 
1548.00, 
1549.00, 
1550.00, 
1551.00, 
1552.00, 
1553.00, 
1554.00, 
1555.00, 
1556.00, 
1557.00, 
1558.00, 
1559.00, 
1560.00, 
1561.00, 
1562.00, 
1563.00, 
1564.00, 
1565.00, 
1566.00, 
1567.00, 
1568.00, 
1569.00, 
1570.00, 
1571.00, 
1572.00, 
1573.00, 
1574.00, 
1575.00, 
1576.00, 
1577.00, 
1578.00, 
1579.00, 
1580.00, 
1581.00, 
1582.00, 
1583.00, 
1584.00, 
1585.00, 
1586.00, 
1587.00, 
1588.00, 
1589.00, 
1590.00, 
1591.00, 
1592.00, 
1593.00, 
1594.00, 
1595.00, 
1596.00, 
1597.00, 
1598.00, 
1599.00, 
1600.00, 
1601.00, 
1602.00, 
1603.00, 
1604.00, 
1605.00, 
1606.00, 
1607.00, 
1608.00, 
1609.00, 
1610.00, 
1611.00, 
1612.00, 
1613.00, 
1614.00, 
1615.00, 
1616.00, 
1617.00, 
1618.00, 
1619.00, 
1620.00, 
1621.00, 
1622.00, 
1623.00, 
1624.00, 
1625.00, 
1626.00, 
1627.00, 
1628.00, 
1629.00, 
1630.00, 
1631.00, 
1632.00, 
1633.00, 
1634.00, 
1635.00, 
1636.00, 
1637.00, 
1638.00, 
1639.00, 
1640.00, 
1641.00, 
1642.00, 
1643.00, 
1644.00, 
1645.00, 
1646.00, 
1647.00, 
1648.00, 
1649.00, 
1650.00, 
1651.00, 
1652.00, 
1653.00, 
1654.00, 
1655.00, 
1656.00, 
1657.00, 
1658.00, 
1659.00, 
1660.00, 
1661.00, 
1662.00, 
1663.00, 
1664.00, 
1665.00, 
1666.00, 
1667.00, 
1668.00, 
1669.00, 
1670.00, 
1671.00, 
1672.00, 
1673.00, 
1674.00, 
1675.00, 
1676.00, 
1677.00, 
1678.00, 
1679.00, 
1680.00, 
1681.00, 
1682.00, 
1683.00, 
1684.00, 
1685.00, 
1686.00, 
1687.00, 
1688.00, 
1689.00, 
1690.00, 
1691.00, 
1692.00, 
1693.00, 
1694.00, 
1695.00, 
1696.00, 
1697.00, 
1698.00, 
1699.00, 
1700.00, 
1701.00, 
1702.00, 
1703.00, 
1704.00, 
1705.00, 
1706.00, 
1707.00, 
1708.00, 
1709.00, 
1710.00, 
1711.00, 
1712.00, 
1713.00, 
1714.00, 
1715.00, 
1716.00, 
1717.00, 
1718.00, 
1719.00, 
1720.00, 
1721.00, 
1722.00, 
1723.00, 
1724.00, 
1725.00, 
1726.00, 
1727.00, 
1728.00, 
1729.00, 
1730.00, 
1731.00, 
1732.00, 
1733.00, 
1734.00, 
1735.00, 
1736.00, 
1737.00, 
1738.00, 
1739.00, 
1740.00, 
1741.00, 
1742.00, 
1743.00, 
1744.00, 
1745.00, 
1746.00, 
1747.00, 
1748.00, 
1749.00, 
1750.00, 
1751.00, 
1752.00, 
1753.00, 
1754.00, 
1755.00, 
1756.00, 
1757.00, 
1758.00, 
1759.00, 
1760.00, 
1761.00, 
1762.00, 
1763.00, 
1764.00, 
1765.00, 
1766.00, 
1767.00, 
1768.00, 
1769.00, 
1770.00, 
1771.00, 
1772.00, 
1773.00, 
1774.00, 
1775.00, 
1776.00, 
1777.00, 
1778.00, 
1779.00, 
1780.00, 
1781.00, 
1782.00, 
1783.00, 
1784.00, 
1785.00, 
1786.00, 
1787.00, 
1788.00, 
1789.00, 
1790.00, 
1791.00, 
1792.00, 
1793.00, 
1794.00, 
1795.00, 
1796.00, 
1797.00, 
1798.00, 
1799.00, 
1800.00, 
1801.00, 
1802.00, 
1803.00, 
1804.00, 
1805.00, 
1806.00, 
1807.00, 
1808.00, 
1809.00, 
1810.00, 
1811.00, 
1812.00, 
1813.00, 
1814.00, 
1815.00, 
1816.00, 
1817.00, 
1818.00, 
1819.00, 
1820.00, 
1821.00, 
1822.00, 
1823.00, 
1824.00, 
1825.00, 
1826.00, 
1827.00, 
1828.00, 
1829.00, 
1830.00, 
1831.00, 
1832.00, 
1833.00, 
1834.00, 
1835.00, 
1836.00, 
1837.00, 
1838.00, 
1839.00, 
1840.00, 
1841.00, 
1842.00, 
1843.00, 
1844.00, 
1845.00, 
1846.00, 
1847.00, 
1848.00, 
1849.00, 
1850.00, 
1851.00, 
1852.00, 
1853.00, 
1854.00, 
1855.00, 
1856.00, 
1857.00, 
1858.00, 
1859.00, 
1860.00, 
1861.00, 
1862.00, 
1863.00, 
1864.00, 
1865.00, 
1866.00, 
1867.00, 
1868.00, 
1869.00, 
1870.00, 
1871.00, 
1872.00, 
1873.00, 
1874.00, 
1875.00, 
1876.00, 
1877.00, 
1878.00, 
1879.00, 
1880.00, 
1881.00, 
1882.00, 
1883.00, 
1884.00, 
1885.00, 
1886.00, 
1887.00, 
1888.00, 
1889.00, 
1890.00, 
1891.00, 
1892.00, 
1893.00, 
1894.00, 
1895.00, 
1896.00, 
1897.00, 
1898.00, 
1899.00, 
1900.00, 
1901.00, 
1902.00, 
1903.00, 
1904.00, 
1905.00, 
1906.00, 
1907.00, 
1908.00, 
1909.00, 
1910.00, 
1911.00, 
1912.00, 
1913.00, 
1914.00, 
1915.00, 
1916.00, 
1917.00, 
1918.00, 
1919.00, 
1920.00, 
1921.00, 
1922.00, 
1923.00, 
1924.00, 
1925.00, 
1926.00, 
1927.00, 
1928.00, 
1929.00, 
1930.00, 
1931.00, 
1932.00, 
1933.00, 
1934.00, 
1935.00, 
1936.00, 
1937.00, 
1938.00, 
1939.00, 
1940.00, 
1941.00, 
1942.00, 
1943.00, 
1944.00, 
1945.00, 
1946.00, 
1947.00, 
1948.00, 
1949.00, 
1950.00, 
1951.00, 
1952.00, 
1953.00, 
1954.00, 
1955.00, 
1956.00, 
1957.00, 
1958.00, 
1959.00, 
1960.00, 
1961.00, 
1962.00, 
1963.00, 
1964.00, 
1965.00, 
1966.00, 
1967.00, 
1968.00, 
1969.00, 
1970.00, 
1971.00, 
1972.00, 
1973.00, 
1974.00, 
1975.00, 
1976.00, 
1977.00, 
1978.00, 
1979.00, 
1980.00, 
1981.00, 
1982.00, 
1983.00, 
1984.00, 
1985.00, 
1986.00, 
1987.00, 
1988.00, 
1989.00, 
1990.00, 
1991.00, 
1992.00, 
1993.00, 
1994.00, 
1995.00, 
1996.00, 
1997.00, 
1998.00, 
1999.00, 
2000.00, 
2001.00, 
2002.00, 
2003.00, 
2004.00, 
2005.00, 
2006.00, 
2007.00, 
2008.00, 
2009.00, 
2010.00, 
2011.00, 
2012.00, 
2013.00, 
2014.00, 
2015.00, 
2016.00, 
2017.00, 
2018.00, 
2019.00, 
2020.00, 
2021.00, 
2022.00, 
2023.00, 
2024.00, 
2025.00, 
2026.00, 
2027.00, 
2028.00, 
2029.00, 
2030.00, 
2031.00, 
2032.00, 
2033.00, 
2034.00, 
2035.00, 
2036.00, 
2037.00, 
2038.00, 
2039.00, 
2040.00, 
2041.00, 
2042.00, 
2043.00, 
2044.00, 
2045.00, 
2046.00, 
2047.00, 
2048.00, 
2049.00, 
2050.00, 
2051.00, 
2052.00, 
2053.00, 
2054.00, 
2055.00, 
2056.00, 
2057.00, 
2058.00, 
2059.00, 
2060.00, 
2061.00, 
2062.00, 
2063.00, 
2064.00, 
2065.00, 
2066.00, 
2067.00, 
2068.00, 
2069.00, 
2070.00, 
2071.00, 
2072.00, 
2073.00, 
2074.00, 
2075.00, 
2076.00, 
2077.00, 
2078.00, 
2079.00, 
2080.00, 
2081.00, 
2082.00, 
2083.00, 
2084.00, 
2085.00, 
2086.00, 
2087.00, 
2088.00, 
2089.00, 
2090.00, 
2091.00, 
2092.00, 
2093.00, 
2094.00, 
2095.00, 
2096.00, 
2097.00, 
2098.00, 
2099.00, 
2100.00, 
2101.00, 
2102.00, 
2103.00, 
2104.00, 
2105.00, 
2106.00, 
2107.00, 
2108.00, 
2109.00, 
2110.00, 
2111.00, 
2112.00, 
2113.00, 
2114.00, 
2115.00, 
2116.00, 
2117.00, 
2118.00, 
2119.00, 
2120.00, 
2121.00, 
2122.00, 
2123.00, 
2124.00, 
2125.00, 
2126.00, 
2127.00, 
2128.00, 
2129.00, 
2130.00, 
2131.00, 
2132.00, 
2133.00, 
2134.00, 
2135.00, 
2136.00, 
2137.00, 
2138.00, 
2139.00, 
2140.00, 
2141.00, 
2142.00, 
2143.00, 
2144.00, 
2145.00, 
2146.00, 
2147.00, 
2148.00, 
2149.00, 
2150.00, 
2151.00, 
2152.00, 
2153.00, 
2154.00, 
2155.00, 
2156.00, 
2157.00, 
2158.00, 
2159.00, 
2160.00, 
2161.00, 
2162.00, 
2163.00, 
2164.00, 
2165.00, 
2166.00, 
2167.00, 
2168.00, 
2169.00, 
2170.00, 
2171.00, 
2172.00, 
2173.00, 
2174.00, 
2175.00, 
2176.00, 
2177.00, 
2178.00, 
2179.00, 
2180.00, 
2181.00, 
2182.00, 
2183.00, 
2184.00, 
2185.00, 
2186.00, 
2187.00, 
2188.00, 
2189.00, 
2190.00, 
2191.00, 
2192.00, 
2193.00, 
2194.00, 
2195.00, 
2196.00, 
2197.00, 
2198.00, 
2199.00, 
2200.00, 
2201.00, 
2202.00, 
2203.00, 
2204.00, 
2205.00, 
2206.00, 
2207.00, 
2208.00, 
2209.00, 
2210.00, 
2211.00, 
2212.00, 
2213.00, 
2214.00, 
2215.00, 
2216.00, 
2217.00, 
2218.00, 
2219.00, 
2220.00, 
2221.00, 
2222.00, 
2223.00, 
2224.00, 
2225.00, 
2226.00, 
2227.00, 
2228.00, 
2229.00, 
2230.00, 
2231.00, 
2232.00, 
2233.00, 
2234.00, 
2235.00, 
2236.00, 
2237.00, 
2238.00, 
2239.00, 
2240.00, 
2241.00, 
2242.00, 
2243.00, 
2244.00, 
2245.00, 
2246.00, 
2247.00, 
2248.00, 
2249.00, 
2250.00, 
2251.00, 
2252.00, 
2253.00, 
2254.00, 
2255.00, 
2256.00, 
2257.00, 
2258.00, 
2259.00, 
2260.00, 
2261.00, 
2262.00, 
2263.00, 
2264.00, 
2265.00, 
2266.00, 
2267.00, 
2268.00, 
2269.00, 
2270.00, 
2271.00, 
2272.00, 
2273.00, 
2274.00, 
2275.00, 
2276.00, 
2277.00, 
2278.00, 
2279.00, 
2280.00, 
2281.00, 
2282.00, 
2283.00, 
2284.00, 
2285.00, 
2286.00, 
2287.00, 
2288.00, 
2289.00, 
2290.00, 
2291.00, 
2292.00, 
2293.00, 
2294.00, 
2295.00, 
2296.00, 
2297.00, 
2298.00, 
2299.00, 
2300.00, 
2301.00, 
2302.00, 
2303.00, 
2304.00, 
2305.00, 
2306.00, 
2307.00, 
2308.00, 
2309.00, 
2310.00, 
2311.00, 
2312.00, 
2313.00, 
2314.00, 
2315.00, 
2316.00, 
2317.00, 
2318.00, 
2319.00, 
2320.00, 
2321.00, 
2322.00, 
2323.00, 
2324.00, 
2325.00, 
2326.00, 
2327.00, 
2328.00, 
2329.00, 
2330.00, 
2331.00, 
2332.00, 
2333.00, 
2334.00, 
2335.00, 
2336.00, 
2337.00, 
2338.00, 
2339.00, 
2340.00, 
2341.00, 
2342.00, 
2343.00, 
2344.00, 
2345.00, 
2346.00, 
2347.00, 
2348.00, 
2349.00, 
2350.00, 
2351.00, 
2352.00, 
2353.00, 
2354.00, 
2355.00, 
2356.00, 
2357.00, 
2358.00, 
2359.00, 
2360.00, 
2361.00, 
2362.00, 
2363.00, 
2364.00, 
2365.00, 
2366.00, 
2367.00, 
2368.00, 
2369.00, 
2370.00, 
2371.00, 
2372.00, 
2373.00, 
2374.00, 
2375.00, 
2376.00, 
2377.00, 
2378.00, 
2379.00, 
2380.00, 
2381.00, 
2382.00, 
2383.00, 
2384.00, 
2385.00, 
2386.00, 
2387.00, 
2388.00, 
2389.00, 
2390.00, 
2391.00, 
2392.00, 
2393.00, 
2394.00, 
2395.00, 
2396.00, 
2397.00, 
2398.00, 
2399.00, 
2400.00, 
2401.00, 
2402.00, 
2403.00, 
2404.00, 
2405.00, 
2406.00, 
2407.00, 
2408.00, 
2409.00, 
2410.00, 
2411.00, 
2412.00, 
2413.00, 
2414.00, 
2415.00, 
2416.00, 
2417.00, 
2418.00, 
2419.00, 
2420.00, 
2421.00, 
2422.00, 
2423.00, 
2424.00, 
2425.00, 
2426.00, 
2427.00, 
2428.00, 
2429.00, 
2430.00, 
2431.00, 
2432.00, 
2433.00, 
2434.00, 
2435.00, 
2436.00, 
2437.00, 
2438.00, 
2439.00, 
2440.00, 
2441.00, 
2442.00, 
2443.00, 
2444.00, 
2445.00, 
2446.00, 
2447.00, 
2448.00, 
2449.00, 
2450.00, 
2451.00, 
2452.00, 
2453.00, 
2454.00, 
2455.00, 
2456.00, 
2457.00, 
2458.00, 
2459.00, 
2460.00, 
2461.00, 
2462.00, 
2463.00, 
2464.00, 
2465.00, 
2466.00, 
2467.00, 
2468.00, 
2469.00, 
2470.00, 
2471.00, 
2472.00, 
2473.00, 
2474.00, 
2475.00, 
2476.00, 
2477.00, 
2478.00, 
2479.00, 
2480.00, 
2481.00, 
2482.00, 
2483.00, 
2484.00, 
2485.00, 
2486.00, 
2487.00, 
2488.00, 
2489.00, 
2490.00, 
2491.00, 
2492.00, 
2493.00, 
2494.00, 
2495.00, 
2496.00, 
2497.00, 
2498.00, 
2499.00, 
2500.00, 
2501.00, 
2502.00, 
2503.00, 
2504.00, 
2505.00, 
2506.00, 
2507.00, 
2508.00, 
2509.00, 
2510.00, 
2511.00, 
2512.00, 
2513.00, 
2514.00, 
2515.00, 
2516.00, 
2517.00, 
2518.00, 
2519.00, 
2520.00, 
2521.00, 
2522.00, 
2523.00, 
2524.00, 
2525.00, 
2526.00, 
2527.00, 
2528.00, 
2529.00, 
2530.00, 
2531.00, 
2532.00, 
2533.00, 
2534.00, 
2535.00, 
2536.00, 
2537.00, 
2538.00, 
2539.00, 
2540.00, 
2541.00, 
2542.00, 
2543.00, 
2544.00, 
2545.00, 
2546.00, 
2547.00, 
2548.00, 
2549.00, 
2550.00, 
2551.00, 
2552.00, 
2553.00, 
2554.00, 
2555.00, 
2556.00, 
2557.00, 
2558.00, 
2559.00, 
2560.00, 
2561.00, 
2562.00, 
2563.00, 
2564.00, 
2565.00, 
2566.00, 
2567.00, 
2568.00, 
2569.00, 
2570.00, 
2571.00, 
2572.00, 
2573.00, 
2574.00, 
2575.00, 
2576.00, 
2577.00, 
2578.00, 
2579.00, 
2580.00, 
2581.00, 
2582.00, 
2583.00, 
2584.00, 
2585.00, 
2586.00, 
2587.00, 
2588.00, 
2589.00, 
2590.00, 
2591.00, 
2592.00, 
2593.00, 
2594.00, 
2595.00, 
2596.00, 
2597.00, 
2598.00, 
2599.00, 
2600.00, 
