"2cP1 - RawData"
"Wavelength nm.","T%"
200.00,0.003
201.00,0.002
202.00,0.002
203.00,0.001
204.00,0.002
205.00,0.004
206.00,0.003
207.00,0.003
208.00,-0.001
209.00,-0.001
210.00,0.004
211.00,-0.000
212.00,0.000
213.00,-0.001
214.00,0.002
215.00,-0.000
216.00,0.001
217.00,0.004
218.00,0.002
219.00,0.002
220.00,0.003
221.00,0.001
222.00,-0.001
223.00,-0.000
224.00,-0.000
225.00,-0.001
226.00,0.001
227.00,0.002
228.00,0.001
229.00,0.001
230.00,0.002
231.00,0.001
232.00,0.002
233.00,0.003
234.00,0.001
235.00,-0.000
236.00,-0.002
237.00,-0.000
238.00,-0.001
239.00,0.000
240.00,0.001
241.00,-0.000
242.00,0.000
243.00,-0.000
244.00,0.001
245.00,0.001
246.00,0.001
247.00,0.001
248.00,-0.000
249.00,-0.000
250.00,0.001
251.00,-0.001
252.00,0.001
253.00,0.001
254.00,0.001
255.00,0.001
256.00,0.000
257.00,0.000
258.00,0.000
259.00,0.001
260.00,-0.001
261.00,-0.000
262.00,0.002
263.00,0.000
264.00,0.000
265.00,0.000
266.00,0.002
267.00,0.001
268.00,0.001
269.00,0.001
270.00,-0.001
271.00,0.000
272.00,0.001
273.00,0.000
274.00,-0.000
275.00,0.000
276.00,0.001
277.00,0.001
278.00,-0.000
279.00,0.001
280.00,0.001
281.00,-0.001
282.00,0.001
283.00,-0.000
284.00,0.001
285.00,-0.000
286.00,0.000
287.00,0.001
288.00,0.000
289.00,0.001
290.00,0.000
291.00,-0.001
292.00,0.001
293.00,0.002
294.00,0.000
295.00,-0.000
296.00,0.001
297.00,0.000
298.00,0.002
299.00,0.002
300.00,0.001
301.00,0.005
302.00,0.005
303.00,0.009
304.00,0.012
305.00,0.023
306.00,0.032
307.00,0.048
308.00,0.074
309.00,0.116
310.00,0.162
311.00,0.223
312.00,0.305
313.00,0.411
314.00,0.547
315.00,0.714
316.00,0.908
317.00,1.148
318.00,1.406
319.00,1.737
320.00,2.101
321.00,2.529
322.00,3.005
323.00,3.564
324.00,4.104
325.00,4.659
326.00,5.273
327.00,5.962
328.00,6.674
329.00,7.289
330.00,8.121
331.00,8.895
332.00,9.665
333.00,10.490
334.00,11.265
335.00,12.078
336.00,12.850
337.00,13.621
338.00,14.402
339.00,15.163
340.00,15.926
341.00,16.654
342.00,17.337
343.00,18.026
344.00,18.599
345.00,19.233
346.00,19.795
347.00,20.380
348.00,20.951
349.00,21.399
350.00,21.858
351.00,22.302
352.00,22.725
353.00,23.110
354.00,23.467
355.00,23.794
356.00,24.145
357.00,24.481
358.00,24.726
359.00,25.021
360.00,25.268
361.00,25.533
362.00,25.756
363.00,25.951
364.00,26.174
365.00,26.251
366.00,26.418
367.00,26.564
368.00,26.687
369.00,26.728
370.00,26.802
371.00,26.825
372.00,26.900
373.00,26.946
374.00,26.931
375.00,26.891
376.00,26.945
377.00,26.908
378.00,26.836
379.00,26.808
380.00,26.743
381.00,26.800
382.00,26.854
383.00,26.873
384.00,26.941
385.00,27.007
386.00,27.037
387.00,27.152
388.00,27.154
389.00,27.222
390.00,27.289
391.00,27.346
392.00,27.368
393.00,27.382
394.00,27.397
395.00,27.438
396.00,27.470
397.00,27.499
398.00,27.572
399.00,27.555
400.00,27.559
401.00,27.565
402.00,27.602
403.00,27.604
404.00,27.638
405.00,27.564
406.00,27.613
407.00,27.575
408.00,27.576
409.00,27.512
410.00,27.463
411.00,27.506
412.00,27.465
413.00,27.485
414.00,27.435
415.00,27.452
416.00,27.500
417.00,27.521
418.00,27.537
419.00,27.541
420.00,27.573
421.00,27.698
422.00,27.718
423.00,27.742
424.00,27.664
425.00,27.772
426.00,27.811
427.00,27.868
428.00,27.912
429.00,27.936
430.00,27.968
431.00,28.013
432.00,28.074
433.00,28.170
434.00,28.189
435.00,28.224
436.00,28.259
437.00,28.332
438.00,28.377
439.00,28.391
440.00,28.551
441.00,28.599
442.00,28.676
443.00,28.772
444.00,28.878
445.00,28.899
446.00,29.017
447.00,29.097
448.00,29.168
449.00,29.282
450.00,29.374
451.00,29.503
452.00,29.588
453.00,29.730
454.00,29.867
455.00,29.854
456.00,29.974
457.00,30.031
458.00,30.145
459.00,30.257
460.00,30.380
461.00,30.481
462.00,30.622
463.00,30.754
464.00,30.880
465.00,30.960
466.00,30.876
467.00,31.174
468.00,31.263
469.00,31.356
470.00,31.447
471.00,31.555
472.00,31.653
473.00,31.704
474.00,31.798
475.00,31.943
476.00,32.000
477.00,32.102
478.00,32.225
479.00,32.356
480.00,32.464
481.00,32.633
482.00,32.727
483.00,32.877
484.00,33.030
485.00,33.164
486.00,33.254
487.00,33.390
488.00,33.499
489.00,33.694
490.00,33.748
491.00,33.908
492.00,34.039
493.00,34.211
494.00,34.249
495.00,34.239
496.00,34.451
497.00,34.534
498.00,34.698
499.00,34.870
500.00,34.882
501.00,35.017
502.00,35.176
503.00,35.280
504.00,35.355
505.00,35.472
506.00,35.622
507.00,35.685
508.00,35.737
509.00,35.920
510.00,35.995
511.00,36.029
512.00,36.215
513.00,36.257
514.00,36.469
515.00,36.538
516.00,36.655
517.00,36.735
518.00,36.867
519.00,36.891
520.00,37.028
521.00,37.072
522.00,37.124
523.00,37.242
524.00,37.259
525.00,37.349
526.00,37.458
527.00,37.496
528.00,37.539
529.00,37.651
530.00,37.740
531.00,37.897
532.00,38.034
533.00,38.047
534.00,38.136
535.00,38.228
536.00,38.286
537.00,38.377
538.00,38.461
539.00,38.535
540.00,38.576
541.00,38.577
542.00,38.696
543.00,38.754
544.00,38.881
545.00,38.929
546.00,38.969
547.00,39.079
548.00,39.131
549.00,39.200
550.00,39.266
551.00,39.368
552.00,39.422
553.00,39.474
554.00,39.545
555.00,39.579
556.00,39.632
557.00,39.689
558.00,39.745
559.00,39.827
560.00,39.923
561.00,39.926
562.00,40.021
563.00,40.034
564.00,40.017
565.00,40.050
566.00,40.075
567.00,40.151
568.00,40.117
569.00,40.188
570.00,40.258
571.00,40.287
572.00,40.303
573.00,40.354
574.00,40.444
575.00,40.452
576.00,40.495
577.00,40.557
578.00,40.579
579.00,40.668
580.00,40.717
581.00,40.819
582.00,40.872
583.00,40.907
584.00,41.032
585.00,41.039
586.00,41.136
587.00,41.222
588.00,41.226
589.00,41.220
590.00,41.285
591.00,41.291
592.00,41.303
593.00,41.424
594.00,41.421
595.00,41.419
596.00,41.527
597.00,41.514
598.00,41.523
599.00,41.497
600.00,41.623
601.00,41.722
602.00,41.858
603.00,41.866
604.00,41.866
605.00,41.877
606.00,41.938
607.00,42.003
608.00,42.066
609.00,42.048
610.00,42.084
611.00,42.172
612.00,42.235
613.00,42.209
614.00,42.251
615.00,42.306
616.00,42.428
617.00,42.382
618.00,42.497
619.00,42.534
620.00,42.527
621.00,42.605
622.00,42.638
623.00,42.657
624.00,42.715
625.00,42.792
626.00,42.786
627.00,42.892
628.00,42.840
629.00,42.975
630.00,42.974
631.00,43.010
632.00,43.087
633.00,43.186
634.00,43.261
635.00,43.364
636.00,43.390
637.00,43.470
638.00,43.503
639.00,43.502
640.00,43.548
641.00,43.528
642.00,43.682
643.00,43.687
644.00,43.751
645.00,43.888
646.00,43.937
647.00,43.949
648.00,44.025
649.00,44.102
650.00,44.058
651.00,44.080
652.00,44.240
653.00,44.266
654.00,44.213
655.00,44.346
656.00,44.539
657.00,44.560
658.00,44.624
659.00,44.761
660.00,44.889
661.00,44.746
662.00,44.803
663.00,44.957
664.00,45.087
665.00,44.997
666.00,45.002
667.00,45.183
668.00,45.383
669.00,45.379
670.00,45.482
671.00,45.387
672.00,45.371
673.00,45.649
674.00,45.667
675.00,45.732
676.00,45.879
677.00,45.905
678.00,45.843
679.00,45.847
680.00,45.959
681.00,46.042
682.00,46.170
683.00,46.245
684.00,46.310
685.00,46.272
686.00,46.131
687.00,46.137
688.00,46.401
689.00,46.431
690.00,46.614
691.00,46.740
692.00,46.758
693.00,46.716
694.00,46.790
695.00,46.969
696.00,46.991
697.00,47.065
698.00,47.184
699.00,47.234
700.00,47.187
701.00,47.240
702.00,47.335
703.00,47.401
704.00,47.457
705.00,47.446
706.00,47.617
707.00,47.660
708.00,47.532
709.00,47.695
710.00,47.890
711.00,47.729
712.00,47.785
713.00,47.874
714.00,47.909
715.00,47.943
716.00,48.029
717.00,47.997
718.00,48.030
719.00,48.097
720.00,48.156
721.00,52.379
722.00,52.346
723.00,52.425
724.00,52.362
725.00,52.337
726.00,52.342
727.00,52.316
728.00,52.383
729.00,52.381
730.00,52.348
731.00,52.350
732.00,52.300
733.00,52.327
734.00,52.333
735.00,52.418
736.00,52.375
737.00,52.380
738.00,52.406
739.00,52.431
740.00,52.424
741.00,52.442
742.00,52.472
743.00,52.558
744.00,52.372
745.00,52.429
746.00,52.414
747.00,52.368
748.00,52.365
749.00,52.232
750.00,52.311
751.00,52.336
752.00,52.332
753.00,52.234
754.00,52.258
755.00,52.255
756.00,52.273
757.00,52.268
758.00,52.265
759.00,52.258
760.00,52.230
761.00,52.277
762.00,52.271
763.00,52.310
764.00,52.260
765.00,52.223
766.00,52.187
767.00,52.247
768.00,52.239
769.00,52.263
770.00,52.299
771.00,52.278
772.00,52.283
773.00,52.280
774.00,52.172
775.00,52.239
776.00,52.279
777.00,52.230
778.00,52.178
779.00,52.226
780.00,52.246
781.00,52.188
782.00,52.300
783.00,52.210
784.00,52.185
785.00,52.131
786.00,52.120
787.00,52.087
788.00,52.090
789.00,52.146
790.00,52.048
791.00,52.041
792.00,52.017
793.00,51.959
794.00,51.909
795.00,52.028
796.00,51.977
797.00,51.908
798.00,51.911
799.00,51.874
800.00,51.850
801.00,51.813
802.00,51.790
803.00,51.864
804.00,51.764
805.00,51.742
806.00,51.770
807.00,51.726
808.00,51.734
809.00,51.703
810.00,51.635
811.00,51.656
812.00,51.685
813.00,51.619
814.00,51.636
815.00,51.573
816.00,51.551
817.00,51.525
818.00,51.477
819.00,51.542
820.00,51.469
821.00,51.414
822.00,51.439
823.00,51.350
824.00,51.405
825.00,51.423
826.00,51.342
827.00,51.423
828.00,51.390
829.00,51.291
830.00,51.302
831.00,53.832
832.00,53.857
833.00,53.808
834.00,53.790
835.00,53.820
836.00,53.712
837.00,53.713
838.00,53.663
839.00,53.669
840.00,53.613
841.00,53.649
842.00,53.633
843.00,53.586
844.00,53.609
845.00,53.520
846.00,53.555
847.00,53.530
848.00,53.482
849.00,53.454
850.00,53.390
851.00,53.352
852.00,53.327
853.00,53.293
854.00,53.289
855.00,53.240
856.00,53.205
857.00,53.178
858.00,53.161
859.00,53.083
860.00,53.222
861.00,53.097
862.00,53.043
863.00,53.058
864.00,53.002
865.00,53.029
866.00,52.999
867.00,53.028
868.00,52.998
869.00,52.968
870.00,52.964
871.00,52.980
872.00,52.979
873.00,52.914
874.00,53.078
875.00,53.046
876.00,52.861
877.00,52.867
878.00,52.801
879.00,52.806
880.00,52.813
881.00,52.757
882.00,52.770
883.00,52.757
884.00,52.736
885.00,52.665
886.00,52.683
887.00,52.660
888.00,52.637
889.00,52.628
890.00,52.609
891.00,52.568
892.00,52.554
893.00,52.512
894.00,52.522
895.00,52.486
896.00,52.469
897.00,52.447
898.00,52.447
899.00,52.434
900.00,52.419
901.00,52.440
902.00,52.417
903.00,52.388
904.00,52.350
905.00,52.374
906.00,52.251
907.00,52.283
908.00,52.248
909.00,52.252
910.00,52.218
911.00,52.199
912.00,52.229
913.00,52.161
914.00,52.085
915.00,52.207
916.00,52.100
917.00,52.077
918.00,52.056
919.00,52.051
920.00,52.025
921.00,52.008
922.00,52.007
923.00,51.954
924.00,51.947
925.00,51.926
926.00,51.920
927.00,51.915
928.00,51.869
929.00,51.874
930.00,51.819
931.00,51.817
932.00,51.782
933.00,51.763
934.00,51.745
935.00,51.739
936.00,51.706
937.00,51.709
938.00,51.672
939.00,51.680
940.00,51.653
941.00,51.654
942.00,51.603
943.00,51.614
944.00,51.533
945.00,51.554
946.00,51.542
947.00,51.517
948.00,51.479
949.00,51.474
950.00,51.452
951.00,51.402
952.00,51.439
953.00,51.370
954.00,51.352
955.00,51.318
956.00,51.297
957.00,51.214
958.00,51.274
959.00,51.200
960.00,51.195
961.00,51.181
962.00,51.212
963.00,51.152
964.00,51.145
965.00,51.133
966.00,51.140
967.00,51.126
968.00,51.106
969.00,51.137
970.00,51.109
971.00,51.123
972.00,51.087
973.00,51.108
974.00,51.135
975.00,51.082
976.00,51.120
977.00,51.085
978.00,51.119
979.00,51.089
980.00,51.103
981.00,51.097
982.00,51.083
983.00,51.084
984.00,51.072
985.00,51.101
986.00,51.042
987.00,51.072
988.00,51.049
989.00,51.002
990.00,51.028
991.00,50.997
992.00,51.016
993.00,50.991
994.00,50.945
995.00,50.964
996.00,50.943
997.00,50.934
998.00,50.907
999.00,50.930
1000.00,50.876
1001.00,50.885
1002.00,50.816
1003.00,50.864
1004.00,50.865
1005.00,50.803
1006.00,50.886
1007.00,50.813
1008.00,50.796
1009.00,50.803
1010.00,50.776
1011.00,50.756
1012.00,50.729
1013.00,50.738
1014.00,50.698
1015.00,50.715
1016.00,50.671
1017.00,50.680
1018.00,50.636
1019.00,50.617
1020.00,50.629
1021.00,50.616
1022.00,50.586
1023.00,50.557
1024.00,50.560
1025.00,50.539
1026.00,50.538
1027.00,50.506
1028.00,50.504
1029.00,50.499
1030.00,50.447
1031.00,50.463
1032.00,50.418
1033.00,50.409
1034.00,50.392
1035.00,50.357
1036.00,50.331
1037.00,50.323
1038.00,50.299
1039.00,50.282
1040.00,50.293
1041.00,50.234
1042.00,50.241
1043.00,50.201
1044.00,50.219
1045.00,50.210
1046.00,50.195
1047.00,50.203
1048.00,50.221
1049.00,50.216
1050.00,50.225
1051.00,50.267
1052.00,50.282
1053.00,50.288
1054.00,50.278
1055.00,50.292
1056.00,50.315
1057.00,50.312
1058.00,50.303
1059.00,50.300
1060.00,50.277
1061.00,50.286
1062.00,50.260
1063.00,50.262
1064.00,50.243
1065.00,50.259
1066.00,50.246
1067.00,50.271
1068.00,50.253
1069.00,50.217
1070.00,50.210
1071.00,50.174
1072.00,50.206
1073.00,50.173
1074.00,50.166
1075.00,50.158
1076.00,50.144
1077.00,50.126
1078.00,50.116
1079.00,50.117
1080.00,50.133
1081.00,50.135
1082.00,50.113
1083.00,50.084
1084.00,50.082
1085.00,50.054
1086.00,50.071
1087.00,50.057
1088.00,50.036
1089.00,50.038
1090.00,50.026
1091.00,50.030
1092.00,50.017
1093.00,49.977
1094.00,49.972
1095.00,49.965
1096.00,49.947
1097.00,49.937
1098.00,49.941
1099.00,49.921
1100.00,49.922
1101.00,49.899
1102.00,49.900
1103.00,49.903
1104.00,49.874
1105.00,49.875
1106.00,49.862
1107.00,49.843
1108.00,49.842
1109.00,49.828
1110.00,49.823
1111.00,49.818
1112.00,49.811
1113.00,49.810
1114.00,49.809
1115.00,49.795
1116.00,49.795
1117.00,49.774
1118.00,49.763
1119.00,49.763
1120.00,49.766
1121.00,49.742
1122.00,49.739
1123.00,49.732
1124.00,49.717
1125.00,49.707
1126.00,49.707
1127.00,49.716
1128.00,49.735
1129.00,49.673
1130.00,49.676
1131.00,49.669
1132.00,49.661
1133.00,49.677
1134.00,49.639
1135.00,49.605
1136.00,49.643
1137.00,49.626
1138.00,49.646
1139.00,49.642
1140.00,49.608
1141.00,49.609
1142.00,49.598
1143.00,49.593
1144.00,49.589
1145.00,49.590
1146.00,49.590
1147.00,49.587
1148.00,49.567
1149.00,49.594
1150.00,49.585
1151.00,49.571
1152.00,49.569
1153.00,49.558
1154.00,49.548
1155.00,49.552
1156.00,49.551
1157.00,49.549
1158.00,49.551
1159.00,49.542
1160.00,49.530
1161.00,49.548
1162.00,49.512
1163.00,49.536
1164.00,49.521
1165.00,49.501
1166.00,49.519
1167.00,49.514
1168.00,49.510
1169.00,49.519
1170.00,49.506
1171.00,49.501
1172.00,49.504
1173.00,49.484
1174.00,49.508
1175.00,49.493
1176.00,49.483
1177.00,49.489
1178.00,49.470
1179.00,49.478
1180.00,49.486
1181.00,49.481
1182.00,49.494
1183.00,49.479
1184.00,49.462
1185.00,49.487
1186.00,49.453
1187.00,49.483
1188.00,49.479
1189.00,49.486
1190.00,49.489
1191.00,49.467
1192.00,49.462
1193.00,49.454
1194.00,49.465
1195.00,49.415
1196.00,49.460
1197.00,49.449
1198.00,49.430
1199.00,49.443
1200.00,49.431
1201.00,49.452
1202.00,49.441
1203.00,49.432
1204.00,49.423
1205.00,49.450
1206.00,49.416
1207.00,49.432
1208.00,49.421
1209.00,49.405
1210.00,49.426
1211.00,49.424
1212.00,49.434
1213.00,49.405
1214.00,49.418
1215.00,49.417
1216.00,49.413
1217.00,49.407
1218.00,49.408
1219.00,49.419
1220.00,49.403
1221.00,49.423
1222.00,49.399
1223.00,49.416
1224.00,49.415
1225.00,49.391
1226.00,49.411
1227.00,49.398
1228.00,49.402
1229.00,49.423
1230.00,49.453
1231.00,49.431
1232.00,49.463
1233.00,49.455
1234.00,49.460
1235.00,49.456
1236.00,49.446
1237.00,49.446
1238.00,49.455
1239.00,49.449
1240.00,49.460
1241.00,49.461
1242.00,49.444
1243.00,49.481
1244.00,49.441
1245.00,49.467
1246.00,49.490
1247.00,49.476
1248.00,49.476
1249.00,49.494
1250.00,49.483
1251.00,49.481
1252.00,49.489
1253.00,49.470
1254.00,49.499
1255.00,49.497
1256.00,49.465
1257.00,49.458
1258.00,49.483
1259.00,49.496
1260.00,49.529
1261.00,49.496
1262.00,49.516
1263.00,49.503
1264.00,49.509
1265.00,49.526
1266.00,49.510
1267.00,49.516
1268.00,49.546
1269.00,49.511
1270.00,49.539
1271.00,49.543
1272.00,49.537
1273.00,49.547
1274.00,49.543
1275.00,49.536
1276.00,49.556
1277.00,49.551
1278.00,49.565
1279.00,49.574
1280.00,49.562
1281.00,49.583
1282.00,49.596
1283.00,49.566
1284.00,49.578
1285.00,49.564
1286.00,49.579
1287.00,49.570
1288.00,49.580
1289.00,49.584
1290.00,49.616
1291.00,49.602
1292.00,49.618
1293.00,49.613
1294.00,49.612
1295.00,49.647
1296.00,49.640
1297.00,49.628
1298.00,49.657
1299.00,49.639
1300.00,49.646
1301.00,49.652
1302.00,49.647
1303.00,49.676
1304.00,49.659
1305.00,49.662
1306.00,49.690
1307.00,49.690
1308.00,49.672
1309.00,49.695
1310.00,49.707
1311.00,49.702
1312.00,49.692
1313.00,49.676
1314.00,49.714
1315.00,49.714
1316.00,49.695
1317.00,49.731
1318.00,49.725
1319.00,49.725
1320.00,49.760
1321.00,49.909
1322.00,49.911
1323.00,49.903
1324.00,49.915
1325.00,49.883
1326.00,49.926
1327.00,49.902
1328.00,49.899
1329.00,49.912
1330.00,49.894
1331.00,49.915
1332.00,49.912
1333.00,49.907
1334.00,49.941
1335.00,49.959
1336.00,49.963
1337.00,50.023
1338.00,50.065
1339.00,50.121
1340.00,50.182
1341.00,50.216
1342.00,50.310
1343.00,50.346
1344.00,50.379
1345.00,50.488
1346.00,50.503
1347.00,50.487
1348.00,50.559
1349.00,50.549
1350.00,50.573
1351.00,50.595
1352.00,50.619
1353.00,50.638
1354.00,50.610
1355.00,50.510
1356.00,50.577
1357.00,50.608
1358.00,50.687
1359.00,50.750
1360.00,50.777
1361.00,50.396
1362.00,50.501
1363.00,50.733
1364.00,50.543
1365.00,50.700
1366.00,50.719
1367.00,50.560
1368.00,50.616
1369.00,50.697
1370.00,50.573
1371.00,50.522
1372.00,50.588
1373.00,50.593
1374.00,50.600
1375.00,50.598
1376.00,50.605
1377.00,50.629
1378.00,50.635
1379.00,50.589
1380.00,50.623
1381.00,50.450
1382.00,50.500
1383.00,50.556
1384.00,50.474
1385.00,50.574
1386.00,50.579
1387.00,50.493
1388.00,50.491
1389.00,50.581
1390.00,50.656
1391.00,50.461
1392.00,50.660
1393.00,50.738
1394.00,50.551
1395.00,50.439
1396.00,50.469
1397.00,50.552
1398.00,50.784
1399.00,50.468
1400.00,50.155
1401.00,50.509
1402.00,50.714
1403.00,50.471
1404.00,50.542
1405.00,50.599
1406.00,50.585
1407.00,50.612
1408.00,50.581
1409.00,50.575
1410.00,50.619
1411.00,50.690
1412.00,50.691
1413.00,50.492
1414.00,50.617
1415.00,50.658
1416.00,50.715
1417.00,50.705
1418.00,50.665
1419.00,50.664
1420.00,50.725
1421.00,50.712
1422.00,50.719
1423.00,50.739
1424.00,50.746
1425.00,50.763
1426.00,50.775
1427.00,50.798
1428.00,50.812
1429.00,50.810
1430.00,50.830
1431.00,50.823
1432.00,50.828
1433.00,50.872
1434.00,50.848
1435.00,50.882
1436.00,50.916
1437.00,50.889
1438.00,50.917
1439.00,50.959
1440.00,50.961
1441.00,50.965
1442.00,50.965
1443.00,51.011
1444.00,51.037
1445.00,51.000
1446.00,51.008
1447.00,51.064
1448.00,51.060
1449.00,51.113
1450.00,51.086
1451.00,51.089
1452.00,51.110
1453.00,51.148
1454.00,51.126
1455.00,51.161
1456.00,51.179
1457.00,51.173
1458.00,51.212
1459.00,51.215
1460.00,51.220
1461.00,51.248
1462.00,51.242
1463.00,51.274
1464.00,51.283
1465.00,51.278
1466.00,51.303
1467.00,51.322
1468.00,51.350
1469.00,51.366
1470.00,51.359
1471.00,51.383
1472.00,51.404
1473.00,51.396
1474.00,51.432
1475.00,51.449
1476.00,51.451
1477.00,51.465
1478.00,51.461
1479.00,51.480
1480.00,51.498
1481.00,51.489
1482.00,51.512
1483.00,51.536
1484.00,51.531
1485.00,51.559
1486.00,51.554
1487.00,51.567
1488.00,51.599
1489.00,51.599
1490.00,51.600
1491.00,51.620
1492.00,51.623
1493.00,51.619
1494.00,51.636
1495.00,51.630
1496.00,51.641
1497.00,51.663
1498.00,51.647
1499.00,51.685
1500.00,51.705
1501.00, 
1502.00, 
1503.00, 
1504.00, 
1505.00, 
1506.00, 
1507.00, 
1508.00, 
1509.00, 
1510.00, 
1511.00, 
1512.00, 
1513.00, 
1514.00, 
1515.00, 
1516.00, 
1517.00, 
1518.00, 
1519.00, 
1520.00, 
1521.00, 
1522.00, 
1523.00, 
1524.00, 
1525.00, 
1526.00, 
1527.00, 
1528.00, 
1529.00, 
1530.00, 
1531.00, 
1532.00, 
1533.00, 
1534.00, 
1535.00, 
1536.00, 
1537.00, 
1538.00, 
1539.00, 
1540.00, 
1541.00, 
1542.00, 
1543.00, 
1544.00, 
1545.00, 
1546.00, 
1547.00, 
1548.00, 
1549.00, 
1550.00, 
1551.00, 
1552.00, 
1553.00, 
1554.00, 
1555.00, 
1556.00, 
1557.00, 
1558.00, 
1559.00, 
1560.00, 
1561.00, 
1562.00, 
1563.00, 
1564.00, 
1565.00, 
1566.00, 
1567.00, 
1568.00, 
1569.00, 
1570.00, 
1571.00, 
1572.00, 
1573.00, 
1574.00, 
1575.00, 
1576.00, 
1577.00, 
1578.00, 
1579.00, 
1580.00, 
1581.00, 
1582.00, 
1583.00, 
1584.00, 
1585.00, 
1586.00, 
1587.00, 
1588.00, 
1589.00, 
1590.00, 
1591.00, 
1592.00, 
1593.00, 
1594.00, 
1595.00, 
1596.00, 
1597.00, 
1598.00, 
1599.00, 
1600.00, 
1601.00, 
1602.00, 
1603.00, 
1604.00, 
1605.00, 
1606.00, 
1607.00, 
1608.00, 
1609.00, 
1610.00, 
1611.00, 
1612.00, 
1613.00, 
1614.00, 
1615.00, 
1616.00, 
1617.00, 
1618.00, 
1619.00, 
1620.00, 
1621.00, 
1622.00, 
1623.00, 
1624.00, 
1625.00, 
1626.00, 
1627.00, 
1628.00, 
1629.00, 
1630.00, 
1631.00, 
1632.00, 
1633.00, 
1634.00, 
1635.00, 
1636.00, 
1637.00, 
1638.00, 
1639.00, 
1640.00, 
1641.00, 
1642.00, 
1643.00, 
1644.00, 
1645.00, 
1646.00, 
1647.00, 
1648.00, 
1649.00, 
1650.00, 
1651.00, 
1652.00, 
1653.00, 
1654.00, 
1655.00, 
1656.00, 
1657.00, 
1658.00, 
1659.00, 
1660.00, 
1661.00, 
1662.00, 
1663.00, 
1664.00, 
1665.00, 
1666.00, 
1667.00, 
1668.00, 
1669.00, 
1670.00, 
1671.00, 
1672.00, 
1673.00, 
1674.00, 
1675.00, 
1676.00, 
1677.00, 
1678.00, 
1679.00, 
1680.00, 
1681.00, 
1682.00, 
1683.00, 
1684.00, 
1685.00, 
1686.00, 
1687.00, 
1688.00, 
1689.00, 
1690.00, 
1691.00, 
1692.00, 
1693.00, 
1694.00, 
1695.00, 
1696.00, 
1697.00, 
1698.00, 
1699.00, 
1700.00, 
1701.00, 
1702.00, 
1703.00, 
1704.00, 
1705.00, 
1706.00, 
1707.00, 
1708.00, 
1709.00, 
1710.00, 
1711.00, 
1712.00, 
1713.00, 
1714.00, 
1715.00, 
1716.00, 
1717.00, 
1718.00, 
1719.00, 
1720.00, 
1721.00, 
1722.00, 
1723.00, 
1724.00, 
1725.00, 
1726.00, 
1727.00, 
1728.00, 
1729.00, 
1730.00, 
1731.00, 
1732.00, 
1733.00, 
1734.00, 
1735.00, 
1736.00, 
1737.00, 
1738.00, 
1739.00, 
1740.00, 
1741.00, 
1742.00, 
1743.00, 
1744.00, 
1745.00, 
1746.00, 
1747.00, 
1748.00, 
1749.00, 
1750.00, 
1751.00, 
1752.00, 
1753.00, 
1754.00, 
1755.00, 
1756.00, 
1757.00, 
1758.00, 
1759.00, 
1760.00, 
1761.00, 
1762.00, 
1763.00, 
1764.00, 
1765.00, 
1766.00, 
1767.00, 
1768.00, 
1769.00, 
1770.00, 
1771.00, 
1772.00, 
1773.00, 
1774.00, 
1775.00, 
1776.00, 
1777.00, 
1778.00, 
1779.00, 
1780.00, 
1781.00, 
1782.00, 
1783.00, 
1784.00, 
1785.00, 
1786.00, 
1787.00, 
1788.00, 
1789.00, 
1790.00, 
1791.00, 
1792.00, 
1793.00, 
1794.00, 
1795.00, 
1796.00, 
1797.00, 
1798.00, 
1799.00, 
1800.00, 
1801.00, 
1802.00, 
1803.00, 
1804.00, 
1805.00, 
1806.00, 
1807.00, 
1808.00, 
1809.00, 
1810.00, 
1811.00, 
1812.00, 
1813.00, 
1814.00, 
1815.00, 
1816.00, 
1817.00, 
1818.00, 
1819.00, 
1820.00, 
1821.00, 
1822.00, 
1823.00, 
1824.00, 
1825.00, 
1826.00, 
1827.00, 
1828.00, 
1829.00, 
1830.00, 
1831.00, 
1832.00, 
1833.00, 
1834.00, 
1835.00, 
1836.00, 
1837.00, 
1838.00, 
1839.00, 
1840.00, 
1841.00, 
1842.00, 
1843.00, 
1844.00, 
1845.00, 
1846.00, 
1847.00, 
1848.00, 
1849.00, 
1850.00, 
1851.00, 
1852.00, 
1853.00, 
1854.00, 
1855.00, 
1856.00, 
1857.00, 
1858.00, 
1859.00, 
1860.00, 
1861.00, 
1862.00, 
1863.00, 
1864.00, 
1865.00, 
1866.00, 
1867.00, 
1868.00, 
1869.00, 
1870.00, 
1871.00, 
1872.00, 
1873.00, 
1874.00, 
1875.00, 
1876.00, 
1877.00, 
1878.00, 
1879.00, 
1880.00, 
1881.00, 
1882.00, 
1883.00, 
1884.00, 
1885.00, 
1886.00, 
1887.00, 
1888.00, 
1889.00, 
1890.00, 
1891.00, 
1892.00, 
1893.00, 
1894.00, 
1895.00, 
1896.00, 
1897.00, 
1898.00, 
1899.00, 
1900.00, 
1901.00, 
1902.00, 
1903.00, 
1904.00, 
1905.00, 
1906.00, 
1907.00, 
1908.00, 
1909.00, 
1910.00, 
1911.00, 
1912.00, 
1913.00, 
1914.00, 
1915.00, 
1916.00, 
1917.00, 
1918.00, 
1919.00, 
1920.00, 
1921.00, 
1922.00, 
1923.00, 
1924.00, 
1925.00, 
1926.00, 
1927.00, 
1928.00, 
1929.00, 
1930.00, 
1931.00, 
1932.00, 
1933.00, 
1934.00, 
1935.00, 
1936.00, 
1937.00, 
1938.00, 
1939.00, 
1940.00, 
1941.00, 
1942.00, 
1943.00, 
1944.00, 
1945.00, 
1946.00, 
1947.00, 
1948.00, 
1949.00, 
1950.00, 
1951.00, 
1952.00, 
1953.00, 
1954.00, 
1955.00, 
1956.00, 
1957.00, 
1958.00, 
1959.00, 
1960.00, 
1961.00, 
1962.00, 
1963.00, 
1964.00, 
1965.00, 
1966.00, 
1967.00, 
1968.00, 
1969.00, 
1970.00, 
1971.00, 
1972.00, 
1973.00, 
1974.00, 
1975.00, 
1976.00, 
1977.00, 
1978.00, 
1979.00, 
1980.00, 
1981.00, 
1982.00, 
1983.00, 
1984.00, 
1985.00, 
1986.00, 
1987.00, 
1988.00, 
1989.00, 
1990.00, 
1991.00, 
1992.00, 
1993.00, 
1994.00, 
1995.00, 
1996.00, 
1997.00, 
1998.00, 
1999.00, 
2000.00, 
2001.00, 
2002.00, 
2003.00, 
2004.00, 
2005.00, 
2006.00, 
2007.00, 
2008.00, 
2009.00, 
2010.00, 
2011.00, 
2012.00, 
2013.00, 
2014.00, 
2015.00, 
2016.00, 
2017.00, 
2018.00, 
2019.00, 
2020.00, 
2021.00, 
2022.00, 
2023.00, 
2024.00, 
2025.00, 
2026.00, 
2027.00, 
2028.00, 
2029.00, 
2030.00, 
2031.00, 
2032.00, 
2033.00, 
2034.00, 
2035.00, 
2036.00, 
2037.00, 
2038.00, 
2039.00, 
2040.00, 
2041.00, 
2042.00, 
2043.00, 
2044.00, 
2045.00, 
2046.00, 
2047.00, 
2048.00, 
2049.00, 
2050.00, 
2051.00, 
2052.00, 
2053.00, 
2054.00, 
2055.00, 
2056.00, 
2057.00, 
2058.00, 
2059.00, 
2060.00, 
2061.00, 
2062.00, 
2063.00, 
2064.00, 
2065.00, 
2066.00, 
2067.00, 
2068.00, 
2069.00, 
2070.00, 
2071.00, 
2072.00, 
2073.00, 
2074.00, 
2075.00, 
2076.00, 
2077.00, 
2078.00, 
2079.00, 
2080.00, 
2081.00, 
2082.00, 
2083.00, 
2084.00, 
2085.00, 
2086.00, 
2087.00, 
2088.00, 
2089.00, 
2090.00, 
2091.00, 
2092.00, 
2093.00, 
2094.00, 
2095.00, 
2096.00, 
2097.00, 
2098.00, 
2099.00, 
2100.00, 
2101.00, 
2102.00, 
2103.00, 
2104.00, 
2105.00, 
2106.00, 
2107.00, 
2108.00, 
2109.00, 
2110.00, 
2111.00, 
2112.00, 
2113.00, 
2114.00, 
2115.00, 
2116.00, 
2117.00, 
2118.00, 
2119.00, 
2120.00, 
2121.00, 
2122.00, 
2123.00, 
2124.00, 
2125.00, 
2126.00, 
2127.00, 
2128.00, 
2129.00, 
2130.00, 
2131.00, 
2132.00, 
2133.00, 
2134.00, 
2135.00, 
2136.00, 
2137.00, 
2138.00, 
2139.00, 
2140.00, 
2141.00, 
2142.00, 
2143.00, 
2144.00, 
2145.00, 
2146.00, 
2147.00, 
2148.00, 
2149.00, 
2150.00, 
2151.00, 
2152.00, 
2153.00, 
2154.00, 
2155.00, 
2156.00, 
2157.00, 
2158.00, 
2159.00, 
2160.00, 
2161.00, 
2162.00, 
2163.00, 
2164.00, 
2165.00, 
2166.00, 
2167.00, 
2168.00, 
2169.00, 
2170.00, 
2171.00, 
2172.00, 
2173.00, 
2174.00, 
2175.00, 
2176.00, 
2177.00, 
2178.00, 
2179.00, 
2180.00, 
2181.00, 
2182.00, 
2183.00, 
2184.00, 
2185.00, 
2186.00, 
2187.00, 
2188.00, 
2189.00, 
2190.00, 
2191.00, 
2192.00, 
2193.00, 
2194.00, 
2195.00, 
2196.00, 
2197.00, 
2198.00, 
2199.00, 
2200.00, 
2201.00, 
2202.00, 
2203.00, 
2204.00, 
2205.00, 
2206.00, 
2207.00, 
2208.00, 
2209.00, 
2210.00, 
2211.00, 
2212.00, 
2213.00, 
2214.00, 
2215.00, 
2216.00, 
2217.00, 
2218.00, 
2219.00, 
2220.00, 
2221.00, 
2222.00, 
2223.00, 
2224.00, 
2225.00, 
2226.00, 
2227.00, 
2228.00, 
2229.00, 
2230.00, 
2231.00, 
2232.00, 
2233.00, 
2234.00, 
2235.00, 
2236.00, 
2237.00, 
2238.00, 
2239.00, 
2240.00, 
2241.00, 
2242.00, 
2243.00, 
2244.00, 
2245.00, 
2246.00, 
2247.00, 
2248.00, 
2249.00, 
2250.00, 
2251.00, 
2252.00, 
2253.00, 
2254.00, 
2255.00, 
2256.00, 
2257.00, 
2258.00, 
2259.00, 
2260.00, 
2261.00, 
2262.00, 
2263.00, 
2264.00, 
2265.00, 
2266.00, 
2267.00, 
2268.00, 
2269.00, 
2270.00, 
2271.00, 
2272.00, 
2273.00, 
2274.00, 
2275.00, 
2276.00, 
2277.00, 
2278.00, 
2279.00, 
2280.00, 
2281.00, 
2282.00, 
2283.00, 
2284.00, 
2285.00, 
2286.00, 
2287.00, 
2288.00, 
2289.00, 
2290.00, 
2291.00, 
2292.00, 
2293.00, 
2294.00, 
2295.00, 
2296.00, 
2297.00, 
2298.00, 
2299.00, 
2300.00, 
2301.00, 
2302.00, 
2303.00, 
2304.00, 
2305.00, 
2306.00, 
2307.00, 
2308.00, 
2309.00, 
2310.00, 
2311.00, 
2312.00, 
2313.00, 
2314.00, 
2315.00, 
2316.00, 
2317.00, 
2318.00, 
2319.00, 
2320.00, 
2321.00, 
2322.00, 
2323.00, 
2324.00, 
2325.00, 
2326.00, 
2327.00, 
2328.00, 
2329.00, 
2330.00, 
2331.00, 
2332.00, 
2333.00, 
2334.00, 
2335.00, 
2336.00, 
2337.00, 
2338.00, 
2339.00, 
2340.00, 
2341.00, 
2342.00, 
2343.00, 
2344.00, 
2345.00, 
2346.00, 
2347.00, 
2348.00, 
2349.00, 
2350.00, 
2351.00, 
2352.00, 
2353.00, 
2354.00, 
2355.00, 
2356.00, 
2357.00, 
2358.00, 
2359.00, 
2360.00, 
2361.00, 
2362.00, 
2363.00, 
2364.00, 
2365.00, 
2366.00, 
2367.00, 
2368.00, 
2369.00, 
2370.00, 
2371.00, 
2372.00, 
2373.00, 
2374.00, 
2375.00, 
2376.00, 
2377.00, 
2378.00, 
2379.00, 
2380.00, 
2381.00, 
2382.00, 
2383.00, 
2384.00, 
2385.00, 
2386.00, 
2387.00, 
2388.00, 
2389.00, 
2390.00, 
2391.00, 
2392.00, 
2393.00, 
2394.00, 
2395.00, 
2396.00, 
2397.00, 
2398.00, 
2399.00, 
2400.00, 
2401.00, 
2402.00, 
2403.00, 
2404.00, 
2405.00, 
2406.00, 
2407.00, 
2408.00, 
2409.00, 
2410.00, 
2411.00, 
2412.00, 
2413.00, 
2414.00, 
2415.00, 
2416.00, 
2417.00, 
2418.00, 
2419.00, 
2420.00, 
2421.00, 
2422.00, 
2423.00, 
2424.00, 
2425.00, 
2426.00, 
2427.00, 
2428.00, 
2429.00, 
2430.00, 
2431.00, 
2432.00, 
2433.00, 
2434.00, 
2435.00, 
2436.00, 
2437.00, 
2438.00, 
2439.00, 
2440.00, 
2441.00, 
2442.00, 
2443.00, 
2444.00, 
2445.00, 
2446.00, 
2447.00, 
2448.00, 
2449.00, 
2450.00, 
2451.00, 
2452.00, 
2453.00, 
2454.00, 
2455.00, 
2456.00, 
2457.00, 
2458.00, 
2459.00, 
2460.00, 
2461.00, 
2462.00, 
2463.00, 
2464.00, 
2465.00, 
2466.00, 
2467.00, 
2468.00, 
2469.00, 
2470.00, 
2471.00, 
2472.00, 
2473.00, 
2474.00, 
2475.00, 
2476.00, 
2477.00, 
2478.00, 
2479.00, 
2480.00, 
2481.00, 
2482.00, 
2483.00, 
2484.00, 
2485.00, 
2486.00, 
2487.00, 
2488.00, 
2489.00, 
2490.00, 
2491.00, 
2492.00, 
2493.00, 
2494.00, 
2495.00, 
2496.00, 
2497.00, 
2498.00, 
2499.00, 
2500.00, 
2501.00, 
2502.00, 
2503.00, 
2504.00, 
2505.00, 
2506.00, 
2507.00, 
2508.00, 
2509.00, 
2510.00, 
2511.00, 
2512.00, 
2513.00, 
2514.00, 
2515.00, 
2516.00, 
2517.00, 
2518.00, 
2519.00, 
2520.00, 
2521.00, 
2522.00, 
2523.00, 
2524.00, 
2525.00, 
2526.00, 
2527.00, 
2528.00, 
2529.00, 
2530.00, 
2531.00, 
2532.00, 
2533.00, 
2534.00, 
2535.00, 
2536.00, 
2537.00, 
2538.00, 
2539.00, 
2540.00, 
2541.00, 
2542.00, 
2543.00, 
2544.00, 
2545.00, 
2546.00, 
2547.00, 
2548.00, 
2549.00, 
2550.00, 
2551.00, 
2552.00, 
2553.00, 
2554.00, 
2555.00, 
2556.00, 
2557.00, 
2558.00, 
2559.00, 
2560.00, 
2561.00, 
2562.00, 
2563.00, 
2564.00, 
2565.00, 
2566.00, 
2567.00, 
2568.00, 
2569.00, 
2570.00, 
2571.00, 
2572.00, 
2573.00, 
2574.00, 
2575.00, 
2576.00, 
2577.00, 
2578.00, 
2579.00, 
2580.00, 
2581.00, 
2582.00, 
2583.00, 
2584.00, 
2585.00, 
2586.00, 
2587.00, 
2588.00, 
2589.00, 
2590.00, 
2591.00, 
2592.00, 
2593.00, 
2594.00, 
2595.00, 
2596.00, 
2597.00, 
2598.00, 
2599.00, 
2600.00, 
