"2cP2 - RawData"
"Wavelength nm.","T%"
200.00,-0.001
201.00,0.001
202.00,0.006
203.00,0.001
204.00,0.001
205.00,0.001
206.00,0.003
207.00,0.002
208.00,0.006
209.00,0.000
210.00,0.004
211.00,-0.002
212.00,0.002
213.00,0.001
214.00,0.002
215.00,0.000
216.00,-0.001
217.00,0.001
218.00,0.001
219.00,0.001
220.00,0.001
221.00,0.001
222.00,0.000
223.00,0.002
224.00,0.001
225.00,0.003
226.00,0.002
227.00,-0.001
228.00,0.001
229.00,0.000
230.00,0.003
231.00,0.002
232.00,0.001
233.00,-0.001
234.00,0.001
235.00,0.001
236.00,-0.000
237.00,0.001
238.00,0.000
239.00,0.000
240.00,0.002
241.00,-0.000
242.00,0.002
243.00,0.002
244.00,0.002
245.00,0.001
246.00,0.000
247.00,0.001
248.00,-0.001
249.00,0.002
250.00,-0.000
251.00,0.001
252.00,0.003
253.00,0.001
254.00,-0.002
255.00,0.000
256.00,-0.000
257.00,0.000
258.00,0.000
259.00,0.002
260.00,0.001
261.00,-0.001
262.00,-0.000
263.00,0.002
264.00,0.001
265.00,0.001
266.00,0.000
267.00,0.000
268.00,0.001
269.00,0.001
270.00,0.000
271.00,-0.002
272.00,0.001
273.00,0.001
274.00,0.001
275.00,0.000
276.00,0.001
277.00,0.000
278.00,0.000
279.00,-0.000
280.00,0.000
281.00,-0.001
282.00,0.001
283.00,0.000
284.00,-0.003
285.00,0.002
286.00,-0.000
287.00,0.002
288.00,0.001
289.00,-0.001
290.00,-0.001
291.00,0.000
292.00,-0.001
293.00,0.002
294.00,0.000
295.00,-0.000
296.00,0.000
297.00,-0.000
298.00,0.001
299.00,0.003
300.00,0.004
301.00,0.007
302.00,0.009
303.00,0.014
304.00,0.021
305.00,0.035
306.00,0.056
307.00,0.086
308.00,0.131
309.00,0.203
310.00,0.283
311.00,0.379
312.00,0.520
313.00,0.698
314.00,0.932
315.00,1.214
316.00,1.545
317.00,1.954
318.00,2.409
319.00,2.961
320.00,3.581
321.00,4.291
322.00,5.060
323.00,5.986
324.00,6.916
325.00,7.871
326.00,8.850
327.00,10.022
328.00,11.184
329.00,12.385
330.00,13.630
331.00,14.874
332.00,16.125
333.00,17.460
334.00,18.777
335.00,20.158
336.00,21.484
337.00,22.747
338.00,24.067
339.00,25.245
340.00,26.477
341.00,27.712
342.00,28.850
343.00,30.060
344.00,31.033
345.00,32.084
346.00,32.952
347.00,33.908
348.00,34.817
349.00,35.641
350.00,36.369
351.00,37.149
352.00,37.777
353.00,38.497
354.00,39.178
355.00,39.757
356.00,40.265
357.00,40.889
358.00,41.322
359.00,41.860
360.00,42.306
361.00,42.714
362.00,43.070
363.00,43.498
364.00,43.886
365.00,44.054
366.00,44.422
367.00,44.610
368.00,44.909
369.00,45.069
370.00,45.229
371.00,45.384
372.00,45.482
373.00,45.596
374.00,45.638
375.00,45.603
376.00,45.703
377.00,45.724
378.00,45.659
379.00,45.723
380.00,45.720
381.00,45.770
382.00,45.837
383.00,45.954
384.00,46.115
385.00,46.267
386.00,46.399
387.00,46.597
388.00,46.755
389.00,46.915
390.00,47.073
391.00,47.270
392.00,47.270
393.00,47.427
394.00,47.483
395.00,47.563
396.00,47.643
397.00,47.752
398.00,47.872
399.00,47.908
400.00,47.964
401.00,48.014
402.00,48.084
403.00,48.102
404.00,48.146
405.00,48.168
406.00,48.189
407.00,48.201
408.00,48.168
409.00,48.082
410.00,47.975
411.00,48.011
412.00,47.980
413.00,47.967
414.00,47.984
415.00,47.834
416.00,48.077
417.00,48.019
418.00,48.066
419.00,48.087
420.00,48.114
421.00,48.286
422.00,48.273
423.00,48.272
424.00,48.302
425.00,48.274
426.00,48.306
427.00,48.316
428.00,48.362
429.00,48.380
430.00,48.415
431.00,48.446
432.00,48.480
433.00,48.525
434.00,48.518
435.00,48.556
436.00,48.518
437.00,48.603
438.00,48.630
439.00,48.606
440.00,48.718
441.00,48.621
442.00,48.781
443.00,48.754
444.00,48.672
445.00,48.880
446.00,48.855
447.00,48.973
448.00,49.047
449.00,49.063
450.00,49.107
451.00,49.161
452.00,49.201
453.00,49.303
454.00,49.431
455.00,49.303
456.00,49.292
457.00,49.389
458.00,49.382
459.00,49.382
460.00,49.594
461.00,49.599
462.00,49.635
463.00,49.685
464.00,49.811
465.00,49.795
466.00,49.737
467.00,49.851
468.00,49.876
469.00,49.936
470.00,49.900
471.00,49.916
472.00,49.960
473.00,49.892
474.00,49.873
475.00,49.956
476.00,49.912
477.00,49.959
478.00,49.983
479.00,50.049
480.00,50.108
481.00,50.147
482.00,50.213
483.00,50.230
484.00,50.362
485.00,50.379
486.00,50.474
487.00,50.529
488.00,50.406
489.00,50.540
490.00,50.548
491.00,50.768
492.00,50.816
493.00,50.904
494.00,50.903
495.00,50.847
496.00,50.894
497.00,50.931
498.00,51.039
499.00,51.132
500.00,51.049
501.00,51.092
502.00,51.170
503.00,51.159
504.00,51.198
505.00,51.248
506.00,51.323
507.00,51.342
508.00,51.292
509.00,51.391
510.00,51.413
511.00,51.424
512.00,51.480
513.00,51.539
514.00,51.598
515.00,51.652
516.00,51.675
517.00,51.645
518.00,51.784
519.00,51.694
520.00,51.732
521.00,51.749
522.00,51.711
523.00,51.741
524.00,51.595
525.00,51.656
526.00,51.621
527.00,51.783
528.00,51.788
529.00,51.883
530.00,51.940
531.00,52.027
532.00,52.077
533.00,52.096
534.00,52.147
535.00,52.184
536.00,52.130
537.00,52.237
538.00,52.252
539.00,52.262
540.00,52.252
541.00,52.246
542.00,52.248
543.00,52.231
544.00,52.184
545.00,52.328
546.00,52.313
547.00,52.439
548.00,52.412
549.00,52.420
550.00,52.484
551.00,52.519
552.00,52.563
553.00,52.609
554.00,52.584
555.00,52.600
556.00,52.612
557.00,52.617
558.00,52.570
559.00,52.639
560.00,52.662
561.00,52.737
562.00,52.784
563.00,52.722
564.00,52.722
565.00,52.722
566.00,52.681
567.00,52.743
568.00,52.661
569.00,52.685
570.00,52.702
571.00,52.704
572.00,52.704
573.00,52.735
574.00,52.772
575.00,52.730
576.00,52.675
577.00,52.753
578.00,52.790
579.00,52.798
580.00,52.843
581.00,52.974
582.00,53.014
583.00,52.958
584.00,53.041
585.00,53.114
586.00,53.132
587.00,53.111
588.00,53.125
589.00,53.087
590.00,53.005
591.00,53.085
592.00,53.078
593.00,53.092
594.00,53.209
595.00,53.159
596.00,53.177
597.00,53.183
598.00,53.286
599.00,53.230
600.00,53.273
601.00,53.291
602.00,53.249
603.00,53.213
604.00,53.228
605.00,53.225
606.00,53.282
607.00,53.237
608.00,53.309
609.00,53.250
610.00,53.264
611.00,53.274
612.00,53.219
613.00,53.210
614.00,53.151
615.00,53.197
616.00,53.377
617.00,53.304
618.00,53.306
619.00,53.304
620.00,53.292
621.00,53.235
622.00,53.217
623.00,53.290
624.00,53.242
625.00,53.262
626.00,53.330
627.00,53.289
628.00,53.238
629.00,53.280
630.00,53.218
631.00,53.152
632.00,53.241
633.00,53.218
634.00,53.260
635.00,53.337
636.00,53.336
637.00,53.361
638.00,53.350
639.00,53.284
640.00,53.264
641.00,53.227
642.00,53.267
643.00,53.244
644.00,53.278
645.00,53.299
646.00,53.327
647.00,53.217
648.00,53.308
649.00,53.295
650.00,53.125
651.00,53.232
652.00,53.209
653.00,53.211
654.00,53.146
655.00,53.106
656.00,53.189
657.00,53.295
658.00,53.301
659.00,53.388
660.00,53.344
661.00,53.146
662.00,53.196
663.00,53.172
664.00,53.330
665.00,53.190
666.00,53.134
667.00,53.254
668.00,53.350
669.00,53.168
670.00,53.237
671.00,53.144
672.00,53.038
673.00,53.124
674.00,53.270
675.00,53.247
676.00,53.274
677.00,53.183
678.00,53.044
679.00,52.971
680.00,53.102
681.00,53.057
682.00,53.140
683.00,53.124
684.00,53.170
685.00,53.092
686.00,52.899
687.00,52.977
688.00,52.950
689.00,52.952
690.00,53.052
691.00,53.025
692.00,53.001
693.00,52.897
694.00,52.866
695.00,52.836
696.00,52.822
697.00,52.955
698.00,52.827
699.00,52.886
700.00,52.954
701.00,52.724
702.00,52.702
703.00,52.780
704.00,52.920
705.00,52.792
706.00,52.900
707.00,52.798
708.00,52.740
709.00,52.711
710.00,52.956
711.00,52.615
712.00,52.637
713.00,52.670
714.00,52.594
715.00,52.530
716.00,52.569
717.00,52.544
718.00,52.474
719.00,52.450
720.00,52.586
721.00,56.895
722.00,56.826
723.00,56.821
724.00,56.688
725.00,56.695
726.00,56.541
727.00,56.529
728.00,56.458
729.00,56.388
730.00,56.284
731.00,56.224
732.00,56.201
733.00,56.110
734.00,56.120
735.00,56.080
736.00,56.018
737.00,55.965
738.00,55.906
739.00,55.888
740.00,55.835
741.00,55.838
742.00,55.785
743.00,55.732
744.00,55.613
745.00,55.590
746.00,55.493
747.00,55.422
748.00,55.367
749.00,55.259
750.00,55.269
751.00,55.248
752.00,55.184
753.00,55.061
754.00,55.052
755.00,54.902
756.00,54.901
757.00,54.879
758.00,54.845
759.00,54.727
760.00,54.739
761.00,54.676
762.00,54.659
763.00,54.731
764.00,54.581
765.00,54.497
766.00,54.553
767.00,54.512
768.00,54.498
769.00,54.442
770.00,54.418
771.00,54.403
772.00,54.383
773.00,54.338
774.00,54.234
775.00,54.222
776.00,54.171
777.00,54.213
778.00,54.101
779.00,54.134
780.00,54.056
781.00,53.997
782.00,54.080
783.00,53.943
784.00,54.003
785.00,53.866
786.00,53.767
787.00,53.828
788.00,53.678
789.00,53.691
790.00,53.602
791.00,53.602
792.00,53.613
793.00,53.494
794.00,53.385
795.00,53.481
796.00,53.408
797.00,53.324
798.00,53.318
799.00,53.312
800.00,53.268
801.00,53.241
802.00,53.135
803.00,53.144
804.00,53.095
805.00,53.034
806.00,53.036
807.00,52.999
808.00,52.924
809.00,52.918
810.00,52.831
811.00,52.905
812.00,52.922
813.00,52.825
814.00,52.773
815.00,52.745
816.00,52.643
817.00,52.542
818.00,52.509
819.00,52.575
820.00,52.539
821.00,52.483
822.00,52.454
823.00,52.432
824.00,52.407
825.00,52.404
826.00,52.374
827.00,52.415
828.00,52.434
829.00,52.164
830.00,52.267
831.00,54.839
832.00,54.806
833.00,54.730
834.00,54.734
835.00,54.692
836.00,54.696
837.00,54.597
838.00,54.592
839.00,54.593
840.00,54.541
841.00,54.510
842.00,54.510
843.00,54.483
844.00,54.411
845.00,54.322
846.00,54.497
847.00,54.350
848.00,54.285
849.00,54.263
850.00,54.203
851.00,54.100
852.00,54.100
853.00,54.047
854.00,54.021
855.00,53.990
856.00,53.957
857.00,53.922
858.00,53.895
859.00,53.876
860.00,53.816
861.00,53.818
862.00,53.841
863.00,53.773
864.00,53.724
865.00,53.747
866.00,53.680
867.00,53.670
868.00,53.648
869.00,53.624
870.00,53.600
871.00,53.588
872.00,53.568
873.00,53.560
874.00,53.547
875.00,53.518
876.00,53.490
877.00,53.503
878.00,53.455
879.00,53.419
880.00,53.432
881.00,53.363
882.00,53.367
883.00,53.341
884.00,53.309
885.00,53.243
886.00,53.258
887.00,53.219
888.00,53.210
889.00,53.182
890.00,53.184
891.00,53.115
892.00,53.108
893.00,53.081
894.00,53.061
895.00,53.027
896.00,53.018
897.00,52.977
898.00,52.950
899.00,52.946
900.00,52.937
901.00,52.921
902.00,52.889
903.00,52.876
904.00,52.857
905.00,52.869
906.00,52.746
907.00,52.774
908.00,52.751
909.00,52.744
910.00,52.705
911.00,52.678
912.00,52.697
913.00,52.627
914.00,52.633
915.00,52.616
916.00,52.567
917.00,52.531
918.00,52.693
919.00,52.479
920.00,52.455
921.00,52.459
922.00,52.452
923.00,52.387
924.00,52.381
925.00,52.358
926.00,52.330
927.00,52.325
928.00,52.293
929.00,52.297
930.00,52.249
931.00,52.258
932.00,52.176
933.00,52.294
934.00,52.183
935.00,52.190
936.00,52.128
937.00,52.124
938.00,52.097
939.00,52.097
940.00,52.062
941.00,52.045
942.00,51.999
943.00,52.030
944.00,51.979
945.00,51.975
946.00,51.967
947.00,51.940
948.00,51.908
949.00,51.874
950.00,51.868
951.00,51.840
952.00,51.818
953.00,51.761
954.00,51.758
955.00,51.713
956.00,51.717
957.00,51.603
958.00,51.665
959.00,51.618
960.00,51.610
961.00,51.574
962.00,51.601
963.00,51.550
964.00,51.538
965.00,51.527
966.00,51.523
967.00,51.511
968.00,51.480
969.00,51.506
970.00,51.477
971.00,51.487
972.00,51.448
973.00,51.485
974.00,51.514
975.00,51.468
976.00,51.505
977.00,51.463
978.00,51.496
979.00,51.453
980.00,51.475
981.00,51.473
982.00,51.467
983.00,51.448
984.00,51.447
985.00,51.459
986.00,51.407
987.00,51.443
988.00,51.397
989.00,51.388
990.00,51.392
991.00,51.342
992.00,51.414
993.00,51.338
994.00,51.314
995.00,51.325
996.00,51.317
997.00,51.303
998.00,51.268
999.00,51.294
1000.00,51.226
1001.00,51.249
1002.00,51.162
1003.00,51.207
1004.00,51.214
1005.00,51.170
1006.00,51.201
1007.00,51.158
1008.00,51.153
1009.00,51.180
1010.00,51.135
1011.00,51.122
1012.00,51.084
1013.00,51.088
1014.00,51.054
1015.00,51.069
1016.00,51.010
1017.00,51.034
1018.00,50.980
1019.00,50.975
1020.00,50.986
1021.00,50.950
1022.00,50.950
1023.00,50.893
1024.00,50.903
1025.00,50.889
1026.00,50.880
1027.00,50.839
1028.00,50.846
1029.00,50.841
1030.00,50.797
1031.00,50.821
1032.00,50.775
1033.00,50.770
1034.00,50.748
1035.00,50.710
1036.00,50.686
1037.00,50.667
1038.00,50.647
1039.00,50.628
1040.00,50.628
1041.00,50.567
1042.00,50.580
1043.00,50.552
1044.00,50.570
1045.00,50.564
1046.00,50.560
1047.00,50.568
1048.00,50.573
1049.00,50.575
1050.00,50.592
1051.00,50.606
1052.00,50.615
1053.00,50.646
1054.00,50.627
1055.00,50.644
1056.00,50.652
1057.00,50.658
1058.00,50.650
1059.00,50.638
1060.00,50.634
1061.00,50.648
1062.00,50.628
1063.00,50.631
1064.00,50.602
1065.00,50.620
1066.00,50.583
1067.00,50.593
1068.00,50.585
1069.00,50.557
1070.00,50.555
1071.00,50.517
1072.00,50.556
1073.00,50.508
1074.00,50.505
1075.00,50.505
1076.00,50.494
1077.00,50.469
1078.00,50.468
1079.00,50.459
1080.00,50.477
1081.00,50.453
1082.00,50.445
1083.00,50.450
1084.00,50.437
1085.00,50.436
1086.00,50.434
1087.00,50.419
1088.00,50.391
1089.00,50.394
1090.00,50.389
1091.00,50.386
1092.00,50.374
1093.00,50.338
1094.00,50.342
1095.00,50.331
1096.00,50.311
1097.00,50.310
1098.00,50.305
1099.00,50.289
1100.00,50.279
1101.00,50.260
1102.00,50.256
1103.00,50.250
1104.00,50.232
1105.00,50.236
1106.00,50.230
1107.00,50.215
1108.00,50.226
1109.00,50.219
1110.00,50.205
1111.00,50.209
1112.00,50.186
1113.00,50.165
1114.00,50.176
1115.00,50.161
1116.00,50.164
1117.00,50.132
1118.00,50.131
1119.00,50.138
1120.00,50.136
1121.00,50.107
1122.00,50.095
1123.00,50.101
1124.00,50.091
1125.00,50.078
1126.00,50.083
1127.00,50.081
1128.00,50.087
1129.00,50.041
1130.00,50.052
1131.00,50.054
1132.00,50.037
1133.00,50.049
1134.00,50.013
1135.00,49.990
1136.00,50.011
1137.00,50.005
1138.00,50.018
1139.00,50.034
1140.00,49.994
1141.00,49.998
1142.00,49.996
1143.00,49.981
1144.00,49.983
1145.00,49.967
1146.00,49.978
1147.00,49.983
1148.00,49.943
1149.00,49.974
1150.00,49.973
1151.00,49.959
1152.00,49.956
1153.00,49.953
1154.00,49.932
1155.00,49.942
1156.00,49.925
1157.00,49.929
1158.00,49.925
1159.00,49.905
1160.00,49.922
1161.00,49.928
1162.00,49.901
1163.00,49.931
1164.00,49.912
1165.00,49.891
1166.00,49.895
1167.00,49.888
1168.00,49.904
1169.00,49.906
1170.00,49.907
1171.00,49.892
1172.00,49.909
1173.00,49.883
1174.00,49.903
1175.00,49.891
1176.00,49.877
1177.00,49.893
1178.00,49.872
1179.00,49.881
1180.00,49.892
1181.00,49.902
1182.00,49.908
1183.00,49.886
1184.00,49.870
1185.00,49.900
1186.00,49.876
1187.00,49.888
1188.00,49.877
1189.00,49.871
1190.00,49.876
1191.00,49.871
1192.00,49.878
1193.00,49.879
1194.00,49.896
1195.00,49.854
1196.00,49.899
1197.00,49.880
1198.00,49.869
1199.00,49.868
1200.00,49.860
1201.00,49.874
1202.00,49.861
1203.00,49.851
1204.00,49.855
1205.00,49.876
1206.00,49.838
1207.00,49.868
1208.00,49.841
1209.00,49.835
1210.00,49.852
1211.00,49.832
1212.00,49.856
1213.00,49.814
1214.00,49.840
1215.00,49.838
1216.00,49.843
1217.00,49.840
1218.00,49.846
1219.00,49.861
1220.00,49.839
1221.00,49.857
1222.00,49.843
1223.00,49.861
1224.00,49.857
1225.00,49.841
1226.00,49.852
1227.00,49.831
1228.00,49.839
1229.00,49.852
1230.00,49.876
1231.00,49.856
1232.00,49.886
1233.00,49.884
1234.00,49.885
1235.00,49.876
1236.00,49.876
1237.00,49.897
1238.00,49.904
1239.00,49.881
1240.00,49.894
1241.00,49.895
1242.00,49.884
1243.00,49.922
1244.00,49.880
1245.00,49.910
1246.00,49.921
1247.00,49.907
1248.00,49.909
1249.00,49.913
1250.00,49.907
1251.00,49.923
1252.00,49.947
1253.00,49.940
1254.00,49.946
1255.00,49.950
1256.00,49.918
1257.00,49.913
1258.00,49.949
1259.00,49.961
1260.00,49.980
1261.00,49.968
1262.00,49.979
1263.00,49.957
1264.00,49.964
1265.00,49.965
1266.00,49.962
1267.00,49.970
1268.00,49.987
1269.00,49.964
1270.00,50.001
1271.00,50.010
1272.00,50.003
1273.00,50.013
1274.00,50.005
1275.00,49.994
1276.00,50.011
1277.00,50.006
1278.00,50.021
1279.00,50.024
1280.00,50.020
1281.00,50.042
1282.00,50.058
1283.00,50.029
1284.00,50.044
1285.00,50.037
1286.00,50.055
1287.00,50.055
1288.00,50.052
1289.00,50.059
1290.00,50.089
1291.00,50.075
1292.00,50.089
1293.00,50.071
1294.00,50.076
1295.00,50.114
1296.00,50.089
1297.00,50.104
1298.00,50.158
1299.00,50.120
1300.00,50.124
1301.00,50.127
1302.00,50.114
1303.00,50.147
1304.00,50.120
1305.00,50.145
1306.00,50.170
1307.00,50.174
1308.00,50.171
1309.00,50.188
1310.00,50.185
1311.00,50.160
1312.00,50.175
1313.00,50.183
1314.00,50.207
1315.00,50.207
1316.00,50.199
1317.00,50.232
1318.00,50.223
1319.00,50.228
1320.00,50.254
1321.00,50.399
1322.00,50.398
1323.00,50.392
1324.00,50.376
1325.00,50.366
1326.00,50.389
1327.00,50.381
1328.00,50.382
1329.00,50.403
1330.00,50.387
1331.00,50.411
1332.00,50.396
1333.00,50.404
1334.00,50.441
1335.00,50.438
1336.00,50.462
1337.00,50.500
1338.00,50.549
1339.00,50.609
1340.00,50.666
1341.00,50.714
1342.00,50.804
1343.00,50.845
1344.00,50.867
1345.00,50.973
1346.00,51.014
1347.00,50.975
1348.00,51.027
1349.00,51.046
1350.00,51.097
1351.00,51.103
1352.00,51.098
1353.00,51.175
1354.00,51.099
1355.00,51.044
1356.00,51.089
1357.00,51.140
1358.00,51.124
1359.00,51.296
1360.00,51.251
1361.00,50.887
1362.00,50.971
1363.00,51.237
1364.00,51.077
1365.00,51.202
1366.00,51.231
1367.00,51.068
1368.00,51.082
1369.00,51.215
1370.00,51.086
1371.00,51.024
1372.00,51.106
1373.00,51.106
1374.00,51.117
1375.00,51.129
1376.00,51.097
1377.00,51.137
1378.00,51.194
1379.00,51.119
1380.00,51.149
1381.00,51.002
1382.00,51.055
1383.00,51.071
1384.00,51.038
1385.00,51.055
1386.00,51.089
1387.00,51.019
1388.00,51.103
1389.00,51.100
1390.00,51.187
1391.00,50.986
1392.00,51.161
1393.00,51.170
1394.00,51.038
1395.00,50.953
1396.00,51.021
1397.00,51.057
1398.00,51.315
1399.00,51.037
1400.00,51.021
1401.00,51.053
1402.00,51.229
1403.00,51.037
1404.00,51.073
1405.00,51.141
1406.00,51.103
1407.00,51.156
1408.00,51.134
1409.00,51.102
1410.00,51.149
1411.00,51.181
1412.00,51.197
1413.00,51.015
1414.00,51.132
1415.00,51.164
1416.00,51.219
1417.00,51.230
1418.00,51.190
1419.00,51.256
1420.00,51.266
1421.00,51.267
1422.00,51.256
1423.00,51.274
1424.00,51.283
1425.00,51.295
1426.00,51.314
1427.00,51.317
1428.00,51.335
1429.00,51.324
1430.00,51.361
1431.00,51.365
1432.00,51.362
1433.00,51.404
1434.00,51.383
1435.00,51.428
1436.00,51.440
1437.00,51.421
1438.00,51.448
1439.00,51.490
1440.00,51.498
1441.00,51.511
1442.00,51.509
1443.00,51.531
1444.00,51.611
1445.00,51.571
1446.00,51.548
1447.00,51.598
1448.00,51.602
1449.00,51.655
1450.00,51.635
1451.00,51.641
1452.00,51.667
1453.00,51.693
1454.00,51.676
1455.00,51.717
1456.00,51.724
1457.00,51.730
1458.00,51.768
1459.00,51.764
1460.00,51.779
1461.00,51.797
1462.00,51.795
1463.00,51.832
1464.00,51.838
1465.00,51.843
1466.00,51.857
1467.00,51.869
1468.00,51.903
1469.00,51.906
1470.00,51.915
1471.00,51.938
1472.00,51.944
1473.00,51.949
1474.00,51.991
1475.00,51.993
1476.00,52.001
1477.00,51.997
1478.00,52.002
1479.00,52.040
1480.00,52.051
1481.00,52.049
1482.00,52.082
1483.00,52.090
1484.00,52.090
1485.00,52.132
1486.00,52.130
1487.00,52.126
1488.00,52.150
1489.00,52.145
1490.00,52.144
1491.00,52.173
1492.00,52.167
1493.00,52.190
1494.00,52.195
1495.00,52.202
1496.00,52.233
1497.00,52.222
1498.00,52.208
1499.00,52.255
1500.00,52.264
1501.00, 
1502.00, 
1503.00, 
1504.00, 
1505.00, 
1506.00, 
1507.00, 
1508.00, 
1509.00, 
1510.00, 
1511.00, 
1512.00, 
1513.00, 
1514.00, 
1515.00, 
1516.00, 
1517.00, 
1518.00, 
1519.00, 
1520.00, 
1521.00, 
1522.00, 
1523.00, 
1524.00, 
1525.00, 
1526.00, 
1527.00, 
1528.00, 
1529.00, 
1530.00, 
1531.00, 
1532.00, 
1533.00, 
1534.00, 
1535.00, 
1536.00, 
1537.00, 
1538.00, 
1539.00, 
1540.00, 
1541.00, 
1542.00, 
1543.00, 
1544.00, 
1545.00, 
1546.00, 
1547.00, 
1548.00, 
1549.00, 
1550.00, 
1551.00, 
1552.00, 
1553.00, 
1554.00, 
1555.00, 
1556.00, 
1557.00, 
1558.00, 
1559.00, 
1560.00, 
1561.00, 
1562.00, 
1563.00, 
1564.00, 
1565.00, 
1566.00, 
1567.00, 
1568.00, 
1569.00, 
1570.00, 
1571.00, 
1572.00, 
1573.00, 
1574.00, 
1575.00, 
1576.00, 
1577.00, 
1578.00, 
1579.00, 
1580.00, 
1581.00, 
1582.00, 
1583.00, 
1584.00, 
1585.00, 
1586.00, 
1587.00, 
1588.00, 
1589.00, 
1590.00, 
1591.00, 
1592.00, 
1593.00, 
1594.00, 
1595.00, 
1596.00, 
1597.00, 
1598.00, 
1599.00, 
1600.00, 
1601.00, 
1602.00, 
1603.00, 
1604.00, 
1605.00, 
1606.00, 
1607.00, 
1608.00, 
1609.00, 
1610.00, 
1611.00, 
1612.00, 
1613.00, 
1614.00, 
1615.00, 
1616.00, 
1617.00, 
1618.00, 
1619.00, 
1620.00, 
1621.00, 
1622.00, 
1623.00, 
1624.00, 
1625.00, 
1626.00, 
1627.00, 
1628.00, 
1629.00, 
1630.00, 
1631.00, 
1632.00, 
1633.00, 
1634.00, 
1635.00, 
1636.00, 
1637.00, 
1638.00, 
1639.00, 
1640.00, 
1641.00, 
1642.00, 
1643.00, 
1644.00, 
1645.00, 
1646.00, 
1647.00, 
1648.00, 
1649.00, 
1650.00, 
1651.00, 
1652.00, 
1653.00, 
1654.00, 
1655.00, 
1656.00, 
1657.00, 
1658.00, 
1659.00, 
1660.00, 
1661.00, 
1662.00, 
1663.00, 
1664.00, 
1665.00, 
1666.00, 
1667.00, 
1668.00, 
1669.00, 
1670.00, 
1671.00, 
1672.00, 
1673.00, 
1674.00, 
1675.00, 
1676.00, 
1677.00, 
1678.00, 
1679.00, 
1680.00, 
1681.00, 
1682.00, 
1683.00, 
1684.00, 
1685.00, 
1686.00, 
1687.00, 
1688.00, 
1689.00, 
1690.00, 
1691.00, 
1692.00, 
1693.00, 
1694.00, 
1695.00, 
1696.00, 
1697.00, 
1698.00, 
1699.00, 
1700.00, 
1701.00, 
1702.00, 
1703.00, 
1704.00, 
1705.00, 
1706.00, 
1707.00, 
1708.00, 
1709.00, 
1710.00, 
1711.00, 
1712.00, 
1713.00, 
1714.00, 
1715.00, 
1716.00, 
1717.00, 
1718.00, 
1719.00, 
1720.00, 
1721.00, 
1722.00, 
1723.00, 
1724.00, 
1725.00, 
1726.00, 
1727.00, 
1728.00, 
1729.00, 
1730.00, 
1731.00, 
1732.00, 
1733.00, 
1734.00, 
1735.00, 
1736.00, 
1737.00, 
1738.00, 
1739.00, 
1740.00, 
1741.00, 
1742.00, 
1743.00, 
1744.00, 
1745.00, 
1746.00, 
1747.00, 
1748.00, 
1749.00, 
1750.00, 
1751.00, 
1752.00, 
1753.00, 
1754.00, 
1755.00, 
1756.00, 
1757.00, 
1758.00, 
1759.00, 
1760.00, 
1761.00, 
1762.00, 
1763.00, 
1764.00, 
1765.00, 
1766.00, 
1767.00, 
1768.00, 
1769.00, 
1770.00, 
1771.00, 
1772.00, 
1773.00, 
1774.00, 
1775.00, 
1776.00, 
1777.00, 
1778.00, 
1779.00, 
1780.00, 
1781.00, 
1782.00, 
1783.00, 
1784.00, 
1785.00, 
1786.00, 
1787.00, 
1788.00, 
1789.00, 
1790.00, 
1791.00, 
1792.00, 
1793.00, 
1794.00, 
1795.00, 
1796.00, 
1797.00, 
1798.00, 
1799.00, 
1800.00, 
1801.00, 
1802.00, 
1803.00, 
1804.00, 
1805.00, 
1806.00, 
1807.00, 
1808.00, 
1809.00, 
1810.00, 
1811.00, 
1812.00, 
1813.00, 
1814.00, 
1815.00, 
1816.00, 
1817.00, 
1818.00, 
1819.00, 
1820.00, 
1821.00, 
1822.00, 
1823.00, 
1824.00, 
1825.00, 
1826.00, 
1827.00, 
1828.00, 
1829.00, 
1830.00, 
1831.00, 
1832.00, 
1833.00, 
1834.00, 
1835.00, 
1836.00, 
1837.00, 
1838.00, 
1839.00, 
1840.00, 
1841.00, 
1842.00, 
1843.00, 
1844.00, 
1845.00, 
1846.00, 
1847.00, 
1848.00, 
1849.00, 
1850.00, 
1851.00, 
1852.00, 
1853.00, 
1854.00, 
1855.00, 
1856.00, 
1857.00, 
1858.00, 
1859.00, 
1860.00, 
1861.00, 
1862.00, 
1863.00, 
1864.00, 
1865.00, 
1866.00, 
1867.00, 
1868.00, 
1869.00, 
1870.00, 
1871.00, 
1872.00, 
1873.00, 
1874.00, 
1875.00, 
1876.00, 
1877.00, 
1878.00, 
1879.00, 
1880.00, 
1881.00, 
1882.00, 
1883.00, 
1884.00, 
1885.00, 
1886.00, 
1887.00, 
1888.00, 
1889.00, 
1890.00, 
1891.00, 
1892.00, 
1893.00, 
1894.00, 
1895.00, 
1896.00, 
1897.00, 
1898.00, 
1899.00, 
1900.00, 
1901.00, 
1902.00, 
1903.00, 
1904.00, 
1905.00, 
1906.00, 
1907.00, 
1908.00, 
1909.00, 
1910.00, 
1911.00, 
1912.00, 
1913.00, 
1914.00, 
1915.00, 
1916.00, 
1917.00, 
1918.00, 
1919.00, 
1920.00, 
1921.00, 
1922.00, 
1923.00, 
1924.00, 
1925.00, 
1926.00, 
1927.00, 
1928.00, 
1929.00, 
1930.00, 
1931.00, 
1932.00, 
1933.00, 
1934.00, 
1935.00, 
1936.00, 
1937.00, 
1938.00, 
1939.00, 
1940.00, 
1941.00, 
1942.00, 
1943.00, 
1944.00, 
1945.00, 
1946.00, 
1947.00, 
1948.00, 
1949.00, 
1950.00, 
1951.00, 
1952.00, 
1953.00, 
1954.00, 
1955.00, 
1956.00, 
1957.00, 
1958.00, 
1959.00, 
1960.00, 
1961.00, 
1962.00, 
1963.00, 
1964.00, 
1965.00, 
1966.00, 
1967.00, 
1968.00, 
1969.00, 
1970.00, 
1971.00, 
1972.00, 
1973.00, 
1974.00, 
1975.00, 
1976.00, 
1977.00, 
1978.00, 
1979.00, 
1980.00, 
1981.00, 
1982.00, 
1983.00, 
1984.00, 
1985.00, 
1986.00, 
1987.00, 
1988.00, 
1989.00, 
1990.00, 
1991.00, 
1992.00, 
1993.00, 
1994.00, 
1995.00, 
1996.00, 
1997.00, 
1998.00, 
1999.00, 
2000.00, 
2001.00, 
2002.00, 
2003.00, 
2004.00, 
2005.00, 
2006.00, 
2007.00, 
2008.00, 
2009.00, 
2010.00, 
2011.00, 
2012.00, 
2013.00, 
2014.00, 
2015.00, 
2016.00, 
2017.00, 
2018.00, 
2019.00, 
2020.00, 
2021.00, 
2022.00, 
2023.00, 
2024.00, 
2025.00, 
2026.00, 
2027.00, 
2028.00, 
2029.00, 
2030.00, 
2031.00, 
2032.00, 
2033.00, 
2034.00, 
2035.00, 
2036.00, 
2037.00, 
2038.00, 
2039.00, 
2040.00, 
2041.00, 
2042.00, 
2043.00, 
2044.00, 
2045.00, 
2046.00, 
2047.00, 
2048.00, 
2049.00, 
2050.00, 
2051.00, 
2052.00, 
2053.00, 
2054.00, 
2055.00, 
2056.00, 
2057.00, 
2058.00, 
2059.00, 
2060.00, 
2061.00, 
2062.00, 
2063.00, 
2064.00, 
2065.00, 
2066.00, 
2067.00, 
2068.00, 
2069.00, 
2070.00, 
2071.00, 
2072.00, 
2073.00, 
2074.00, 
2075.00, 
2076.00, 
2077.00, 
2078.00, 
2079.00, 
2080.00, 
2081.00, 
2082.00, 
2083.00, 
2084.00, 
2085.00, 
2086.00, 
2087.00, 
2088.00, 
2089.00, 
2090.00, 
2091.00, 
2092.00, 
2093.00, 
2094.00, 
2095.00, 
2096.00, 
2097.00, 
2098.00, 
2099.00, 
2100.00, 
2101.00, 
2102.00, 
2103.00, 
2104.00, 
2105.00, 
2106.00, 
2107.00, 
2108.00, 
2109.00, 
2110.00, 
2111.00, 
2112.00, 
2113.00, 
2114.00, 
2115.00, 
2116.00, 
2117.00, 
2118.00, 
2119.00, 
2120.00, 
2121.00, 
2122.00, 
2123.00, 
2124.00, 
2125.00, 
2126.00, 
2127.00, 
2128.00, 
2129.00, 
2130.00, 
2131.00, 
2132.00, 
2133.00, 
2134.00, 
2135.00, 
2136.00, 
2137.00, 
2138.00, 
2139.00, 
2140.00, 
2141.00, 
2142.00, 
2143.00, 
2144.00, 
2145.00, 
2146.00, 
2147.00, 
2148.00, 
2149.00, 
2150.00, 
2151.00, 
2152.00, 
2153.00, 
2154.00, 
2155.00, 
2156.00, 
2157.00, 
2158.00, 
2159.00, 
2160.00, 
2161.00, 
2162.00, 
2163.00, 
2164.00, 
2165.00, 
2166.00, 
2167.00, 
2168.00, 
2169.00, 
2170.00, 
2171.00, 
2172.00, 
2173.00, 
2174.00, 
2175.00, 
2176.00, 
2177.00, 
2178.00, 
2179.00, 
2180.00, 
2181.00, 
2182.00, 
2183.00, 
2184.00, 
2185.00, 
2186.00, 
2187.00, 
2188.00, 
2189.00, 
2190.00, 
2191.00, 
2192.00, 
2193.00, 
2194.00, 
2195.00, 
2196.00, 
2197.00, 
2198.00, 
2199.00, 
2200.00, 
2201.00, 
2202.00, 
2203.00, 
2204.00, 
2205.00, 
2206.00, 
2207.00, 
2208.00, 
2209.00, 
2210.00, 
2211.00, 
2212.00, 
2213.00, 
2214.00, 
2215.00, 
2216.00, 
2217.00, 
2218.00, 
2219.00, 
2220.00, 
2221.00, 
2222.00, 
2223.00, 
2224.00, 
2225.00, 
2226.00, 
2227.00, 
2228.00, 
2229.00, 
2230.00, 
2231.00, 
2232.00, 
2233.00, 
2234.00, 
2235.00, 
2236.00, 
2237.00, 
2238.00, 
2239.00, 
2240.00, 
2241.00, 
2242.00, 
2243.00, 
2244.00, 
2245.00, 
2246.00, 
2247.00, 
2248.00, 
2249.00, 
2250.00, 
2251.00, 
2252.00, 
2253.00, 
2254.00, 
2255.00, 
2256.00, 
2257.00, 
2258.00, 
2259.00, 
2260.00, 
2261.00, 
2262.00, 
2263.00, 
2264.00, 
2265.00, 
2266.00, 
2267.00, 
2268.00, 
2269.00, 
2270.00, 
2271.00, 
2272.00, 
2273.00, 
2274.00, 
2275.00, 
2276.00, 
2277.00, 
2278.00, 
2279.00, 
2280.00, 
2281.00, 
2282.00, 
2283.00, 
2284.00, 
2285.00, 
2286.00, 
2287.00, 
2288.00, 
2289.00, 
2290.00, 
2291.00, 
2292.00, 
2293.00, 
2294.00, 
2295.00, 
2296.00, 
2297.00, 
2298.00, 
2299.00, 
2300.00, 
2301.00, 
2302.00, 
2303.00, 
2304.00, 
2305.00, 
2306.00, 
2307.00, 
2308.00, 
2309.00, 
2310.00, 
2311.00, 
2312.00, 
2313.00, 
2314.00, 
2315.00, 
2316.00, 
2317.00, 
2318.00, 
2319.00, 
2320.00, 
2321.00, 
2322.00, 
2323.00, 
2324.00, 
2325.00, 
2326.00, 
2327.00, 
2328.00, 
2329.00, 
2330.00, 
2331.00, 
2332.00, 
2333.00, 
2334.00, 
2335.00, 
2336.00, 
2337.00, 
2338.00, 
2339.00, 
2340.00, 
2341.00, 
2342.00, 
2343.00, 
2344.00, 
2345.00, 
2346.00, 
2347.00, 
2348.00, 
2349.00, 
2350.00, 
2351.00, 
2352.00, 
2353.00, 
2354.00, 
2355.00, 
2356.00, 
2357.00, 
2358.00, 
2359.00, 
2360.00, 
2361.00, 
2362.00, 
2363.00, 
2364.00, 
2365.00, 
2366.00, 
2367.00, 
2368.00, 
2369.00, 
2370.00, 
2371.00, 
2372.00, 
2373.00, 
2374.00, 
2375.00, 
2376.00, 
2377.00, 
2378.00, 
2379.00, 
2380.00, 
2381.00, 
2382.00, 
2383.00, 
2384.00, 
2385.00, 
2386.00, 
2387.00, 
2388.00, 
2389.00, 
2390.00, 
2391.00, 
2392.00, 
2393.00, 
2394.00, 
2395.00, 
2396.00, 
2397.00, 
2398.00, 
2399.00, 
2400.00, 
2401.00, 
2402.00, 
2403.00, 
2404.00, 
2405.00, 
2406.00, 
2407.00, 
2408.00, 
2409.00, 
2410.00, 
2411.00, 
2412.00, 
2413.00, 
2414.00, 
2415.00, 
2416.00, 
2417.00, 
2418.00, 
2419.00, 
2420.00, 
2421.00, 
2422.00, 
2423.00, 
2424.00, 
2425.00, 
2426.00, 
2427.00, 
2428.00, 
2429.00, 
2430.00, 
2431.00, 
2432.00, 
2433.00, 
2434.00, 
2435.00, 
2436.00, 
2437.00, 
2438.00, 
2439.00, 
2440.00, 
2441.00, 
2442.00, 
2443.00, 
2444.00, 
2445.00, 
2446.00, 
2447.00, 
2448.00, 
2449.00, 
2450.00, 
2451.00, 
2452.00, 
2453.00, 
2454.00, 
2455.00, 
2456.00, 
2457.00, 
2458.00, 
2459.00, 
2460.00, 
2461.00, 
2462.00, 
2463.00, 
2464.00, 
2465.00, 
2466.00, 
2467.00, 
2468.00, 
2469.00, 
2470.00, 
2471.00, 
2472.00, 
2473.00, 
2474.00, 
2475.00, 
2476.00, 
2477.00, 
2478.00, 
2479.00, 
2480.00, 
2481.00, 
2482.00, 
2483.00, 
2484.00, 
2485.00, 
2486.00, 
2487.00, 
2488.00, 
2489.00, 
2490.00, 
2491.00, 
2492.00, 
2493.00, 
2494.00, 
2495.00, 
2496.00, 
2497.00, 
2498.00, 
2499.00, 
2500.00, 
2501.00, 
2502.00, 
2503.00, 
2504.00, 
2505.00, 
2506.00, 
2507.00, 
2508.00, 
2509.00, 
2510.00, 
2511.00, 
2512.00, 
2513.00, 
2514.00, 
2515.00, 
2516.00, 
2517.00, 
2518.00, 
2519.00, 
2520.00, 
2521.00, 
2522.00, 
2523.00, 
2524.00, 
2525.00, 
2526.00, 
2527.00, 
2528.00, 
2529.00, 
2530.00, 
2531.00, 
2532.00, 
2533.00, 
2534.00, 
2535.00, 
2536.00, 
2537.00, 
2538.00, 
2539.00, 
2540.00, 
2541.00, 
2542.00, 
2543.00, 
2544.00, 
2545.00, 
2546.00, 
2547.00, 
2548.00, 
2549.00, 
2550.00, 
2551.00, 
2552.00, 
2553.00, 
2554.00, 
2555.00, 
2556.00, 
2557.00, 
2558.00, 
2559.00, 
2560.00, 
2561.00, 
2562.00, 
2563.00, 
2564.00, 
2565.00, 
2566.00, 
2567.00, 
2568.00, 
2569.00, 
2570.00, 
2571.00, 
2572.00, 
2573.00, 
2574.00, 
2575.00, 
2576.00, 
2577.00, 
2578.00, 
2579.00, 
2580.00, 
2581.00, 
2582.00, 
2583.00, 
2584.00, 
2585.00, 
2586.00, 
2587.00, 
2588.00, 
2589.00, 
2590.00, 
2591.00, 
2592.00, 
2593.00, 
2594.00, 
2595.00, 
2596.00, 
2597.00, 
2598.00, 
2599.00, 
2600.00, 
