"1cP4 - RawData"
"Wavelength nm.","T%"
200.00,0.000
201.00,0.002
202.00,-0.000
203.00,0.003
204.00,0.002
205.00,0.000
206.00,-0.001
207.00,0.003
208.00,0.004
209.00,0.000
210.00,0.000
211.00,0.001
212.00,0.001
213.00,0.001
214.00,0.001
215.00,0.001
216.00,0.000
217.00,-0.002
218.00,-0.000
219.00,0.001
220.00,0.003
221.00,0.000
222.00,0.002
223.00,0.002
224.00,-0.001
225.00,0.001
226.00,0.001
227.00,0.001
228.00,0.000
229.00,-0.000
230.00,-0.000
231.00,-0.000
232.00,0.001
233.00,0.001
234.00,0.002
235.00,-0.000
236.00,0.000
237.00,-0.000
238.00,0.002
239.00,0.000
240.00,0.001
241.00,-0.001
242.00,-0.000
243.00,-0.001
244.00,0.000
245.00,0.000
246.00,0.000
247.00,0.001
248.00,0.001
249.00,0.001
250.00,0.002
251.00,0.000
252.00,-0.001
253.00,0.001
254.00,0.001
255.00,0.000
256.00,0.001
257.00,0.002
258.00,0.000
259.00,0.001
260.00,-0.001
261.00,-0.001
262.00,0.001
263.00,-0.000
264.00,0.001
265.00,-0.001
266.00,0.001
267.00,-0.000
268.00,0.001
269.00,-0.000
270.00,0.001
271.00,0.000
272.00,0.000
273.00,-0.001
274.00,-0.000
275.00,0.000
276.00,-0.000
277.00,-0.001
278.00,0.000
279.00,0.001
280.00,0.002
281.00,-0.000
282.00,0.001
283.00,0.000
284.00,0.001
285.00,-0.000
286.00,0.001
287.00,-0.002
288.00,0.000
289.00,-0.001
290.00,0.003
291.00,-0.001
292.00,-0.001
293.00,0.002
294.00,0.000
295.00,-0.001
296.00,-0.000
297.00,-0.001
298.00,0.000
299.00,0.000
300.00,-0.001
301.00,0.002
302.00,0.001
303.00,0.000
304.00,0.002
305.00,0.001
306.00,0.003
307.00,0.003
308.00,0.005
309.00,0.009
310.00,0.018
311.00,0.030
312.00,0.042
313.00,0.065
314.00,0.097
315.00,0.143
316.00,0.209
317.00,0.295
318.00,0.396
319.00,0.533
320.00,0.715
321.00,0.913
322.00,1.161
323.00,1.487
324.00,1.828
325.00,2.197
326.00,2.611
327.00,3.098
328.00,3.635
329.00,4.168
330.00,4.793
331.00,5.295
332.00,6.044
333.00,6.764
334.00,7.440
335.00,8.196
336.00,8.924
337.00,9.695
338.00,10.474
339.00,11.103
340.00,11.873
341.00,12.481
342.00,13.285
343.00,13.950
344.00,14.599
345.00,15.247
346.00,15.831
347.00,16.378
348.00,16.921
349.00,17.385
350.00,17.877
351.00,18.346
352.00,18.734
353.00,19.083
354.00,19.483
355.00,19.867
356.00,20.155
357.00,20.439
358.00,20.752
359.00,21.074
360.00,21.351
361.00,21.484
362.00,21.711
363.00,21.922
364.00,22.013
365.00,22.149
366.00,22.233
367.00,22.362
368.00,22.401
369.00,22.503
370.00,22.564
371.00,22.574
372.00,22.554
373.00,22.534
374.00,22.551
375.00,22.497
376.00,22.409
377.00,22.342
378.00,22.242
379.00,22.122
380.00,22.134
381.00,22.095
382.00,22.106
383.00,22.145
384.00,22.187
385.00,22.263
386.00,22.309
387.00,22.402
388.00,22.495
389.00,22.517
390.00,22.557
391.00,22.634
392.00,22.722
393.00,22.682
394.00,22.743
395.00,22.715
396.00,22.727
397.00,22.762
398.00,22.810
399.00,22.812
400.00,22.823
401.00,22.804
402.00,22.809
403.00,22.777
404.00,22.771
405.00,22.744
406.00,22.759
407.00,22.716
408.00,22.732
409.00,22.656
410.00,22.596
411.00,22.620
412.00,22.558
413.00,22.620
414.00,22.558
415.00,22.580
416.00,22.606
417.00,22.576
418.00,22.604
419.00,22.709
420.00,22.752
421.00,22.726
422.00,22.794
423.00,22.868
424.00,22.833
425.00,22.865
426.00,22.818
427.00,22.954
428.00,22.999
429.00,23.017
430.00,23.078
431.00,23.147
432.00,23.156
433.00,23.224
434.00,23.257
435.00,23.322
436.00,23.344
437.00,23.497
438.00,23.561
439.00,23.586
440.00,23.683
441.00,23.731
442.00,23.822
443.00,23.920
444.00,24.016
445.00,24.101
446.00,24.182
447.00,24.257
448.00,24.402
449.00,24.476
450.00,24.601
451.00,24.691
452.00,24.786
453.00,24.893
454.00,24.969
455.00,25.123
456.00,25.242
457.00,25.426
458.00,25.486
459.00,25.628
460.00,25.771
461.00,25.891
462.00,25.987
463.00,26.143
464.00,26.264
465.00,26.392
466.00,26.526
467.00,26.673
468.00,26.766
469.00,26.892
470.00,26.977
471.00,27.096
472.00,27.208
473.00,27.299
474.00,27.415
475.00,27.553
476.00,27.637
477.00,27.757
478.00,27.850
479.00,28.048
480.00,28.182
481.00,28.298
482.00,28.417
483.00,28.592
484.00,28.769
485.00,28.826
486.00,29.053
487.00,29.179
488.00,29.333
489.00,29.521
490.00,29.679
491.00,29.785
492.00,30.031
493.00,30.203
494.00,30.164
495.00,30.277
496.00,30.410
497.00,30.498
498.00,30.679
499.00,30.755
500.00,31.007
501.00,31.077
502.00,31.238
503.00,31.384
504.00,31.434
505.00,31.631
506.00,31.692
507.00,31.713
508.00,31.837
509.00,32.020
510.00,32.164
511.00,32.261
512.00,32.394
513.00,32.549
514.00,32.630
515.00,32.806
516.00,32.885
517.00,32.975
518.00,33.067
519.00,33.164
520.00,33.195
521.00,33.302
522.00,33.429
523.00,33.401
524.00,33.520
525.00,33.650
526.00,33.760
527.00,33.850
528.00,33.910
529.00,34.081
530.00,34.254
531.00,34.344
532.00,34.413
533.00,34.517
534.00,34.577
535.00,34.671
536.00,34.766
537.00,34.843
538.00,34.930
539.00,34.944
540.00,35.027
541.00,35.061
542.00,35.074
543.00,35.192
544.00,35.249
545.00,35.317
546.00,35.374
547.00,35.509
548.00,35.556
549.00,35.581
550.00,35.677
551.00,35.808
552.00,35.833
553.00,35.899
554.00,35.946
555.00,35.949
556.00,35.946
557.00,36.120
558.00,36.236
559.00,36.238
560.00,36.323
561.00,36.424
562.00,36.498
563.00,36.523
564.00,36.585
565.00,36.554
566.00,36.634
567.00,36.631
568.00,36.694
569.00,36.751
570.00,36.769
571.00,36.878
572.00,36.915
573.00,36.819
574.00,36.914
575.00,36.893
576.00,36.884
577.00,36.939
578.00,37.061
579.00,37.115
580.00,37.136
581.00,37.290
582.00,37.350
583.00,37.368
584.00,37.413
585.00,37.486
586.00,37.584
587.00,37.618
588.00,37.600
589.00,37.561
590.00,37.617
591.00,37.692
592.00,37.663
593.00,37.707
594.00,37.813
595.00,37.898
596.00,37.963
597.00,37.966
598.00,38.088
599.00,38.064
600.00,38.085
601.00,38.076
602.00,38.194
603.00,38.257
604.00,38.289
605.00,38.310
606.00,38.350
607.00,38.370
608.00,38.556
609.00,38.592
610.00,38.438
611.00,38.502
612.00,38.488
613.00,38.646
614.00,38.732
615.00,38.788
616.00,38.862
617.00,38.862
618.00,38.835
619.00,38.957
620.00,39.041
621.00,39.078
622.00,39.119
623.00,39.165
624.00,39.300
625.00,39.327
626.00,39.397
627.00,39.487
628.00,39.470
629.00,39.512
630.00,39.524
631.00,39.584
632.00,39.660
633.00,39.787
634.00,39.868
635.00,39.964
636.00,40.014
637.00,40.041
638.00,40.074
639.00,40.179
640.00,40.211
641.00,40.285
642.00,40.368
643.00,40.390
644.00,40.522
645.00,40.629
646.00,40.750
647.00,40.810
648.00,40.819
649.00,40.834
650.00,40.867
651.00,41.052
652.00,41.142
653.00,41.151
654.00,41.171
655.00,41.360
656.00,41.666
657.00,41.554
658.00,41.625
659.00,41.681
660.00,41.810
661.00,41.809
662.00,41.831
663.00,42.010
664.00,42.251
665.00,42.411
666.00,42.261
667.00,42.403
668.00,42.487
669.00,42.788
670.00,42.980
671.00,42.809
672.00,42.858
673.00,42.940
674.00,43.010
675.00,43.152
676.00,43.386
677.00,43.518
678.00,43.202
679.00,43.382
680.00,43.646
681.00,43.718
682.00,43.657
683.00,43.871
684.00,44.087
685.00,44.012
686.00,43.714
687.00,44.047
688.00,44.212
689.00,44.176
690.00,44.484
691.00,44.683
692.00,44.419
693.00,44.387
694.00,44.588
695.00,44.777
696.00,44.918
697.00,44.913
698.00,44.965
699.00,45.109
700.00,45.192
701.00,45.221
702.00,45.322
703.00,45.539
704.00,45.629
705.00,45.541
706.00,45.604
707.00,45.708
708.00,45.474
709.00,45.893
710.00,46.390
711.00,45.835
712.00,45.957
713.00,46.181
714.00,46.237
715.00,46.182
716.00,46.112
717.00,46.367
718.00,46.483
719.00,46.370
720.00,46.534
721.00,50.899
722.00,50.963
723.00,50.999
724.00,51.102
725.00,50.975
726.00,51.084
727.00,51.081
728.00,51.039
729.00,51.164
730.00,51.168
731.00,51.214
732.00,51.154
733.00,51.184
734.00,51.343
735.00,51.346
736.00,51.305
737.00,51.411
738.00,51.381
739.00,51.462
740.00,51.411
741.00,51.474
742.00,51.497
743.00,51.423
744.00,51.492
745.00,51.578
746.00,51.506
747.00,51.541
748.00,51.474
749.00,51.543
750.00,51.527
751.00,51.494
752.00,51.521
753.00,51.506
754.00,51.532
755.00,51.538
756.00,51.551
757.00,51.539
758.00,51.573
759.00,51.533
760.00,51.626
761.00,51.560
762.00,51.579
763.00,51.640
764.00,51.562
765.00,51.568
766.00,51.641
767.00,51.656
768.00,51.646
769.00,51.633
770.00,51.685
771.00,51.635
772.00,51.724
773.00,51.613
774.00,51.685
775.00,51.695
776.00,51.699
777.00,51.771
778.00,51.694
779.00,51.755
780.00,51.707
781.00,51.726
782.00,51.715
783.00,51.668
784.00,51.666
785.00,51.646
786.00,51.743
787.00,51.652
788.00,51.627
789.00,51.632
790.00,51.587
791.00,51.634
792.00,51.559
793.00,51.599
794.00,51.561
795.00,51.503
796.00,51.553
797.00,51.456
798.00,51.549
799.00,51.491
800.00,51.466
801.00,51.422
802.00,51.431
803.00,51.454
804.00,51.374
805.00,51.448
806.00,51.363
807.00,51.365
808.00,51.448
809.00,51.354
810.00,51.304
811.00,51.272
812.00,51.309
813.00,51.234
814.00,51.290
815.00,51.240
816.00,51.269
817.00,51.220
818.00,51.201
819.00,51.201
820.00,51.112
821.00,51.169
822.00,51.138
823.00,51.091
824.00,51.065
825.00,51.043
826.00,51.064
827.00,51.195
828.00,51.111
829.00,51.095
830.00,51.006
831.00,53.392
832.00,53.412
833.00,53.343
834.00,53.343
835.00,53.295
836.00,53.307
837.00,53.286
838.00,53.315
839.00,53.286
840.00,53.207
841.00,53.223
842.00,53.188
843.00,53.201
844.00,53.189
845.00,53.146
846.00,53.151
847.00,53.081
848.00,53.119
849.00,53.004
850.00,53.003
851.00,52.960
852.00,52.975
853.00,52.817
854.00,52.891
855.00,52.854
856.00,52.885
857.00,52.672
858.00,52.806
859.00,52.776
860.00,52.795
861.00,52.792
862.00,52.729
863.00,52.765
864.00,52.689
865.00,52.721
866.00,52.708
867.00,52.663
868.00,52.654
869.00,52.624
870.00,52.646
871.00,52.619
872.00,52.621
873.00,52.598
874.00,52.662
875.00,52.420
876.00,52.627
877.00,52.585
878.00,52.575
879.00,52.515
880.00,52.535
881.00,52.464
882.00,52.541
883.00,52.478
884.00,52.425
885.00,52.423
886.00,52.406
887.00,52.369
888.00,52.347
889.00,52.352
890.00,52.334
891.00,52.320
892.00,52.287
893.00,52.264
894.00,52.264
895.00,52.230
896.00,52.212
897.00,52.185
898.00,52.161
899.00,52.144
900.00,52.128
901.00,52.085
902.00,52.127
903.00,52.122
904.00,52.101
905.00,52.122
906.00,52.090
907.00,52.044
908.00,52.000
909.00,51.977
910.00,51.968
911.00,51.969
912.00,51.953
913.00,51.893
914.00,51.903
915.00,51.877
916.00,51.832
917.00,51.861
918.00,51.839
919.00,51.809
920.00,51.756
921.00,51.759
922.00,51.781
923.00,51.728
924.00,51.680
925.00,51.655
926.00,51.748
927.00,51.601
928.00,51.629
929.00,51.647
930.00,51.601
931.00,51.583
932.00,51.549
933.00,51.556
934.00,51.536
935.00,51.505
936.00,51.479
937.00,51.461
938.00,51.450
939.00,51.440
940.00,51.413
941.00,51.410
942.00,51.385
943.00,51.365
944.00,51.332
945.00,51.314
946.00,51.327
947.00,51.281
948.00,51.278
949.00,51.241
950.00,51.247
951.00,51.236
952.00,51.199
953.00,51.152
954.00,51.143
955.00,51.101
956.00,51.096
957.00,51.040
958.00,51.057
959.00,50.995
960.00,50.984
961.00,50.996
962.00,50.990
963.00,50.937
964.00,50.940
965.00,50.956
966.00,50.923
967.00,50.918
968.00,50.896
969.00,50.928
970.00,50.952
971.00,50.893
972.00,50.877
973.00,50.906
974.00,50.919
975.00,50.900
976.00,50.902
977.00,50.888
978.00,50.934
979.00,50.886
980.00,50.901
981.00,50.921
982.00,50.864
983.00,50.896
984.00,50.847
985.00,50.888
986.00,50.838
987.00,50.864
988.00,50.820
989.00,50.832
990.00,50.807
991.00,50.789
992.00,50.807
993.00,50.744
994.00,50.766
995.00,50.763
996.00,50.744
997.00,50.735
998.00,50.701
999.00,50.711
1000.00,50.674
1001.00,50.660
1002.00,50.643
1003.00,50.642
1004.00,50.604
1005.00,50.596
1006.00,50.637
1007.00,50.606
1008.00,50.613
1009.00,50.587
1010.00,50.568
1011.00,50.555
1012.00,50.511
1013.00,50.521
1014.00,50.494
1015.00,50.498
1016.00,50.476
1017.00,50.470
1018.00,50.460
1019.00,50.434
1020.00,50.414
1021.00,50.395
1022.00,50.403
1023.00,50.346
1024.00,50.357
1025.00,50.346
1026.00,50.316
1027.00,50.309
1028.00,50.317
1029.00,50.286
1030.00,50.243
1031.00,50.294
1032.00,50.220
1033.00,50.241
1034.00,50.199
1035.00,50.170
1036.00,50.152
1037.00,50.119
1038.00,50.126
1039.00,50.094
1040.00,50.083
1041.00,50.055
1042.00,50.052
1043.00,50.024
1044.00,50.047
1045.00,50.017
1046.00,50.008
1047.00,50.037
1048.00,50.029
1049.00,50.063
1050.00,50.054
1051.00,50.099
1052.00,50.100
1053.00,50.095
1054.00,50.094
1055.00,50.133
1056.00,50.129
1057.00,50.130
1058.00,50.106
1059.00,50.094
1060.00,50.123
1061.00,50.122
1062.00,50.111
1063.00,50.127
1064.00,50.116
1065.00,50.099
1066.00,50.103
1067.00,50.091
1068.00,50.114
1069.00,50.078
1070.00,50.060
1071.00,50.050
1072.00,50.069
1073.00,50.042
1074.00,50.037
1075.00,50.013
1076.00,50.007
1077.00,49.979
1078.00,49.967
1079.00,49.985
1080.00,49.993
1081.00,49.963
1082.00,49.985
1083.00,49.971
1084.00,49.951
1085.00,49.961
1086.00,49.976
1087.00,49.944
1088.00,49.929
1089.00,49.926
1090.00,49.915
1091.00,49.927
1092.00,49.920
1093.00,49.887
1094.00,49.879
1095.00,49.871
1096.00,49.859
1097.00,49.850
1098.00,49.832
1099.00,49.844
1100.00,49.802
1101.00,49.811
1102.00,49.793
1103.00,49.772
1104.00,49.791
1105.00,49.799
1106.00,49.782
1107.00,49.790
1108.00,49.755
1109.00,49.756
1110.00,49.749
1111.00,49.734
1112.00,49.725
1113.00,49.738
1114.00,49.700
1115.00,49.716
1116.00,49.699
1117.00,49.670
1118.00,49.671
1119.00,49.668
1120.00,49.673
1121.00,49.669
1122.00,49.645
1123.00,49.647
1124.00,49.642
1125.00,49.627
1126.00,49.634
1127.00,49.632
1128.00,49.613
1129.00,49.604
1130.00,49.595
1131.00,49.587
1132.00,49.581
1133.00,49.565
1134.00,49.570
1135.00,49.565
1136.00,49.551
1137.00,49.578
1138.00,49.572
1139.00,49.574
1140.00,49.558
1141.00,49.563
1142.00,49.543
1143.00,49.560
1144.00,49.523
1145.00,49.533
1146.00,49.539
1147.00,49.527
1148.00,49.533
1149.00,49.545
1150.00,49.535
1151.00,49.547
1152.00,49.538
1153.00,49.541
1154.00,49.521
1155.00,49.509
1156.00,49.510
1157.00,49.540
1158.00,49.511
1159.00,49.513
1160.00,49.496
1161.00,49.497
1162.00,49.513
1163.00,49.514
1164.00,49.516
1165.00,49.523
1166.00,49.514
1167.00,49.504
1168.00,49.543
1169.00,49.510
1170.00,49.515
1171.00,49.504
1172.00,49.494
1173.00,49.496
1174.00,49.510
1175.00,49.507
1176.00,49.514
1177.00,49.485
1178.00,49.497
1179.00,49.508
1180.00,49.475
1181.00,49.521
1182.00,49.500
1183.00,49.505
1184.00,49.504
1185.00,49.508
1186.00,49.495
1187.00,49.508
1188.00,49.506
1189.00,49.504
1190.00,49.494
1191.00,49.466
1192.00,49.507
1193.00,49.491
1194.00,49.485
1195.00,49.478
1196.00,49.496
1197.00,49.497
1198.00,49.497
1199.00,49.493
1200.00,49.500
1201.00,49.516
1202.00,49.473
1203.00,49.485
1204.00,49.477
1205.00,49.500
1206.00,49.491
1207.00,49.505
1208.00,49.489
1209.00,49.516
1210.00,49.503
1211.00,49.492
1212.00,49.526
1213.00,49.472
1214.00,49.520
1215.00,49.488
1216.00,49.489
1217.00,49.496
1218.00,49.486
1219.00,49.515
1220.00,49.489
1221.00,49.508
1222.00,49.505
1223.00,49.547
1224.00,49.519
1225.00,49.515
1226.00,49.516
1227.00,49.498
1228.00,49.526
1229.00,49.515
1230.00,49.549
1231.00,49.539
1232.00,49.550
1233.00,49.561
1234.00,49.561
1235.00,49.543
1236.00,49.554
1237.00,49.563
1238.00,49.549
1239.00,49.567
1240.00,49.561
1241.00,49.578
1242.00,49.588
1243.00,49.578
1244.00,49.560
1245.00,49.600
1246.00,49.594
1247.00,49.596
1248.00,49.577
1249.00,49.607
1250.00,49.611
1251.00,49.602
1252.00,49.638
1253.00,49.606
1254.00,49.638
1255.00,49.620
1256.00,49.624
1257.00,49.613
1258.00,49.668
1259.00,49.660
1260.00,49.677
1261.00,49.685
1262.00,49.657
1263.00,49.650
1264.00,49.665
1265.00,49.662
1266.00,49.677
1267.00,49.709
1268.00,49.685
1269.00,49.703
1270.00,49.726
1271.00,49.703
1272.00,49.727
1273.00,49.731
1274.00,49.727
1275.00,49.760
1276.00,49.731
1277.00,49.751
1278.00,49.771
1279.00,49.751
1280.00,49.760
1281.00,49.778
1282.00,49.783
1283.00,49.787
1284.00,49.777
1285.00,49.788
1286.00,49.808
1287.00,49.791
1288.00,49.797
1289.00,49.809
1290.00,49.822
1291.00,49.822
1292.00,49.816
1293.00,49.813
1294.00,49.840
1295.00,49.842
1296.00,49.859
1297.00,49.864
1298.00,49.888
1299.00,49.864
1300.00,49.900
1301.00,49.858
1302.00,49.904
1303.00,49.908
1304.00,49.888
1305.00,49.925
1306.00,49.917
1307.00,49.922
1308.00,49.923
1309.00,49.912
1310.00,49.923
1311.00,49.924
1312.00,49.925
1313.00,49.955
1314.00,49.975
1315.00,49.982
1316.00,49.991
1317.00,50.026
1318.00,50.021
1319.00,50.034
1320.00,50.030
1321.00,50.215
1322.00,50.199
1323.00,50.195
1324.00,50.179
1325.00,50.171
1326.00,50.211
1327.00,50.201
1328.00,50.195
1329.00,50.172
1330.00,50.201
1331.00,50.193
1332.00,50.186
1333.00,50.179
1334.00,50.232
1335.00,50.230
1336.00,50.264
1337.00,50.289
1338.00,50.359
1339.00,50.410
1340.00,50.466
1341.00,50.528
1342.00,50.589
1343.00,50.626
1344.00,50.680
1345.00,50.768
1346.00,50.781
1347.00,50.795
1348.00,50.828
1349.00,50.843
1350.00,50.874
1351.00,50.875
1352.00,50.920
1353.00,50.923
1354.00,50.920
1355.00,50.874
1356.00,50.922
1357.00,50.874
1358.00,50.968
1359.00,50.943
1360.00,50.979
1361.00,50.964
1362.00,50.957
1363.00,50.990
1364.00,50.960
1365.00,50.971
1366.00,51.034
1367.00,50.982
1368.00,50.981
1369.00,51.031
1370.00,50.942
1371.00,50.786
1372.00,50.914
1373.00,50.970
1374.00,51.005
1375.00,50.971
1376.00,50.970
1377.00,50.919
1378.00,50.989
1379.00,50.961
1380.00,50.978
1381.00,51.034
1382.00,50.951
1383.00,50.977
1384.00,50.921
1385.00,50.983
1386.00,51.008
1387.00,50.995
1388.00,50.955
1389.00,51.005
1390.00,50.965
1391.00,50.985
1392.00,50.960
1393.00,50.969
1394.00,51.014
1395.00,50.948
1396.00,50.902
1397.00,50.986
1398.00,50.993
1399.00,50.948
1400.00,50.872
1401.00,50.923
1402.00,51.023
1403.00,50.988
1404.00,50.978
1405.00,51.016
1406.00,51.028
1407.00,50.997
1408.00,50.991
1409.00,51.037
1410.00,51.052
1411.00,51.068
1412.00,51.214
1413.00,51.047
1414.00,51.033
1415.00,51.076
1416.00,51.122
1417.00,51.192
1418.00,51.159
1419.00,51.133
1420.00,51.159
1421.00,51.216
1422.00,51.194
1423.00,51.213
1424.00,51.208
1425.00,51.248
1426.00,51.245
1427.00,51.275
1428.00,51.265
1429.00,51.277
1430.00,51.310
1431.00,51.315
1432.00,51.338
1433.00,51.366
1434.00,51.345
1435.00,51.410
1436.00,51.412
1437.00,51.405
1438.00,51.425
1439.00,51.456
1440.00,51.457
1441.00,51.480
1442.00,51.504
1443.00,51.512
1444.00,51.596
1445.00,51.532
1446.00,51.560
1447.00,51.591
1448.00,51.626
1449.00,51.634
1450.00,51.646
1451.00,51.645
1452.00,51.697
1453.00,51.698
1454.00,51.716
1455.00,51.744
1456.00,51.759
1457.00,51.754
1458.00,51.772
1459.00,51.786
1460.00,51.828
1461.00,51.806
1462.00,51.859
1463.00,51.875
1464.00,51.882
1465.00,51.890
1466.00,51.903
1467.00,51.930
1468.00,51.992
1469.00,51.937
1470.00,51.979
1471.00,52.005
1472.00,52.016
1473.00,52.034
1474.00,52.075
1475.00,52.066
1476.00,52.074
1477.00,52.088
1478.00,52.138
1479.00,52.131
1480.00,52.112
1481.00,52.146
1482.00,52.194
1483.00,52.199
1484.00,52.208
1485.00,52.222
1486.00,52.238
1487.00,52.255
1488.00,52.286
1489.00,52.256
1490.00,52.275
1491.00,52.275
1492.00,52.298
1493.00,52.288
1494.00,52.336
1495.00,52.310
1496.00,52.365
1497.00,52.332
1498.00,52.364
1499.00,52.390
1500.00,52.402
1501.00, 
1502.00, 
1503.00, 
1504.00, 
1505.00, 
1506.00, 
1507.00, 
1508.00, 
1509.00, 
1510.00, 
1511.00, 
1512.00, 
1513.00, 
1514.00, 
1515.00, 
1516.00, 
1517.00, 
1518.00, 
1519.00, 
1520.00, 
1521.00, 
1522.00, 
1523.00, 
1524.00, 
1525.00, 
1526.00, 
1527.00, 
1528.00, 
1529.00, 
1530.00, 
1531.00, 
1532.00, 
1533.00, 
1534.00, 
1535.00, 
1536.00, 
1537.00, 
1538.00, 
1539.00, 
1540.00, 
1541.00, 
1542.00, 
1543.00, 
1544.00, 
1545.00, 
1546.00, 
1547.00, 
1548.00, 
1549.00, 
1550.00, 
1551.00, 
1552.00, 
1553.00, 
1554.00, 
1555.00, 
1556.00, 
1557.00, 
1558.00, 
1559.00, 
1560.00, 
1561.00, 
1562.00, 
1563.00, 
1564.00, 
1565.00, 
1566.00, 
1567.00, 
1568.00, 
1569.00, 
1570.00, 
1571.00, 
1572.00, 
1573.00, 
1574.00, 
1575.00, 
1576.00, 
1577.00, 
1578.00, 
1579.00, 
1580.00, 
1581.00, 
1582.00, 
1583.00, 
1584.00, 
1585.00, 
1586.00, 
1587.00, 
1588.00, 
1589.00, 
1590.00, 
1591.00, 
1592.00, 
1593.00, 
1594.00, 
1595.00, 
1596.00, 
1597.00, 
1598.00, 
1599.00, 
1600.00, 
1601.00, 
1602.00, 
1603.00, 
1604.00, 
1605.00, 
1606.00, 
1607.00, 
1608.00, 
1609.00, 
1610.00, 
1611.00, 
1612.00, 
1613.00, 
1614.00, 
1615.00, 
1616.00, 
1617.00, 
1618.00, 
1619.00, 
1620.00, 
1621.00, 
1622.00, 
1623.00, 
1624.00, 
1625.00, 
1626.00, 
1627.00, 
1628.00, 
1629.00, 
1630.00, 
1631.00, 
1632.00, 
1633.00, 
1634.00, 
1635.00, 
1636.00, 
1637.00, 
1638.00, 
1639.00, 
1640.00, 
1641.00, 
1642.00, 
1643.00, 
1644.00, 
1645.00, 
1646.00, 
1647.00, 
1648.00, 
1649.00, 
1650.00, 
1651.00, 
1652.00, 
1653.00, 
1654.00, 
1655.00, 
1656.00, 
1657.00, 
1658.00, 
1659.00, 
1660.00, 
1661.00, 
1662.00, 
1663.00, 
1664.00, 
1665.00, 
1666.00, 
1667.00, 
1668.00, 
1669.00, 
1670.00, 
1671.00, 
1672.00, 
1673.00, 
1674.00, 
1675.00, 
1676.00, 
1677.00, 
1678.00, 
1679.00, 
1680.00, 
1681.00, 
1682.00, 
1683.00, 
1684.00, 
1685.00, 
1686.00, 
1687.00, 
1688.00, 
1689.00, 
1690.00, 
1691.00, 
1692.00, 
1693.00, 
1694.00, 
1695.00, 
1696.00, 
1697.00, 
1698.00, 
1699.00, 
1700.00, 
1701.00, 
1702.00, 
1703.00, 
1704.00, 
1705.00, 
1706.00, 
1707.00, 
1708.00, 
1709.00, 
1710.00, 
1711.00, 
1712.00, 
1713.00, 
1714.00, 
1715.00, 
1716.00, 
1717.00, 
1718.00, 
1719.00, 
1720.00, 
1721.00, 
1722.00, 
1723.00, 
1724.00, 
1725.00, 
1726.00, 
1727.00, 
1728.00, 
1729.00, 
1730.00, 
1731.00, 
1732.00, 
1733.00, 
1734.00, 
1735.00, 
1736.00, 
1737.00, 
1738.00, 
1739.00, 
1740.00, 
1741.00, 
1742.00, 
1743.00, 
1744.00, 
1745.00, 
1746.00, 
1747.00, 
1748.00, 
1749.00, 
1750.00, 
1751.00, 
1752.00, 
1753.00, 
1754.00, 
1755.00, 
1756.00, 
1757.00, 
1758.00, 
1759.00, 
1760.00, 
1761.00, 
1762.00, 
1763.00, 
1764.00, 
1765.00, 
1766.00, 
1767.00, 
1768.00, 
1769.00, 
1770.00, 
1771.00, 
1772.00, 
1773.00, 
1774.00, 
1775.00, 
1776.00, 
1777.00, 
1778.00, 
1779.00, 
1780.00, 
1781.00, 
1782.00, 
1783.00, 
1784.00, 
1785.00, 
1786.00, 
1787.00, 
1788.00, 
1789.00, 
1790.00, 
1791.00, 
1792.00, 
1793.00, 
1794.00, 
1795.00, 
1796.00, 
1797.00, 
1798.00, 
1799.00, 
1800.00, 
1801.00, 
1802.00, 
1803.00, 
1804.00, 
1805.00, 
1806.00, 
1807.00, 
1808.00, 
1809.00, 
1810.00, 
1811.00, 
1812.00, 
1813.00, 
1814.00, 
1815.00, 
1816.00, 
1817.00, 
1818.00, 
1819.00, 
1820.00, 
1821.00, 
1822.00, 
1823.00, 
1824.00, 
1825.00, 
1826.00, 
1827.00, 
1828.00, 
1829.00, 
1830.00, 
1831.00, 
1832.00, 
1833.00, 
1834.00, 
1835.00, 
1836.00, 
1837.00, 
1838.00, 
1839.00, 
1840.00, 
1841.00, 
1842.00, 
1843.00, 
1844.00, 
1845.00, 
1846.00, 
1847.00, 
1848.00, 
1849.00, 
1850.00, 
1851.00, 
1852.00, 
1853.00, 
1854.00, 
1855.00, 
1856.00, 
1857.00, 
1858.00, 
1859.00, 
1860.00, 
1861.00, 
1862.00, 
1863.00, 
1864.00, 
1865.00, 
1866.00, 
1867.00, 
1868.00, 
1869.00, 
1870.00, 
1871.00, 
1872.00, 
1873.00, 
1874.00, 
1875.00, 
1876.00, 
1877.00, 
1878.00, 
1879.00, 
1880.00, 
1881.00, 
1882.00, 
1883.00, 
1884.00, 
1885.00, 
1886.00, 
1887.00, 
1888.00, 
1889.00, 
1890.00, 
1891.00, 
1892.00, 
1893.00, 
1894.00, 
1895.00, 
1896.00, 
1897.00, 
1898.00, 
1899.00, 
1900.00, 
1901.00, 
1902.00, 
1903.00, 
1904.00, 
1905.00, 
1906.00, 
1907.00, 
1908.00, 
1909.00, 
1910.00, 
1911.00, 
1912.00, 
1913.00, 
1914.00, 
1915.00, 
1916.00, 
1917.00, 
1918.00, 
1919.00, 
1920.00, 
1921.00, 
1922.00, 
1923.00, 
1924.00, 
1925.00, 
1926.00, 
1927.00, 
1928.00, 
1929.00, 
1930.00, 
1931.00, 
1932.00, 
1933.00, 
1934.00, 
1935.00, 
1936.00, 
1937.00, 
1938.00, 
1939.00, 
1940.00, 
1941.00, 
1942.00, 
1943.00, 
1944.00, 
1945.00, 
1946.00, 
1947.00, 
1948.00, 
1949.00, 
1950.00, 
1951.00, 
1952.00, 
1953.00, 
1954.00, 
1955.00, 
1956.00, 
1957.00, 
1958.00, 
1959.00, 
1960.00, 
1961.00, 
1962.00, 
1963.00, 
1964.00, 
1965.00, 
1966.00, 
1967.00, 
1968.00, 
1969.00, 
1970.00, 
1971.00, 
1972.00, 
1973.00, 
1974.00, 
1975.00, 
1976.00, 
1977.00, 
1978.00, 
1979.00, 
1980.00, 
1981.00, 
1982.00, 
1983.00, 
1984.00, 
1985.00, 
1986.00, 
1987.00, 
1988.00, 
1989.00, 
1990.00, 
1991.00, 
1992.00, 
1993.00, 
1994.00, 
1995.00, 
1996.00, 
1997.00, 
1998.00, 
1999.00, 
2000.00, 
2001.00, 
2002.00, 
2003.00, 
2004.00, 
2005.00, 
2006.00, 
2007.00, 
2008.00, 
2009.00, 
2010.00, 
2011.00, 
2012.00, 
2013.00, 
2014.00, 
2015.00, 
2016.00, 
2017.00, 
2018.00, 
2019.00, 
2020.00, 
2021.00, 
2022.00, 
2023.00, 
2024.00, 
2025.00, 
2026.00, 
2027.00, 
2028.00, 
2029.00, 
2030.00, 
2031.00, 
2032.00, 
2033.00, 
2034.00, 
2035.00, 
2036.00, 
2037.00, 
2038.00, 
2039.00, 
2040.00, 
2041.00, 
2042.00, 
2043.00, 
2044.00, 
2045.00, 
2046.00, 
2047.00, 
2048.00, 
2049.00, 
2050.00, 
2051.00, 
2052.00, 
2053.00, 
2054.00, 
2055.00, 
2056.00, 
2057.00, 
2058.00, 
2059.00, 
2060.00, 
2061.00, 
2062.00, 
2063.00, 
2064.00, 
2065.00, 
2066.00, 
2067.00, 
2068.00, 
2069.00, 
2070.00, 
2071.00, 
2072.00, 
2073.00, 
2074.00, 
2075.00, 
2076.00, 
2077.00, 
2078.00, 
2079.00, 
2080.00, 
2081.00, 
2082.00, 
2083.00, 
2084.00, 
2085.00, 
2086.00, 
2087.00, 
2088.00, 
2089.00, 
2090.00, 
2091.00, 
2092.00, 
2093.00, 
2094.00, 
2095.00, 
2096.00, 
2097.00, 
2098.00, 
2099.00, 
2100.00, 
2101.00, 
2102.00, 
2103.00, 
2104.00, 
2105.00, 
2106.00, 
2107.00, 
2108.00, 
2109.00, 
2110.00, 
2111.00, 
2112.00, 
2113.00, 
2114.00, 
2115.00, 
2116.00, 
2117.00, 
2118.00, 
2119.00, 
2120.00, 
2121.00, 
2122.00, 
2123.00, 
2124.00, 
2125.00, 
2126.00, 
2127.00, 
2128.00, 
2129.00, 
2130.00, 
2131.00, 
2132.00, 
2133.00, 
2134.00, 
2135.00, 
2136.00, 
2137.00, 
2138.00, 
2139.00, 
2140.00, 
2141.00, 
2142.00, 
2143.00, 
2144.00, 
2145.00, 
2146.00, 
2147.00, 
2148.00, 
2149.00, 
2150.00, 
2151.00, 
2152.00, 
2153.00, 
2154.00, 
2155.00, 
2156.00, 
2157.00, 
2158.00, 
2159.00, 
2160.00, 
2161.00, 
2162.00, 
2163.00, 
2164.00, 
2165.00, 
2166.00, 
2167.00, 
2168.00, 
2169.00, 
2170.00, 
2171.00, 
2172.00, 
2173.00, 
2174.00, 
2175.00, 
2176.00, 
2177.00, 
2178.00, 
2179.00, 
2180.00, 
2181.00, 
2182.00, 
2183.00, 
2184.00, 
2185.00, 
2186.00, 
2187.00, 
2188.00, 
2189.00, 
2190.00, 
2191.00, 
2192.00, 
2193.00, 
2194.00, 
2195.00, 
2196.00, 
2197.00, 
2198.00, 
2199.00, 
2200.00, 
2201.00, 
2202.00, 
2203.00, 
2204.00, 
2205.00, 
2206.00, 
2207.00, 
2208.00, 
2209.00, 
2210.00, 
2211.00, 
2212.00, 
2213.00, 
2214.00, 
2215.00, 
2216.00, 
2217.00, 
2218.00, 
2219.00, 
2220.00, 
2221.00, 
2222.00, 
2223.00, 
2224.00, 
2225.00, 
2226.00, 
2227.00, 
2228.00, 
2229.00, 
2230.00, 
2231.00, 
2232.00, 
2233.00, 
2234.00, 
2235.00, 
2236.00, 
2237.00, 
2238.00, 
2239.00, 
2240.00, 
2241.00, 
2242.00, 
2243.00, 
2244.00, 
2245.00, 
2246.00, 
2247.00, 
2248.00, 
2249.00, 
2250.00, 
2251.00, 
2252.00, 
2253.00, 
2254.00, 
2255.00, 
2256.00, 
2257.00, 
2258.00, 
2259.00, 
2260.00, 
2261.00, 
2262.00, 
2263.00, 
2264.00, 
2265.00, 
2266.00, 
2267.00, 
2268.00, 
2269.00, 
2270.00, 
2271.00, 
2272.00, 
2273.00, 
2274.00, 
2275.00, 
2276.00, 
2277.00, 
2278.00, 
2279.00, 
2280.00, 
2281.00, 
2282.00, 
2283.00, 
2284.00, 
2285.00, 
2286.00, 
2287.00, 
2288.00, 
2289.00, 
2290.00, 
2291.00, 
2292.00, 
2293.00, 
2294.00, 
2295.00, 
2296.00, 
2297.00, 
2298.00, 
2299.00, 
2300.00, 
2301.00, 
2302.00, 
2303.00, 
2304.00, 
2305.00, 
2306.00, 
2307.00, 
2308.00, 
2309.00, 
2310.00, 
2311.00, 
2312.00, 
2313.00, 
2314.00, 
2315.00, 
2316.00, 
2317.00, 
2318.00, 
2319.00, 
2320.00, 
2321.00, 
2322.00, 
2323.00, 
2324.00, 
2325.00, 
2326.00, 
2327.00, 
2328.00, 
2329.00, 
2330.00, 
2331.00, 
2332.00, 
2333.00, 
2334.00, 
2335.00, 
2336.00, 
2337.00, 
2338.00, 
2339.00, 
2340.00, 
2341.00, 
2342.00, 
2343.00, 
2344.00, 
2345.00, 
2346.00, 
2347.00, 
2348.00, 
2349.00, 
2350.00, 
2351.00, 
2352.00, 
2353.00, 
2354.00, 
2355.00, 
2356.00, 
2357.00, 
2358.00, 
2359.00, 
2360.00, 
2361.00, 
2362.00, 
2363.00, 
2364.00, 
2365.00, 
2366.00, 
2367.00, 
2368.00, 
2369.00, 
2370.00, 
2371.00, 
2372.00, 
2373.00, 
2374.00, 
2375.00, 
2376.00, 
2377.00, 
2378.00, 
2379.00, 
2380.00, 
2381.00, 
2382.00, 
2383.00, 
2384.00, 
2385.00, 
2386.00, 
2387.00, 
2388.00, 
2389.00, 
2390.00, 
2391.00, 
2392.00, 
2393.00, 
2394.00, 
2395.00, 
2396.00, 
2397.00, 
2398.00, 
2399.00, 
2400.00, 
2401.00, 
2402.00, 
2403.00, 
2404.00, 
2405.00, 
2406.00, 
2407.00, 
2408.00, 
2409.00, 
2410.00, 
2411.00, 
2412.00, 
2413.00, 
2414.00, 
2415.00, 
2416.00, 
2417.00, 
2418.00, 
2419.00, 
2420.00, 
2421.00, 
2422.00, 
2423.00, 
2424.00, 
2425.00, 
2426.00, 
2427.00, 
2428.00, 
2429.00, 
2430.00, 
2431.00, 
2432.00, 
2433.00, 
2434.00, 
2435.00, 
2436.00, 
2437.00, 
2438.00, 
2439.00, 
2440.00, 
2441.00, 
2442.00, 
2443.00, 
2444.00, 
2445.00, 
2446.00, 
2447.00, 
2448.00, 
2449.00, 
2450.00, 
2451.00, 
2452.00, 
2453.00, 
2454.00, 
2455.00, 
2456.00, 
2457.00, 
2458.00, 
2459.00, 
2460.00, 
2461.00, 
2462.00, 
2463.00, 
2464.00, 
2465.00, 
2466.00, 
2467.00, 
2468.00, 
2469.00, 
2470.00, 
2471.00, 
2472.00, 
2473.00, 
2474.00, 
2475.00, 
2476.00, 
2477.00, 
2478.00, 
2479.00, 
2480.00, 
2481.00, 
2482.00, 
2483.00, 
2484.00, 
2485.00, 
2486.00, 
2487.00, 
2488.00, 
2489.00, 
2490.00, 
2491.00, 
2492.00, 
2493.00, 
2494.00, 
2495.00, 
2496.00, 
2497.00, 
2498.00, 
2499.00, 
2500.00, 
2501.00, 
2502.00, 
2503.00, 
2504.00, 
2505.00, 
2506.00, 
2507.00, 
2508.00, 
2509.00, 
2510.00, 
2511.00, 
2512.00, 
2513.00, 
2514.00, 
2515.00, 
2516.00, 
2517.00, 
2518.00, 
2519.00, 
2520.00, 
2521.00, 
2522.00, 
2523.00, 
2524.00, 
2525.00, 
2526.00, 
2527.00, 
2528.00, 
2529.00, 
2530.00, 
2531.00, 
2532.00, 
2533.00, 
2534.00, 
2535.00, 
2536.00, 
2537.00, 
2538.00, 
2539.00, 
2540.00, 
2541.00, 
2542.00, 
2543.00, 
2544.00, 
2545.00, 
2546.00, 
2547.00, 
2548.00, 
2549.00, 
2550.00, 
2551.00, 
2552.00, 
2553.00, 
2554.00, 
2555.00, 
2556.00, 
2557.00, 
2558.00, 
2559.00, 
2560.00, 
2561.00, 
2562.00, 
2563.00, 
2564.00, 
2565.00, 
2566.00, 
2567.00, 
2568.00, 
2569.00, 
2570.00, 
2571.00, 
2572.00, 
2573.00, 
2574.00, 
2575.00, 
2576.00, 
2577.00, 
2578.00, 
2579.00, 
2580.00, 
2581.00, 
2582.00, 
2583.00, 
2584.00, 
2585.00, 
2586.00, 
2587.00, 
2588.00, 
2589.00, 
2590.00, 
2591.00, 
2592.00, 
2593.00, 
2594.00, 
2595.00, 
2596.00, 
2597.00, 
2598.00, 
2599.00, 
2600.00, 
