"1aP2 - RawData"
"Wavelength nm.","T%"
200.00,0.002
201.00,-0.001
202.00,0.003
203.00,0.001
204.00,0.001
205.00,0.003
206.00,0.000
207.00,0.000
208.00,0.002
209.00,0.001
210.00,0.001
211.00,0.000
212.00,0.001
213.00,0.001
214.00,-0.001
215.00,0.002
216.00,-0.001
217.00,0.001
218.00,0.001
219.00,0.000
220.00,-0.000
221.00,0.006
222.00,0.003
223.00,-0.001
224.00,0.004
225.00,0.001
226.00,-0.000
227.00,0.001
228.00,0.002
229.00,0.001
230.00,-0.001
231.00,-0.001
232.00,0.001
233.00,0.000
234.00,0.003
235.00,0.001
236.00,0.001
237.00,0.002
238.00,0.001
239.00,-0.001
240.00,0.001
241.00,0.001
242.00,0.001
243.00,0.000
244.00,0.000
245.00,-0.000
246.00,0.000
247.00,0.001
248.00,0.000
249.00,0.001
250.00,0.000
251.00,0.001
252.00,0.002
253.00,0.002
254.00,-0.001
255.00,0.001
256.00,0.001
257.00,0.000
258.00,-0.002
259.00,-0.000
260.00,0.001
261.00,0.001
262.00,0.003
263.00,-0.001
264.00,0.002
265.00,0.001
266.00,0.000
267.00,-0.000
268.00,-0.001
269.00,0.000
270.00,0.000
271.00,0.001
272.00,0.002
273.00,0.000
274.00,0.001
275.00,-0.001
276.00,-0.001
277.00,-0.000
278.00,-0.002
279.00,0.001
280.00,-0.000
281.00,0.001
282.00,0.000
283.00,0.000
284.00,0.001
285.00,0.001
286.00,-0.000
287.00,0.002
288.00,0.000
289.00,-0.000
290.00,0.001
291.00,-0.002
292.00,-0.001
293.00,0.001
294.00,0.001
295.00,-0.000
296.00,0.001
297.00,-0.000
298.00,0.002
299.00,0.001
300.00,0.002
301.00,0.006
302.00,0.007
303.00,0.010
304.00,0.018
305.00,0.029
306.00,0.044
307.00,0.066
308.00,0.103
309.00,0.155
310.00,0.215
311.00,0.292
312.00,0.395
313.00,0.529
314.00,0.693
315.00,0.888
316.00,1.129
317.00,1.420
318.00,1.747
319.00,2.129
320.00,2.565
321.00,2.997
322.00,3.574
323.00,4.158
324.00,4.766
325.00,5.428
326.00,6.074
327.00,6.812
328.00,7.568
329.00,8.289
330.00,9.068
331.00,9.844
332.00,10.624
333.00,11.452
334.00,12.238
335.00,13.030
336.00,13.823
337.00,14.598
338.00,15.351
339.00,16.029
340.00,16.714
341.00,17.423
342.00,18.124
343.00,18.621
344.00,19.222
345.00,19.847
346.00,20.338
347.00,20.749
348.00,21.257
349.00,21.691
350.00,22.076
351.00,22.428
352.00,22.759
353.00,23.130
354.00,23.407
355.00,23.704
356.00,23.945
357.00,24.110
358.00,24.421
359.00,24.652
360.00,24.864
361.00,24.962
362.00,25.154
363.00,25.319
364.00,25.386
365.00,25.453
366.00,25.595
367.00,25.666
368.00,25.704
369.00,25.715
370.00,25.781
371.00,25.793
372.00,25.744
373.00,25.736
374.00,25.786
375.00,25.770
376.00,25.661
377.00,25.644
378.00,25.531
379.00,25.442
380.00,25.444
381.00,25.383
382.00,25.418
383.00,25.383
384.00,25.430
385.00,25.497
386.00,25.420
387.00,25.550
388.00,25.510
389.00,25.556
390.00,25.606
391.00,25.660
392.00,25.666
393.00,25.638
394.00,25.669
395.00,25.724
396.00,25.651
397.00,25.670
398.00,25.685
399.00,25.699
400.00,25.687
401.00,25.665
402.00,25.672
403.00,25.679
404.00,25.640
405.00,25.618
406.00,25.652
407.00,25.575
408.00,25.629
409.00,25.546
410.00,25.545
411.00,25.493
412.00,25.422
413.00,25.478
414.00,25.424
415.00,25.458
416.00,25.461
417.00,25.426
418.00,25.463
419.00,25.612
420.00,25.659
421.00,25.659
422.00,25.669
423.00,25.744
424.00,25.781
425.00,25.796
426.00,25.780
427.00,25.865
428.00,25.942
429.00,25.910
430.00,25.943
431.00,26.062
432.00,26.002
433.00,26.161
434.00,26.239
435.00,26.274
436.00,26.352
437.00,26.396
438.00,26.494
439.00,26.572
440.00,26.614
441.00,26.738
442.00,26.759
443.00,26.867
444.00,27.007
445.00,27.024
446.00,27.153
447.00,27.201
448.00,27.334
449.00,27.453
450.00,27.575
451.00,27.629
452.00,27.711
453.00,27.878
454.00,27.954
455.00,28.083
456.00,28.171
457.00,28.311
458.00,28.410
459.00,28.519
460.00,28.660
461.00,28.768
462.00,28.878
463.00,29.091
464.00,29.182
465.00,29.305
466.00,29.418
467.00,29.542
468.00,29.632
469.00,29.755
470.00,29.841
471.00,29.914
472.00,30.098
473.00,30.136
474.00,30.304
475.00,30.394
476.00,30.420
477.00,30.609
478.00,30.688
479.00,30.942
480.00,31.056
481.00,31.141
482.00,31.343
483.00,31.471
484.00,31.642
485.00,31.820
486.00,31.946
487.00,32.044
488.00,32.204
489.00,32.330
490.00,32.529
491.00,32.663
492.00,32.801
493.00,33.040
494.00,33.191
495.00,33.187
496.00,33.314
497.00,33.362
498.00,33.555
499.00,33.703
500.00,33.870
501.00,33.929
502.00,34.050
503.00,34.174
504.00,34.213
505.00,34.363
506.00,34.517
507.00,34.552
508.00,34.665
509.00,34.873
510.00,34.985
511.00,35.053
512.00,35.236
513.00,35.389
514.00,35.492
515.00,35.642
516.00,35.703
517.00,35.798
518.00,35.874
519.00,35.954
520.00,36.019
521.00,36.151
522.00,36.208
523.00,36.216
524.00,36.362
525.00,36.459
526.00,36.564
527.00,36.565
528.00,36.652
529.00,36.918
530.00,37.042
531.00,37.039
532.00,37.218
533.00,37.235
534.00,37.403
535.00,37.425
536.00,37.516
537.00,37.588
538.00,37.602
539.00,37.693
540.00,37.772
541.00,37.791
542.00,37.830
543.00,37.903
544.00,37.985
545.00,38.003
546.00,38.070
547.00,38.186
548.00,38.276
549.00,38.294
550.00,38.421
551.00,38.484
552.00,38.532
553.00,38.539
554.00,38.654
555.00,38.656
556.00,38.707
557.00,38.797
558.00,38.843
559.00,38.896
560.00,38.916
561.00,39.060
562.00,39.071
563.00,39.100
564.00,39.198
565.00,39.204
566.00,39.202
567.00,39.265
568.00,39.294
569.00,39.359
570.00,39.391
571.00,39.437
572.00,39.477
573.00,39.394
574.00,39.473
575.00,39.479
576.00,39.463
577.00,39.514
578.00,39.640
579.00,39.642
580.00,39.664
581.00,39.918
582.00,39.919
583.00,39.868
584.00,39.974
585.00,39.996
586.00,40.028
587.00,40.154
588.00,40.177
589.00,39.917
590.00,40.025
591.00,40.312
592.00,40.211
593.00,40.256
594.00,40.388
595.00,40.477
596.00,40.537
597.00,40.646
598.00,40.585
599.00,40.580
600.00,40.608
601.00,40.655
602.00,40.705
603.00,40.723
604.00,40.755
605.00,40.850
606.00,40.785
607.00,40.850
608.00,41.018
609.00,41.120
610.00,40.969
611.00,41.029
612.00,41.003
613.00,41.169
614.00,41.141
615.00,41.188
616.00,41.314
617.00,41.207
618.00,41.194
619.00,41.418
620.00,41.495
621.00,41.517
622.00,41.520
623.00,41.668
624.00,41.697
625.00,41.744
626.00,41.788
627.00,41.864
628.00,41.860
629.00,41.874
630.00,41.922
631.00,41.961
632.00,42.054
633.00,42.145
634.00,42.206
635.00,42.320
636.00,42.346
637.00,42.422
638.00,42.499
639.00,42.548
640.00,42.637
641.00,42.622
642.00,42.742
643.00,42.789
644.00,42.869
645.00,42.928
646.00,43.089
647.00,43.112
648.00,43.266
649.00,43.328
650.00,43.228
651.00,43.432
652.00,43.389
653.00,43.398
654.00,43.532
655.00,43.714
656.00,43.909
657.00,43.742
658.00,43.822
659.00,44.021
660.00,44.056
661.00,43.994
662.00,44.077
663.00,44.212
664.00,44.525
665.00,44.687
666.00,44.667
667.00,44.672
668.00,44.683
669.00,44.998
670.00,45.168
671.00,44.964
672.00,45.087
673.00,45.132
674.00,45.151
675.00,45.192
676.00,45.478
677.00,45.652
678.00,45.167
679.00,45.646
680.00,45.914
681.00,45.892
682.00,45.881
683.00,45.885
684.00,46.173
685.00,46.215
686.00,45.993
687.00,46.172
688.00,46.226
689.00,46.172
690.00,46.679
691.00,46.755
692.00,46.470
693.00,46.544
694.00,46.705
695.00,46.760
696.00,46.842
697.00,46.937
698.00,46.885
699.00,47.269
700.00,47.286
701.00,47.182
702.00,47.379
703.00,47.448
704.00,47.474
705.00,47.235
706.00,47.604
707.00,47.937
708.00,47.581
709.00,47.950
710.00,48.373
711.00,47.813
712.00,47.874
713.00,48.165
714.00,48.242
715.00,48.213
716.00,48.124
717.00,48.352
718.00,48.486
719.00,48.433
720.00,48.482
721.00,53.076
722.00,52.989
723.00,53.001
724.00,52.982
725.00,53.045
726.00,53.073
727.00,53.079
728.00,53.142
729.00,53.132
730.00,53.246
731.00,53.114
732.00,53.182
733.00,53.294
734.00,53.343
735.00,53.396
736.00,53.316
737.00,53.401
738.00,53.392
739.00,53.471
740.00,53.448
741.00,53.544
742.00,53.512
743.00,53.450
744.00,53.428
745.00,53.571
746.00,53.588
747.00,53.477
748.00,53.518
749.00,53.526
750.00,53.470
751.00,53.535
752.00,53.544
753.00,53.505
754.00,53.543
755.00,53.497
756.00,53.571
757.00,53.584
758.00,53.595
759.00,53.522
760.00,53.581
761.00,53.570
762.00,53.586
763.00,53.635
764.00,53.616
765.00,53.628
766.00,53.631
767.00,53.639
768.00,53.668
769.00,53.645
770.00,53.691
771.00,53.629
772.00,53.727
773.00,53.685
774.00,53.762
775.00,53.717
776.00,53.675
777.00,53.737
778.00,53.745
779.00,53.830
780.00,53.719
781.00,53.733
782.00,53.705
783.00,53.646
784.00,53.729
785.00,53.643
786.00,53.766
787.00,53.628
788.00,53.626
789.00,53.676
790.00,53.716
791.00,53.693
792.00,53.619
793.00,53.519
794.00,53.618
795.00,53.650
796.00,53.654
797.00,53.533
798.00,53.636
799.00,53.595
800.00,53.559
801.00,53.528
802.00,53.532
803.00,53.489
804.00,53.445
805.00,53.531
806.00,53.362
807.00,53.449
808.00,53.454
809.00,53.423
810.00,53.390
811.00,53.468
812.00,53.488
813.00,53.336
814.00,53.397
815.00,53.421
816.00,53.339
817.00,53.345
818.00,53.220
819.00,53.335
820.00,53.193
821.00,53.254
822.00,53.246
823.00,53.182
824.00,53.297
825.00,53.279
826.00,53.163
827.00,53.289
828.00,53.318
829.00,53.176
830.00,53.193
831.00,55.746
832.00,55.702
833.00,55.643
834.00,55.676
835.00,55.641
836.00,55.657
837.00,55.654
838.00,55.613
839.00,55.610
840.00,55.545
841.00,55.579
842.00,55.526
843.00,55.521
844.00,55.483
845.00,55.443
846.00,55.482
847.00,55.449
848.00,55.462
849.00,55.358
850.00,55.380
851.00,55.263
852.00,55.327
853.00,55.278
854.00,55.251
855.00,55.206
856.00,55.254
857.00,55.209
858.00,55.130
859.00,55.124
860.00,55.108
861.00,55.297
862.00,55.111
863.00,55.124
864.00,55.096
865.00,55.136
866.00,55.111
867.00,55.075
868.00,55.099
869.00,55.052
870.00,55.085
871.00,55.069
872.00,55.049
873.00,55.027
874.00,55.027
875.00,54.997
876.00,54.977
877.00,55.004
878.00,54.994
879.00,54.970
880.00,54.956
881.00,54.905
882.00,54.993
883.00,54.896
884.00,54.886
885.00,54.861
886.00,54.854
887.00,54.812
888.00,54.811
889.00,54.818
890.00,54.795
891.00,54.833
892.00,54.754
893.00,54.728
894.00,54.747
895.00,54.679
896.00,54.681
897.00,54.681
898.00,54.625
899.00,54.670
900.00,54.622
901.00,54.621
902.00,54.610
903.00,54.605
904.00,54.560
905.00,54.686
906.00,54.572
907.00,54.534
908.00,54.506
909.00,54.499
910.00,54.473
911.00,54.475
912.00,54.446
913.00,54.421
914.00,54.406
915.00,54.401
916.00,54.360
917.00,54.336
918.00,54.348
919.00,54.280
920.00,54.265
921.00,54.292
922.00,54.281
923.00,54.212
924.00,54.196
925.00,54.227
926.00,54.187
927.00,54.171
928.00,54.144
929.00,54.151
930.00,54.086
931.00,54.096
932.00,54.067
933.00,54.064
934.00,54.047
935.00,54.058
936.00,54.030
937.00,54.012
938.00,53.987
939.00,53.992
940.00,53.995
941.00,53.942
942.00,53.932
943.00,53.910
944.00,53.853
945.00,53.857
946.00,53.902
947.00,53.874
948.00,53.823
949.00,53.796
950.00,53.778
951.00,53.758
952.00,53.756
953.00,53.718
954.00,53.694
955.00,53.645
956.00,53.653
957.00,53.615
958.00,53.633
959.00,53.582
960.00,53.554
961.00,53.600
962.00,53.589
963.00,53.505
964.00,53.510
965.00,53.536
966.00,53.496
967.00,53.507
968.00,53.470
969.00,53.500
970.00,53.493
971.00,53.475
972.00,53.453
973.00,53.502
974.00,53.510
975.00,53.456
976.00,53.471
977.00,53.470
978.00,53.512
979.00,53.462
980.00,53.479
981.00,53.497
982.00,53.433
983.00,53.481
984.00,53.472
985.00,53.468
986.00,53.444
987.00,53.471
988.00,53.440
989.00,53.455
990.00,53.415
991.00,53.399
992.00,53.453
993.00,53.367
994.00,53.372
995.00,53.350
996.00,53.343
997.00,53.326
998.00,53.307
999.00,53.332
1000.00,53.290
1001.00,53.276
1002.00,53.285
1003.00,53.294
1004.00,53.259
1005.00,53.239
1006.00,53.292
1007.00,53.277
1008.00,53.216
1009.00,53.198
1010.00,53.204
1011.00,53.189
1012.00,53.163
1013.00,53.164
1014.00,53.153
1015.00,53.161
1016.00,53.132
1017.00,53.126
1018.00,53.095
1019.00,53.068
1020.00,53.061
1021.00,53.047
1022.00,53.058
1023.00,52.992
1024.00,53.014
1025.00,53.004
1026.00,52.981
1027.00,52.962
1028.00,52.955
1029.00,52.928
1030.00,52.898
1031.00,52.923
1032.00,52.875
1033.00,52.868
1034.00,52.834
1035.00,52.806
1036.00,52.794
1037.00,52.774
1038.00,52.774
1039.00,52.750
1040.00,52.746
1041.00,52.700
1042.00,52.711
1043.00,52.690
1044.00,52.722
1045.00,52.699
1046.00,52.679
1047.00,52.715
1048.00,52.726
1049.00,52.744
1050.00,52.742
1051.00,52.768
1052.00,52.765
1053.00,52.776
1054.00,52.784
1055.00,52.811
1056.00,52.816
1057.00,52.811
1058.00,52.800
1059.00,52.785
1060.00,52.807
1061.00,52.772
1062.00,52.756
1063.00,52.763
1064.00,52.782
1065.00,52.763
1066.00,52.758
1067.00,52.752
1068.00,52.782
1069.00,52.739
1070.00,52.708
1071.00,52.710
1072.00,52.748
1073.00,52.717
1074.00,52.703
1075.00,52.691
1076.00,52.699
1077.00,52.678
1078.00,52.655
1079.00,52.663
1080.00,52.677
1081.00,52.646
1082.00,52.657
1083.00,52.650
1084.00,52.639
1085.00,52.661
1086.00,52.643
1087.00,52.642
1088.00,52.637
1089.00,52.631
1090.00,52.621
1091.00,52.637
1092.00,52.604
1093.00,52.598
1094.00,52.583
1095.00,52.565
1096.00,52.569
1097.00,52.564
1098.00,52.543
1099.00,52.572
1100.00,52.513
1101.00,52.523
1102.00,52.510
1103.00,52.497
1104.00,52.502
1105.00,52.500
1106.00,52.467
1107.00,52.465
1108.00,52.453
1109.00,52.438
1110.00,52.437
1111.00,52.434
1112.00,52.439
1113.00,52.452
1114.00,52.419
1115.00,52.435
1116.00,52.421
1117.00,52.391
1118.00,52.391
1119.00,52.391
1120.00,52.383
1121.00,52.389
1122.00,52.376
1123.00,52.363
1124.00,52.369
1125.00,52.353
1126.00,52.346
1127.00,52.347
1128.00,52.315
1129.00,52.323
1130.00,52.312
1131.00,52.304
1132.00,52.294
1133.00,52.282
1134.00,52.288
1135.00,52.279
1136.00,52.263
1137.00,52.284
1138.00,52.280
1139.00,52.268
1140.00,52.268
1141.00,52.266
1142.00,52.239
1143.00,52.259
1144.00,52.221
1145.00,52.227
1146.00,52.224
1147.00,52.227
1148.00,52.261
1149.00,52.272
1150.00,52.252
1151.00,52.256
1152.00,52.239
1153.00,52.224
1154.00,52.218
1155.00,52.220
1156.00,52.212
1157.00,52.239
1158.00,52.219
1159.00,52.234
1160.00,52.227
1161.00,52.237
1162.00,52.262
1163.00,52.225
1164.00,52.228
1165.00,52.224
1166.00,52.209
1167.00,52.208
1168.00,52.232
1169.00,52.208
1170.00,52.221
1171.00,52.211
1172.00,52.216
1173.00,52.219
1174.00,52.229
1175.00,52.222
1176.00,52.220
1177.00,52.208
1178.00,52.229
1179.00,52.231
1180.00,52.200
1181.00,52.232
1182.00,52.229
1183.00,52.215
1184.00,52.211
1185.00,52.232
1186.00,52.219
1187.00,52.229
1188.00,52.223
1189.00,52.210
1190.00,52.210
1191.00,52.194
1192.00,52.228
1193.00,52.216
1194.00,52.198
1195.00,52.189
1196.00,52.218
1197.00,52.225
1198.00,52.207
1199.00,52.197
1200.00,52.206
1201.00,52.248
1202.00,52.199
1203.00,52.190
1204.00,52.200
1205.00,52.211
1206.00,52.198
1207.00,52.202
1208.00,52.188
1209.00,52.203
1210.00,52.193
1211.00,52.197
1212.00,52.231
1213.00,52.181
1214.00,52.231
1215.00,52.210
1216.00,52.208
1217.00,52.215
1218.00,52.201
1219.00,52.219
1220.00,52.196
1221.00,52.211
1222.00,52.194
1223.00,52.221
1224.00,52.195
1225.00,52.192
1226.00,52.199
1227.00,52.183
1228.00,52.221
1229.00,52.205
1230.00,52.236
1231.00,52.231
1232.00,52.247
1233.00,52.254
1234.00,52.253
1235.00,52.242
1236.00,52.243
1237.00,52.251
1238.00,52.225
1239.00,52.249
1240.00,52.230
1241.00,52.240
1242.00,52.250
1243.00,52.257
1244.00,52.251
1245.00,52.284
1246.00,52.282
1247.00,52.279
1248.00,52.292
1249.00,52.298
1250.00,52.310
1251.00,52.285
1252.00,52.299
1253.00,52.299
1254.00,52.322
1255.00,52.304
1256.00,52.314
1257.00,52.301
1258.00,52.348
1259.00,52.337
1260.00,52.350
1261.00,52.350
1262.00,52.343
1263.00,52.345
1264.00,52.354
1265.00,52.349
1266.00,52.353
1267.00,52.389
1268.00,52.360
1269.00,52.365
1270.00,52.397
1271.00,52.392
1272.00,52.402
1273.00,52.423
1274.00,52.417
1275.00,52.432
1276.00,52.415
1277.00,52.429
1278.00,52.444
1279.00,52.429
1280.00,52.427
1281.00,52.452
1282.00,52.445
1283.00,52.423
1284.00,52.451
1285.00,52.444
1286.00,52.478
1287.00,52.466
1288.00,52.468
1289.00,52.472
1290.00,52.494
1291.00,52.494
1292.00,52.501
1293.00,52.487
1294.00,52.517
1295.00,52.515
1296.00,52.506
1297.00,52.538
1298.00,52.560
1299.00,52.533
1300.00,52.564
1301.00,52.533
1302.00,52.568
1303.00,52.563
1304.00,52.538
1305.00,52.577
1306.00,52.574
1307.00,52.590
1308.00,52.574
1309.00,52.577
1310.00,52.575
1311.00,52.562
1312.00,52.553
1313.00,52.576
1314.00,52.617
1315.00,52.607
1316.00,52.602
1317.00,52.637
1318.00,52.625
1319.00,52.633
1320.00,52.633
1321.00,52.849
1322.00,52.835
1323.00,52.814
1324.00,52.802
1325.00,52.797
1326.00,52.799
1327.00,52.793
1328.00,52.794
1329.00,52.771
1330.00,52.802
1331.00,52.811
1332.00,52.812
1333.00,52.793
1334.00,52.853
1335.00,52.845
1336.00,52.885
1337.00,52.896
1338.00,52.963
1339.00,53.009
1340.00,53.059
1341.00,53.133
1342.00,53.180
1343.00,53.242
1344.00,53.294
1345.00,53.341
1346.00,53.386
1347.00,53.399
1348.00,53.420
1349.00,53.431
1350.00,53.453
1351.00,53.480
1352.00,53.502
1353.00,53.302
1354.00,53.493
1355.00,53.446
1356.00,53.503
1357.00,53.491
1358.00,53.522
1359.00,53.438
1360.00,53.535
1361.00,53.524
1362.00,53.497
1363.00,53.529
1364.00,53.558
1365.00,53.519
1366.00,53.602
1367.00,53.546
1368.00,53.509
1369.00,53.530
1370.00,53.489
1371.00,53.511
1372.00,53.516
1373.00,53.529
1374.00,53.567
1375.00,53.525
1376.00,53.527
1377.00,53.524
1378.00,53.545
1379.00,53.505
1380.00,53.550
1381.00,53.526
1382.00,53.528
1383.00,53.531
1384.00,53.440
1385.00,53.487
1386.00,53.503
1387.00,53.404
1388.00,53.482
1389.00,53.439
1390.00,53.480
1391.00,53.483
1392.00,53.470
1393.00,53.508
1394.00,53.530
1395.00,53.500
1396.00,53.452
1397.00,53.500
1398.00,53.486
1399.00,53.501
1400.00,53.472
1401.00,53.464
1402.00,53.532
1403.00,53.539
1404.00,53.527
1405.00,53.559
1406.00,53.578
1407.00,53.546
1408.00,53.552
1409.00,53.604
1410.00,53.593
1411.00,53.551
1412.00,53.621
1413.00,53.561
1414.00,53.540
1415.00,53.569
1416.00,53.589
1417.00,53.624
1418.00,53.618
1419.00,53.637
1420.00,53.628
1421.00,53.744
1422.00,53.687
1423.00,53.713
1424.00,53.697
1425.00,53.715
1426.00,53.711
1427.00,53.745
1428.00,53.721
1429.00,53.733
1430.00,53.749
1431.00,53.774
1432.00,53.780
1433.00,53.796
1434.00,53.771
1435.00,53.854
1436.00,53.835
1437.00,53.843
1438.00,53.879
1439.00,53.909
1440.00,53.919
1441.00,53.905
1442.00,53.932
1443.00,53.943
1444.00,53.993
1445.00,53.970
1446.00,53.988
1447.00,54.017
1448.00,54.065
1449.00,54.042
1450.00,54.037
1451.00,54.057
1452.00,54.091
1453.00,54.104
1454.00,54.127
1455.00,54.128
1456.00,54.161
1457.00,54.139
1458.00,54.164
1459.00,54.176
1460.00,54.202
1461.00,54.180
1462.00,54.242
1463.00,54.237
1464.00,54.244
1465.00,54.271
1466.00,54.249
1467.00,54.284
1468.00,54.363
1469.00,54.303
1470.00,54.346
1471.00,54.345
1472.00,54.330
1473.00,54.361
1474.00,54.381
1475.00,54.406
1476.00,54.415
1477.00,54.388
1478.00,54.435
1479.00,54.432
1480.00,54.427
1481.00,54.443
1482.00,54.476
1483.00,54.467
1484.00,54.506
1485.00,54.493
1486.00,54.515
1487.00,54.545
1488.00,54.558
1489.00,54.546
1490.00,54.576
1491.00,54.587
1492.00,54.601
1493.00,54.562
1494.00,54.622
1495.00,54.599
1496.00,54.631
1497.00,54.606
1498.00,54.625
1499.00,54.642
1500.00,54.658
1501.00, 
1502.00, 
1503.00, 
1504.00, 
1505.00, 
1506.00, 
1507.00, 
1508.00, 
1509.00, 
1510.00, 
1511.00, 
1512.00, 
1513.00, 
1514.00, 
1515.00, 
1516.00, 
1517.00, 
1518.00, 
1519.00, 
1520.00, 
1521.00, 
1522.00, 
1523.00, 
1524.00, 
1525.00, 
1526.00, 
1527.00, 
1528.00, 
1529.00, 
1530.00, 
1531.00, 
1532.00, 
1533.00, 
1534.00, 
1535.00, 
1536.00, 
1537.00, 
1538.00, 
1539.00, 
1540.00, 
1541.00, 
1542.00, 
1543.00, 
1544.00, 
1545.00, 
1546.00, 
1547.00, 
1548.00, 
1549.00, 
1550.00, 
1551.00, 
1552.00, 
1553.00, 
1554.00, 
1555.00, 
1556.00, 
1557.00, 
1558.00, 
1559.00, 
1560.00, 
1561.00, 
1562.00, 
1563.00, 
1564.00, 
1565.00, 
1566.00, 
1567.00, 
1568.00, 
1569.00, 
1570.00, 
1571.00, 
1572.00, 
1573.00, 
1574.00, 
1575.00, 
1576.00, 
1577.00, 
1578.00, 
1579.00, 
1580.00, 
1581.00, 
1582.00, 
1583.00, 
1584.00, 
1585.00, 
1586.00, 
1587.00, 
1588.00, 
1589.00, 
1590.00, 
1591.00, 
1592.00, 
1593.00, 
1594.00, 
1595.00, 
1596.00, 
1597.00, 
1598.00, 
1599.00, 
1600.00, 
1601.00, 
1602.00, 
1603.00, 
1604.00, 
1605.00, 
1606.00, 
1607.00, 
1608.00, 
1609.00, 
1610.00, 
1611.00, 
1612.00, 
1613.00, 
1614.00, 
1615.00, 
1616.00, 
1617.00, 
1618.00, 
1619.00, 
1620.00, 
1621.00, 
1622.00, 
1623.00, 
1624.00, 
1625.00, 
1626.00, 
1627.00, 
1628.00, 
1629.00, 
1630.00, 
1631.00, 
1632.00, 
1633.00, 
1634.00, 
1635.00, 
1636.00, 
1637.00, 
1638.00, 
1639.00, 
1640.00, 
1641.00, 
1642.00, 
1643.00, 
1644.00, 
1645.00, 
1646.00, 
1647.00, 
1648.00, 
1649.00, 
1650.00, 
1651.00, 
1652.00, 
1653.00, 
1654.00, 
1655.00, 
1656.00, 
1657.00, 
1658.00, 
1659.00, 
1660.00, 
1661.00, 
1662.00, 
1663.00, 
1664.00, 
1665.00, 
1666.00, 
1667.00, 
1668.00, 
1669.00, 
1670.00, 
1671.00, 
1672.00, 
1673.00, 
1674.00, 
1675.00, 
1676.00, 
1677.00, 
1678.00, 
1679.00, 
1680.00, 
1681.00, 
1682.00, 
1683.00, 
1684.00, 
1685.00, 
1686.00, 
1687.00, 
1688.00, 
1689.00, 
1690.00, 
1691.00, 
1692.00, 
1693.00, 
1694.00, 
1695.00, 
1696.00, 
1697.00, 
1698.00, 
1699.00, 
1700.00, 
1701.00, 
1702.00, 
1703.00, 
1704.00, 
1705.00, 
1706.00, 
1707.00, 
1708.00, 
1709.00, 
1710.00, 
1711.00, 
1712.00, 
1713.00, 
1714.00, 
1715.00, 
1716.00, 
1717.00, 
1718.00, 
1719.00, 
1720.00, 
1721.00, 
1722.00, 
1723.00, 
1724.00, 
1725.00, 
1726.00, 
1727.00, 
1728.00, 
1729.00, 
1730.00, 
1731.00, 
1732.00, 
1733.00, 
1734.00, 
1735.00, 
1736.00, 
1737.00, 
1738.00, 
1739.00, 
1740.00, 
1741.00, 
1742.00, 
1743.00, 
1744.00, 
1745.00, 
1746.00, 
1747.00, 
1748.00, 
1749.00, 
1750.00, 
1751.00, 
1752.00, 
1753.00, 
1754.00, 
1755.00, 
1756.00, 
1757.00, 
1758.00, 
1759.00, 
1760.00, 
1761.00, 
1762.00, 
1763.00, 
1764.00, 
1765.00, 
1766.00, 
1767.00, 
1768.00, 
1769.00, 
1770.00, 
1771.00, 
1772.00, 
1773.00, 
1774.00, 
1775.00, 
1776.00, 
1777.00, 
1778.00, 
1779.00, 
1780.00, 
1781.00, 
1782.00, 
1783.00, 
1784.00, 
1785.00, 
1786.00, 
1787.00, 
1788.00, 
1789.00, 
1790.00, 
1791.00, 
1792.00, 
1793.00, 
1794.00, 
1795.00, 
1796.00, 
1797.00, 
1798.00, 
1799.00, 
1800.00, 
1801.00, 
1802.00, 
1803.00, 
1804.00, 
1805.00, 
1806.00, 
1807.00, 
1808.00, 
1809.00, 
1810.00, 
1811.00, 
1812.00, 
1813.00, 
1814.00, 
1815.00, 
1816.00, 
1817.00, 
1818.00, 
1819.00, 
1820.00, 
1821.00, 
1822.00, 
1823.00, 
1824.00, 
1825.00, 
1826.00, 
1827.00, 
1828.00, 
1829.00, 
1830.00, 
1831.00, 
1832.00, 
1833.00, 
1834.00, 
1835.00, 
1836.00, 
1837.00, 
1838.00, 
1839.00, 
1840.00, 
1841.00, 
1842.00, 
1843.00, 
1844.00, 
1845.00, 
1846.00, 
1847.00, 
1848.00, 
1849.00, 
1850.00, 
1851.00, 
1852.00, 
1853.00, 
1854.00, 
1855.00, 
1856.00, 
1857.00, 
1858.00, 
1859.00, 
1860.00, 
1861.00, 
1862.00, 
1863.00, 
1864.00, 
1865.00, 
1866.00, 
1867.00, 
1868.00, 
1869.00, 
1870.00, 
1871.00, 
1872.00, 
1873.00, 
1874.00, 
1875.00, 
1876.00, 
1877.00, 
1878.00, 
1879.00, 
1880.00, 
1881.00, 
1882.00, 
1883.00, 
1884.00, 
1885.00, 
1886.00, 
1887.00, 
1888.00, 
1889.00, 
1890.00, 
1891.00, 
1892.00, 
1893.00, 
1894.00, 
1895.00, 
1896.00, 
1897.00, 
1898.00, 
1899.00, 
1900.00, 
1901.00, 
1902.00, 
1903.00, 
1904.00, 
1905.00, 
1906.00, 
1907.00, 
1908.00, 
1909.00, 
1910.00, 
1911.00, 
1912.00, 
1913.00, 
1914.00, 
1915.00, 
1916.00, 
1917.00, 
1918.00, 
1919.00, 
1920.00, 
1921.00, 
1922.00, 
1923.00, 
1924.00, 
1925.00, 
1926.00, 
1927.00, 
1928.00, 
1929.00, 
1930.00, 
1931.00, 
1932.00, 
1933.00, 
1934.00, 
1935.00, 
1936.00, 
1937.00, 
1938.00, 
1939.00, 
1940.00, 
1941.00, 
1942.00, 
1943.00, 
1944.00, 
1945.00, 
1946.00, 
1947.00, 
1948.00, 
1949.00, 
1950.00, 
1951.00, 
1952.00, 
1953.00, 
1954.00, 
1955.00, 
1956.00, 
1957.00, 
1958.00, 
1959.00, 
1960.00, 
1961.00, 
1962.00, 
1963.00, 
1964.00, 
1965.00, 
1966.00, 
1967.00, 
1968.00, 
1969.00, 
1970.00, 
1971.00, 
1972.00, 
1973.00, 
1974.00, 
1975.00, 
1976.00, 
1977.00, 
1978.00, 
1979.00, 
1980.00, 
1981.00, 
1982.00, 
1983.00, 
1984.00, 
1985.00, 
1986.00, 
1987.00, 
1988.00, 
1989.00, 
1990.00, 
1991.00, 
1992.00, 
1993.00, 
1994.00, 
1995.00, 
1996.00, 
1997.00, 
1998.00, 
1999.00, 
2000.00, 
2001.00, 
2002.00, 
2003.00, 
2004.00, 
2005.00, 
2006.00, 
2007.00, 
2008.00, 
2009.00, 
2010.00, 
2011.00, 
2012.00, 
2013.00, 
2014.00, 
2015.00, 
2016.00, 
2017.00, 
2018.00, 
2019.00, 
2020.00, 
2021.00, 
2022.00, 
2023.00, 
2024.00, 
2025.00, 
2026.00, 
2027.00, 
2028.00, 
2029.00, 
2030.00, 
2031.00, 
2032.00, 
2033.00, 
2034.00, 
2035.00, 
2036.00, 
2037.00, 
2038.00, 
2039.00, 
2040.00, 
2041.00, 
2042.00, 
2043.00, 
2044.00, 
2045.00, 
2046.00, 
2047.00, 
2048.00, 
2049.00, 
2050.00, 
2051.00, 
2052.00, 
2053.00, 
2054.00, 
2055.00, 
2056.00, 
2057.00, 
2058.00, 
2059.00, 
2060.00, 
2061.00, 
2062.00, 
2063.00, 
2064.00, 
2065.00, 
2066.00, 
2067.00, 
2068.00, 
2069.00, 
2070.00, 
2071.00, 
2072.00, 
2073.00, 
2074.00, 
2075.00, 
2076.00, 
2077.00, 
2078.00, 
2079.00, 
2080.00, 
2081.00, 
2082.00, 
2083.00, 
2084.00, 
2085.00, 
2086.00, 
2087.00, 
2088.00, 
2089.00, 
2090.00, 
2091.00, 
2092.00, 
2093.00, 
2094.00, 
2095.00, 
2096.00, 
2097.00, 
2098.00, 
2099.00, 
2100.00, 
2101.00, 
2102.00, 
2103.00, 
2104.00, 
2105.00, 
2106.00, 
2107.00, 
2108.00, 
2109.00, 
2110.00, 
2111.00, 
2112.00, 
2113.00, 
2114.00, 
2115.00, 
2116.00, 
2117.00, 
2118.00, 
2119.00, 
2120.00, 
2121.00, 
2122.00, 
2123.00, 
2124.00, 
2125.00, 
2126.00, 
2127.00, 
2128.00, 
2129.00, 
2130.00, 
2131.00, 
2132.00, 
2133.00, 
2134.00, 
2135.00, 
2136.00, 
2137.00, 
2138.00, 
2139.00, 
2140.00, 
2141.00, 
2142.00, 
2143.00, 
2144.00, 
2145.00, 
2146.00, 
2147.00, 
2148.00, 
2149.00, 
2150.00, 
2151.00, 
2152.00, 
2153.00, 
2154.00, 
2155.00, 
2156.00, 
2157.00, 
2158.00, 
2159.00, 
2160.00, 
2161.00, 
2162.00, 
2163.00, 
2164.00, 
2165.00, 
2166.00, 
2167.00, 
2168.00, 
2169.00, 
2170.00, 
2171.00, 
2172.00, 
2173.00, 
2174.00, 
2175.00, 
2176.00, 
2177.00, 
2178.00, 
2179.00, 
2180.00, 
2181.00, 
2182.00, 
2183.00, 
2184.00, 
2185.00, 
2186.00, 
2187.00, 
2188.00, 
2189.00, 
2190.00, 
2191.00, 
2192.00, 
2193.00, 
2194.00, 
2195.00, 
2196.00, 
2197.00, 
2198.00, 
2199.00, 
2200.00, 
2201.00, 
2202.00, 
2203.00, 
2204.00, 
2205.00, 
2206.00, 
2207.00, 
2208.00, 
2209.00, 
2210.00, 
2211.00, 
2212.00, 
2213.00, 
2214.00, 
2215.00, 
2216.00, 
2217.00, 
2218.00, 
2219.00, 
2220.00, 
2221.00, 
2222.00, 
2223.00, 
2224.00, 
2225.00, 
2226.00, 
2227.00, 
2228.00, 
2229.00, 
2230.00, 
2231.00, 
2232.00, 
2233.00, 
2234.00, 
2235.00, 
2236.00, 
2237.00, 
2238.00, 
2239.00, 
2240.00, 
2241.00, 
2242.00, 
2243.00, 
2244.00, 
2245.00, 
2246.00, 
2247.00, 
2248.00, 
2249.00, 
2250.00, 
2251.00, 
2252.00, 
2253.00, 
2254.00, 
2255.00, 
2256.00, 
2257.00, 
2258.00, 
2259.00, 
2260.00, 
2261.00, 
2262.00, 
2263.00, 
2264.00, 
2265.00, 
2266.00, 
2267.00, 
2268.00, 
2269.00, 
2270.00, 
2271.00, 
2272.00, 
2273.00, 
2274.00, 
2275.00, 
2276.00, 
2277.00, 
2278.00, 
2279.00, 
2280.00, 
2281.00, 
2282.00, 
2283.00, 
2284.00, 
2285.00, 
2286.00, 
2287.00, 
2288.00, 
2289.00, 
2290.00, 
2291.00, 
2292.00, 
2293.00, 
2294.00, 
2295.00, 
2296.00, 
2297.00, 
2298.00, 
2299.00, 
2300.00, 
2301.00, 
2302.00, 
2303.00, 
2304.00, 
2305.00, 
2306.00, 
2307.00, 
2308.00, 
2309.00, 
2310.00, 
2311.00, 
2312.00, 
2313.00, 
2314.00, 
2315.00, 
2316.00, 
2317.00, 
2318.00, 
2319.00, 
2320.00, 
2321.00, 
2322.00, 
2323.00, 
2324.00, 
2325.00, 
2326.00, 
2327.00, 
2328.00, 
2329.00, 
2330.00, 
2331.00, 
2332.00, 
2333.00, 
2334.00, 
2335.00, 
2336.00, 
2337.00, 
2338.00, 
2339.00, 
2340.00, 
2341.00, 
2342.00, 
2343.00, 
2344.00, 
2345.00, 
2346.00, 
2347.00, 
2348.00, 
2349.00, 
2350.00, 
2351.00, 
2352.00, 
2353.00, 
2354.00, 
2355.00, 
2356.00, 
2357.00, 
2358.00, 
2359.00, 
2360.00, 
2361.00, 
2362.00, 
2363.00, 
2364.00, 
2365.00, 
2366.00, 
2367.00, 
2368.00, 
2369.00, 
2370.00, 
2371.00, 
2372.00, 
2373.00, 
2374.00, 
2375.00, 
2376.00, 
2377.00, 
2378.00, 
2379.00, 
2380.00, 
2381.00, 
2382.00, 
2383.00, 
2384.00, 
2385.00, 
2386.00, 
2387.00, 
2388.00, 
2389.00, 
2390.00, 
2391.00, 
2392.00, 
2393.00, 
2394.00, 
2395.00, 
2396.00, 
2397.00, 
2398.00, 
2399.00, 
2400.00, 
2401.00, 
2402.00, 
2403.00, 
2404.00, 
2405.00, 
2406.00, 
2407.00, 
2408.00, 
2409.00, 
2410.00, 
2411.00, 
2412.00, 
2413.00, 
2414.00, 
2415.00, 
2416.00, 
2417.00, 
2418.00, 
2419.00, 
2420.00, 
2421.00, 
2422.00, 
2423.00, 
2424.00, 
2425.00, 
2426.00, 
2427.00, 
2428.00, 
2429.00, 
2430.00, 
2431.00, 
2432.00, 
2433.00, 
2434.00, 
2435.00, 
2436.00, 
2437.00, 
2438.00, 
2439.00, 
2440.00, 
2441.00, 
2442.00, 
2443.00, 
2444.00, 
2445.00, 
2446.00, 
2447.00, 
2448.00, 
2449.00, 
2450.00, 
2451.00, 
2452.00, 
2453.00, 
2454.00, 
2455.00, 
2456.00, 
2457.00, 
2458.00, 
2459.00, 
2460.00, 
2461.00, 
2462.00, 
2463.00, 
2464.00, 
2465.00, 
2466.00, 
2467.00, 
2468.00, 
2469.00, 
2470.00, 
2471.00, 
2472.00, 
2473.00, 
2474.00, 
2475.00, 
2476.00, 
2477.00, 
2478.00, 
2479.00, 
2480.00, 
2481.00, 
2482.00, 
2483.00, 
2484.00, 
2485.00, 
2486.00, 
2487.00, 
2488.00, 
2489.00, 
2490.00, 
2491.00, 
2492.00, 
2493.00, 
2494.00, 
2495.00, 
2496.00, 
2497.00, 
2498.00, 
2499.00, 
2500.00, 
2501.00, 
2502.00, 
2503.00, 
2504.00, 
2505.00, 
2506.00, 
2507.00, 
2508.00, 
2509.00, 
2510.00, 
2511.00, 
2512.00, 
2513.00, 
2514.00, 
2515.00, 
2516.00, 
2517.00, 
2518.00, 
2519.00, 
2520.00, 
2521.00, 
2522.00, 
2523.00, 
2524.00, 
2525.00, 
2526.00, 
2527.00, 
2528.00, 
2529.00, 
2530.00, 
2531.00, 
2532.00, 
2533.00, 
2534.00, 
2535.00, 
2536.00, 
2537.00, 
2538.00, 
2539.00, 
2540.00, 
2541.00, 
2542.00, 
2543.00, 
2544.00, 
2545.00, 
2546.00, 
2547.00, 
2548.00, 
2549.00, 
2550.00, 
2551.00, 
2552.00, 
2553.00, 
2554.00, 
2555.00, 
2556.00, 
2557.00, 
2558.00, 
2559.00, 
2560.00, 
2561.00, 
2562.00, 
2563.00, 
2564.00, 
2565.00, 
2566.00, 
2567.00, 
2568.00, 
2569.00, 
2570.00, 
2571.00, 
2572.00, 
2573.00, 
2574.00, 
2575.00, 
2576.00, 
2577.00, 
2578.00, 
2579.00, 
2580.00, 
2581.00, 
2582.00, 
2583.00, 
2584.00, 
2585.00, 
2586.00, 
2587.00, 
2588.00, 
2589.00, 
2590.00, 
2591.00, 
2592.00, 
2593.00, 
2594.00, 
2595.00, 
2596.00, 
2597.00, 
2598.00, 
2599.00, 
2600.00, 
