"1bP2 - RawData"
"Wavelength nm.","T%"
200.00,0.002
201.00,0.002
202.00,0.002
203.00,0.001
204.00,0.002
205.00,0.001
206.00,-0.000
207.00,0.002
208.00,0.002
209.00,0.000
210.00,0.000
211.00,0.003
212.00,0.003
213.00,0.003
214.00,0.001
215.00,0.001
216.00,0.001
217.00,0.003
218.00,-0.000
219.00,0.004
220.00,0.000
221.00,-0.000
222.00,0.001
223.00,0.000
224.00,0.002
225.00,-0.000
226.00,-0.001
227.00,0.002
228.00,0.001
229.00,-0.000
230.00,0.001
231.00,0.001
232.00,-0.000
233.00,0.002
234.00,-0.000
235.00,-0.001
236.00,-0.001
237.00,0.001
238.00,0.002
239.00,0.001
240.00,-0.001
241.00,0.000
242.00,0.000
243.00,0.002
244.00,0.002
245.00,-0.000
246.00,-0.000
247.00,0.002
248.00,0.001
249.00,0.000
250.00,0.001
251.00,-0.002
252.00,-0.000
253.00,0.001
254.00,0.000
255.00,0.001
256.00,-0.000
257.00,-0.000
258.00,0.001
259.00,0.001
260.00,-0.000
261.00,0.001
262.00,0.000
263.00,0.000
264.00,-0.000
265.00,-0.000
266.00,0.001
267.00,0.000
268.00,0.001
269.00,-0.001
270.00,0.000
271.00,0.001
272.00,0.000
273.00,-0.000
274.00,0.000
275.00,0.001
276.00,0.002
277.00,0.000
278.00,0.000
279.00,0.002
280.00,0.002
281.00,0.001
282.00,0.002
283.00,0.000
284.00,0.000
285.00,0.000
286.00,0.001
287.00,0.001
288.00,0.001
289.00,-0.000
290.00,-0.001
291.00,0.000
292.00,-0.001
293.00,0.000
294.00,-0.000
295.00,0.002
296.00,0.001
297.00,0.000
298.00,0.001
299.00,0.002
300.00,0.003
301.00,0.006
302.00,0.007
303.00,0.015
304.00,0.021
305.00,0.033
306.00,0.048
307.00,0.072
308.00,0.110
309.00,0.168
310.00,0.236
311.00,0.319
312.00,0.437
313.00,0.576
314.00,0.758
315.00,0.963
316.00,1.220
317.00,1.535
318.00,1.879
319.00,2.290
320.00,2.772
321.00,3.292
322.00,3.859
323.00,4.484
324.00,5.156
325.00,5.844
326.00,6.525
327.00,7.297
328.00,8.056
329.00,8.895
330.00,9.738
331.00,10.497
332.00,11.397
333.00,12.266
334.00,13.062
335.00,13.941
336.00,14.713
337.00,15.555
338.00,16.325
339.00,17.078
340.00,17.830
341.00,18.597
342.00,19.308
343.00,19.840
344.00,20.472
345.00,21.105
346.00,21.628
347.00,22.104
348.00,22.620
349.00,23.058
350.00,23.444
351.00,23.821
352.00,24.153
353.00,24.508
354.00,24.874
355.00,25.170
356.00,25.401
357.00,25.616
358.00,25.943
359.00,26.192
360.00,26.435
361.00,26.421
362.00,26.732
363.00,26.897
364.00,26.967
365.00,27.084
366.00,27.188
367.00,27.255
368.00,27.317
369.00,27.325
370.00,27.396
371.00,27.423
372.00,27.351
373.00,27.384
374.00,27.362
375.00,27.408
376.00,27.302
377.00,27.250
378.00,27.147
379.00,27.027
380.00,27.020
381.00,26.971
382.00,26.988
383.00,27.003
384.00,26.990
385.00,27.042
386.00,26.965
387.00,27.085
388.00,27.115
389.00,27.169
390.00,27.213
391.00,27.251
392.00,27.314
393.00,27.300
394.00,27.314
395.00,27.342
396.00,27.292
397.00,27.294
398.00,27.337
399.00,27.327
400.00,27.311
401.00,27.313
402.00,27.299
403.00,27.293
404.00,27.267
405.00,27.266
406.00,27.282
407.00,27.222
408.00,27.232
409.00,27.172
410.00,27.122
411.00,27.078
412.00,27.005
413.00,27.020
414.00,26.980
415.00,27.028
416.00,27.075
417.00,27.008
418.00,27.070
419.00,27.165
420.00,27.230
421.00,27.172
422.00,27.214
423.00,27.279
424.00,27.295
425.00,27.312
426.00,27.343
427.00,27.421
428.00,27.443
429.00,27.437
430.00,27.522
431.00,27.548
432.00,27.584
433.00,27.630
434.00,27.687
435.00,27.752
436.00,27.829
437.00,27.879
438.00,27.969
439.00,28.012
440.00,28.050
441.00,28.130
442.00,28.211
443.00,28.338
444.00,28.422
445.00,28.445
446.00,28.549
447.00,28.560
448.00,28.709
449.00,28.841
450.00,28.919
451.00,28.994
452.00,29.094
453.00,29.234
454.00,29.291
455.00,29.393
456.00,29.500
457.00,29.622
458.00,29.719
459.00,29.840
460.00,29.977
461.00,30.067
462.00,30.152
463.00,30.364
464.00,30.469
465.00,30.521
466.00,30.698
467.00,30.821
468.00,30.899
469.00,31.005
470.00,31.078
471.00,31.140
472.00,31.293
473.00,31.333
474.00,31.473
475.00,31.575
476.00,31.659
477.00,31.771
478.00,31.880
479.00,32.129
480.00,32.150
481.00,32.256
482.00,32.562
483.00,32.508
484.00,32.745
485.00,32.893
486.00,33.017
487.00,33.127
488.00,33.227
489.00,33.399
490.00,33.583
491.00,33.710
492.00,33.807
493.00,34.014
494.00,34.201
495.00,34.163
496.00,34.139
497.00,34.300
498.00,34.529
499.00,34.626
500.00,34.738
501.00,34.847
502.00,34.928
503.00,35.058
504.00,35.108
505.00,35.238
506.00,35.311
507.00,35.306
508.00,35.548
509.00,35.680
510.00,35.856
511.00,35.920
512.00,36.069
513.00,36.199
514.00,36.322
515.00,36.441
516.00,36.526
517.00,36.603
518.00,36.732
519.00,36.764
520.00,36.773
521.00,36.889
522.00,36.968
523.00,36.985
524.00,37.129
525.00,37.217
526.00,37.302
527.00,37.336
528.00,37.410
529.00,37.634
530.00,37.780
531.00,37.808
532.00,37.873
533.00,37.973
534.00,38.094
535.00,38.116
536.00,38.189
537.00,38.289
538.00,38.335
539.00,38.344
540.00,38.432
541.00,38.452
542.00,38.466
543.00,38.547
544.00,38.629
545.00,38.613
546.00,38.613
547.00,38.752
548.00,38.849
549.00,38.899
550.00,38.981
551.00,38.971
552.00,38.988
553.00,39.044
554.00,39.249
555.00,39.295
556.00,39.364
557.00,39.392
558.00,39.447
559.00,39.511
560.00,39.509
561.00,39.673
562.00,39.695
563.00,39.737
564.00,39.793
565.00,39.789
566.00,39.810
567.00,39.848
568.00,39.879
569.00,39.931
570.00,39.968
571.00,39.989
572.00,40.046
573.00,39.942
574.00,39.975
575.00,39.998
576.00,40.007
577.00,40.015
578.00,40.146
579.00,40.197
580.00,40.194
581.00,40.396
582.00,40.489
583.00,40.293
584.00,40.435
585.00,40.622
586.00,40.641
587.00,40.714
588.00,40.747
589.00,40.682
590.00,40.792
591.00,40.852
592.00,40.745
593.00,40.779
594.00,40.846
595.00,40.941
596.00,41.057
597.00,41.167
598.00,41.171
599.00,41.186
600.00,41.122
601.00,41.127
602.00,41.145
603.00,41.195
604.00,41.234
605.00,41.322
606.00,41.281
607.00,41.329
608.00,41.534
609.00,41.572
610.00,41.363
611.00,41.492
612.00,41.503
613.00,41.578
614.00,41.621
615.00,41.678
616.00,41.814
617.00,41.724
618.00,41.696
619.00,41.826
620.00,41.853
621.00,41.857
622.00,41.892
623.00,42.050
624.00,42.085
625.00,42.126
626.00,42.147
627.00,42.246
628.00,42.226
629.00,42.227
630.00,42.248
631.00,42.326
632.00,42.397
633.00,42.480
634.00,42.590
635.00,42.680
636.00,42.652
637.00,42.691
638.00,42.779
639.00,42.849
640.00,42.840
641.00,42.885
642.00,42.989
643.00,42.998
644.00,43.095
645.00,43.188
646.00,43.352
647.00,43.332
648.00,43.443
649.00,43.477
650.00,43.362
651.00,43.531
652.00,43.622
653.00,43.662
654.00,43.688
655.00,43.830
656.00,44.108
657.00,43.929
658.00,44.111
659.00,44.077
660.00,44.119
661.00,44.078
662.00,44.199
663.00,44.312
664.00,44.543
665.00,44.693
666.00,44.662
667.00,44.689
668.00,44.742
669.00,44.967
670.00,45.105
671.00,44.929
672.00,45.148
673.00,45.080
674.00,45.077
675.00,45.165
676.00,45.426
677.00,45.552
678.00,45.275
679.00,45.460
680.00,45.588
681.00,45.708
682.00,45.708
683.00,45.604
684.00,45.814
685.00,45.846
686.00,45.509
687.00,46.077
688.00,46.298
689.00,45.990
690.00,46.313
691.00,46.520
692.00,46.188
693.00,46.358
694.00,46.491
695.00,46.603
696.00,46.582
697.00,46.523
698.00,46.610
699.00,46.920
700.00,46.892
701.00,46.928
702.00,47.090
703.00,47.222
704.00,47.255
705.00,47.088
706.00,47.195
707.00,47.265
708.00,47.144
709.00,47.596
710.00,47.923
711.00,47.423
712.00,47.365
713.00,47.691
714.00,47.694
715.00,47.688
716.00,47.668
717.00,47.857
718.00,47.922
719.00,47.963
720.00,47.933
721.00,52.552
722.00,52.514
723.00,52.582
724.00,52.551
725.00,52.563
726.00,52.588
727.00,52.621
728.00,52.647
729.00,52.612
730.00,52.636
731.00,52.541
732.00,52.601
733.00,52.699
734.00,52.745
735.00,52.710
736.00,52.639
737.00,52.747
738.00,52.763
739.00,52.744
740.00,52.801
741.00,52.857
742.00,52.870
743.00,52.773
744.00,52.737
745.00,52.856
746.00,52.865
747.00,52.779
748.00,52.814
749.00,52.734
750.00,52.749
751.00,52.750
752.00,52.765
753.00,52.807
754.00,52.782
755.00,52.755
756.00,52.769
757.00,52.825
758.00,52.823
759.00,52.721
760.00,52.705
761.00,52.821
762.00,52.784
763.00,52.875
764.00,52.699
765.00,52.757
766.00,52.725
767.00,52.823
768.00,52.862
769.00,52.752
770.00,52.860
771.00,52.775
772.00,52.901
773.00,52.807
774.00,52.834
775.00,52.882
776.00,52.856
777.00,52.896
778.00,52.851
779.00,52.943
780.00,52.733
781.00,52.815
782.00,52.767
783.00,52.724
784.00,52.720
785.00,52.706
786.00,52.742
787.00,52.706
788.00,52.705
789.00,52.769
790.00,52.683
791.00,52.800
792.00,52.689
793.00,52.571
794.00,52.639
795.00,52.617
796.00,52.683
797.00,52.605
798.00,52.647
799.00,52.542
800.00,52.518
801.00,52.515
802.00,52.529
803.00,52.544
804.00,52.449
805.00,52.557
806.00,52.463
807.00,52.423
808.00,52.503
809.00,52.400
810.00,52.388
811.00,52.415
812.00,52.433
813.00,52.328
814.00,52.366
815.00,52.381
816.00,52.342
817.00,52.302
818.00,52.242
819.00,52.338
820.00,52.228
821.00,52.238
822.00,52.183
823.00,52.209
824.00,52.231
825.00,52.203
826.00,52.122
827.00,52.238
828.00,52.160
829.00,52.148
830.00,52.142
831.00,54.739
832.00,54.697
833.00,54.645
834.00,54.686
835.00,54.634
836.00,54.624
837.00,54.597
838.00,54.612
839.00,54.588
840.00,54.523
841.00,54.544
842.00,54.498
843.00,54.502
844.00,54.468
845.00,54.413
846.00,54.434
847.00,54.412
848.00,54.414
849.00,54.371
850.00,54.394
851.00,54.263
852.00,54.267
853.00,54.361
854.00,54.235
855.00,54.147
856.00,54.182
857.00,54.126
858.00,54.110
859.00,54.097
860.00,54.114
861.00,54.106
862.00,54.025
863.00,54.010
864.00,54.035
865.00,54.060
866.00,54.048
867.00,53.998
868.00,54.151
869.00,53.976
870.00,53.977
871.00,53.987
872.00,53.933
873.00,53.936
874.00,53.945
875.00,53.910
876.00,53.916
877.00,53.911
878.00,53.925
879.00,53.884
880.00,53.889
881.00,53.858
882.00,53.911
883.00,53.850
884.00,53.838
885.00,53.797
886.00,53.791
887.00,53.761
888.00,53.736
889.00,53.760
890.00,53.746
891.00,53.719
892.00,53.678
893.00,53.679
894.00,53.694
895.00,53.673
896.00,53.617
897.00,53.624
898.00,53.587
899.00,53.586
900.00,53.567
901.00,53.551
902.00,53.512
903.00,53.573
904.00,53.543
905.00,53.487
906.00,53.490
907.00,53.463
908.00,53.409
909.00,53.435
910.00,53.404
911.00,53.402
912.00,53.368
913.00,53.343
914.00,53.331
915.00,53.316
916.00,53.299
917.00,53.264
918.00,53.269
919.00,53.210
920.00,53.185
921.00,53.201
922.00,53.191
923.00,53.144
924.00,53.116
925.00,53.138
926.00,53.086
927.00,53.083
928.00,53.055
929.00,53.083
930.00,53.045
931.00,53.038
932.00,53.012
933.00,53.013
934.00,52.998
935.00,52.957
936.00,52.938
937.00,52.920
938.00,52.914
939.00,52.893
940.00,52.910
941.00,52.857
942.00,52.830
943.00,52.818
944.00,52.783
945.00,52.790
946.00,52.802
947.00,52.786
948.00,52.721
949.00,52.714
950.00,52.684
951.00,52.679
952.00,52.661
953.00,52.648
954.00,52.613
955.00,52.566
956.00,52.568
957.00,52.520
958.00,52.557
959.00,52.509
960.00,52.501
961.00,52.489
962.00,52.503
963.00,52.451
964.00,52.438
965.00,52.442
966.00,52.413
967.00,52.411
968.00,52.364
969.00,52.406
970.00,52.379
971.00,52.381
972.00,52.369
973.00,52.410
974.00,52.442
975.00,52.375
976.00,52.404
977.00,52.400
978.00,52.447
979.00,52.405
980.00,52.416
981.00,52.418
982.00,52.372
983.00,52.402
984.00,52.385
985.00,52.395
986.00,52.351
987.00,52.386
988.00,52.340
989.00,52.322
990.00,52.315
991.00,52.318
992.00,52.337
993.00,52.291
994.00,52.290
995.00,52.276
996.00,52.291
997.00,52.248
998.00,52.237
999.00,52.272
1000.00,52.223
1001.00,52.205
1002.00,52.210
1003.00,52.207
1004.00,52.165
1005.00,52.150
1006.00,52.200
1007.00,52.169
1008.00,52.127
1009.00,52.118
1010.00,52.117
1011.00,52.096
1012.00,52.082
1013.00,52.076
1014.00,52.052
1015.00,52.092
1016.00,52.029
1017.00,52.008
1018.00,52.002
1019.00,51.977
1020.00,51.977
1021.00,51.964
1022.00,51.955
1023.00,51.898
1024.00,51.923
1025.00,51.901
1026.00,51.894
1027.00,51.869
1028.00,51.871
1029.00,51.848
1030.00,51.812
1031.00,51.829
1032.00,51.793
1033.00,51.802
1034.00,51.757
1035.00,51.732
1036.00,51.711
1037.00,51.697
1038.00,51.687
1039.00,51.664
1040.00,51.669
1041.00,51.621
1042.00,51.632
1043.00,51.611
1044.00,51.647
1045.00,51.623
1046.00,51.607
1047.00,51.629
1048.00,51.650
1049.00,51.651
1050.00,51.651
1051.00,51.695
1052.00,51.672
1053.00,51.682
1054.00,51.699
1055.00,51.716
1056.00,51.720
1057.00,51.717
1058.00,51.716
1059.00,51.719
1060.00,51.762
1061.00,51.713
1062.00,51.709
1063.00,51.700
1064.00,51.691
1065.00,51.684
1066.00,51.683
1067.00,51.665
1068.00,51.702
1069.00,51.661
1070.00,51.650
1071.00,51.625
1072.00,51.662
1073.00,51.637
1074.00,51.604
1075.00,51.611
1076.00,51.637
1077.00,51.591
1078.00,51.567
1079.00,51.589
1080.00,51.594
1081.00,51.578
1082.00,51.576
1083.00,51.567
1084.00,51.560
1085.00,51.555
1086.00,51.541
1087.00,51.547
1088.00,51.537
1089.00,51.533
1090.00,51.506
1091.00,51.527
1092.00,51.513
1093.00,51.494
1094.00,51.467
1095.00,51.467
1096.00,51.457
1097.00,51.461
1098.00,51.457
1099.00,51.453
1100.00,51.422
1101.00,51.439
1102.00,51.420
1103.00,51.428
1104.00,51.407
1105.00,51.406
1106.00,51.386
1107.00,51.383
1108.00,51.378
1109.00,51.367
1110.00,51.350
1111.00,51.337
1112.00,51.325
1113.00,51.328
1114.00,51.308
1115.00,51.324
1116.00,51.308
1117.00,51.299
1118.00,51.290
1119.00,51.292
1120.00,51.322
1121.00,51.317
1122.00,51.281
1123.00,51.284
1124.00,51.270
1125.00,51.269
1126.00,51.255
1127.00,51.261
1128.00,51.242
1129.00,51.227
1130.00,51.211
1131.00,51.220
1132.00,51.205
1133.00,51.205
1134.00,51.193
1135.00,51.171
1136.00,51.210
1137.00,51.187
1138.00,51.187
1139.00,51.198
1140.00,51.186
1141.00,51.179
1142.00,51.169
1143.00,51.186
1144.00,51.148
1145.00,51.164
1146.00,51.146
1147.00,51.151
1148.00,51.150
1149.00,51.161
1150.00,51.164
1151.00,51.153
1152.00,51.149
1153.00,51.159
1154.00,51.146
1155.00,51.150
1156.00,51.149
1157.00,51.159
1158.00,51.148
1159.00,51.139
1160.00,51.129
1161.00,51.147
1162.00,51.137
1163.00,51.127
1164.00,51.140
1165.00,51.120
1166.00,51.126
1167.00,51.125
1168.00,51.138
1169.00,51.119
1170.00,51.120
1171.00,51.108
1172.00,51.110
1173.00,51.099
1174.00,51.116
1175.00,51.109
1176.00,51.123
1177.00,51.103
1178.00,51.114
1179.00,51.128
1180.00,51.118
1181.00,51.136
1182.00,51.112
1183.00,51.106
1184.00,51.089
1185.00,51.108
1186.00,51.103
1187.00,51.106
1188.00,51.108
1189.00,51.104
1190.00,51.098
1191.00,51.090
1192.00,51.104
1193.00,51.099
1194.00,51.108
1195.00,51.097
1196.00,51.131
1197.00,51.140
1198.00,51.113
1199.00,51.109
1200.00,51.120
1201.00,51.147
1202.00,51.121
1203.00,51.112
1204.00,51.125
1205.00,51.149
1206.00,51.128
1207.00,51.122
1208.00,51.114
1209.00,51.128
1210.00,51.116
1211.00,51.126
1212.00,51.140
1213.00,51.093
1214.00,51.126
1215.00,51.105
1216.00,51.116
1217.00,51.102
1218.00,51.092
1219.00,51.123
1220.00,51.108
1221.00,51.130
1222.00,51.118
1223.00,51.135
1224.00,51.123
1225.00,51.105
1226.00,51.113
1227.00,51.121
1228.00,51.134
1229.00,51.120
1230.00,51.172
1231.00,51.146
1232.00,51.159
1233.00,51.159
1234.00,51.178
1235.00,51.190
1236.00,51.162
1237.00,51.174
1238.00,51.165
1239.00,51.166
1240.00,51.168
1241.00,51.168
1242.00,51.160
1243.00,51.175
1244.00,51.162
1245.00,51.201
1246.00,51.202
1247.00,51.173
1248.00,51.190
1249.00,51.195
1250.00,51.184
1251.00,51.174
1252.00,51.170
1253.00,51.206
1254.00,51.222
1255.00,51.200
1256.00,51.279
1257.00,51.221
1258.00,51.231
1259.00,51.212
1260.00,51.240
1261.00,51.229
1262.00,51.217
1263.00,51.232
1264.00,51.242
1265.00,51.245
1266.00,51.254
1267.00,51.291
1268.00,51.281
1269.00,51.277
1270.00,51.294
1271.00,51.302
1272.00,51.303
1273.00,51.303
1274.00,51.314
1275.00,51.316
1276.00,51.304
1277.00,51.316
1278.00,51.326
1279.00,51.317
1280.00,51.296
1281.00,51.328
1282.00,51.338
1283.00,51.323
1284.00,51.357
1285.00,51.346
1286.00,51.386
1287.00,51.369
1288.00,51.369
1289.00,51.350
1290.00,51.382
1291.00,51.364
1292.00,51.374
1293.00,51.372
1294.00,51.383
1295.00,51.387
1296.00,51.394
1297.00,51.411
1298.00,51.434
1299.00,51.412
1300.00,51.447
1301.00,51.432
1302.00,51.438
1303.00,51.436
1304.00,51.426
1305.00,51.449
1306.00,51.452
1307.00,51.461
1308.00,51.447
1309.00,51.459
1310.00,51.444
1311.00,51.441
1312.00,51.444
1313.00,51.463
1314.00,51.486
1315.00,51.496
1316.00,51.489
1317.00,51.530
1318.00,51.525
1319.00,51.526
1320.00,51.518
1321.00,51.686
1322.00,51.675
1323.00,51.658
1324.00,51.646
1325.00,51.622
1326.00,51.642
1327.00,51.637
1328.00,51.658
1329.00,51.613
1330.00,51.656
1331.00,51.659
1332.00,51.677
1333.00,51.651
1334.00,51.727
1335.00,51.704
1336.00,51.740
1337.00,51.762
1338.00,51.810
1339.00,51.855
1340.00,51.915
1341.00,51.963
1342.00,52.013
1343.00,52.097
1344.00,52.147
1345.00,52.225
1346.00,52.245
1347.00,52.268
1348.00,52.297
1349.00,52.306
1350.00,52.335
1351.00,52.355
1352.00,52.357
1353.00,52.320
1354.00,52.351
1355.00,52.291
1356.00,52.366
1357.00,52.354
1358.00,52.389
1359.00,52.387
1360.00,52.397
1361.00,52.381
1362.00,52.423
1363.00,52.363
1364.00,52.376
1365.00,52.381
1366.00,52.420
1367.00,52.381
1368.00,52.419
1369.00,52.375
1370.00,52.389
1371.00,52.366
1372.00,52.361
1373.00,52.358
1374.00,52.387
1375.00,52.363
1376.00,52.392
1377.00,52.360
1378.00,52.413
1379.00,52.346
1380.00,52.378
1381.00,52.404
1382.00,52.351
1383.00,52.360
1384.00,52.291
1385.00,52.322
1386.00,52.369
1387.00,52.322
1388.00,52.291
1389.00,52.312
1390.00,52.320
1391.00,52.320
1392.00,52.316
1393.00,52.377
1394.00,52.342
1395.00,52.356
1396.00,52.245
1397.00,52.372
1398.00,51.991
1399.00,52.357
1400.00,52.298
1401.00,52.307
1402.00,52.371
1403.00,52.354
1404.00,52.365
1405.00,52.363
1406.00,52.412
1407.00,52.361
1408.00,52.362
1409.00,52.445
1410.00,52.423
1411.00,52.379
1412.00,52.425
1413.00,52.393
1414.00,52.384
1415.00,52.399
1416.00,52.427
1417.00,52.467
1418.00,52.435
1419.00,52.451
1420.00,52.466
1421.00,52.523
1422.00,52.492
1423.00,52.516
1424.00,52.508
1425.00,52.550
1426.00,52.524
1427.00,52.563
1428.00,52.564
1429.00,52.555
1430.00,52.579
1431.00,52.620
1432.00,52.620
1433.00,52.632
1434.00,52.607
1435.00,52.677
1436.00,52.675
1437.00,52.665
1438.00,52.695
1439.00,52.725
1440.00,52.709
1441.00,52.716
1442.00,52.742
1443.00,52.743
1444.00,52.811
1445.00,52.761
1446.00,52.791
1447.00,52.840
1448.00,52.885
1449.00,52.872
1450.00,52.881
1451.00,52.881
1452.00,52.896
1453.00,52.896
1454.00,52.914
1455.00,52.925
1456.00,52.953
1457.00,52.927
1458.00,52.970
1459.00,52.975
1460.00,53.007
1461.00,53.005
1462.00,53.072
1463.00,53.032
1464.00,53.056
1465.00,53.067
1466.00,53.062
1467.00,53.080
1468.00,53.131
1469.00,53.096
1470.00,53.116
1471.00,53.129
1472.00,53.155
1473.00,53.147
1474.00,53.174
1475.00,53.206
1476.00,53.220
1477.00,53.201
1478.00,53.223
1479.00,53.224
1480.00,53.216
1481.00,53.207
1482.00,53.231
1483.00,53.237
1484.00,53.257
1485.00,53.262
1486.00,53.294
1487.00,53.308
1488.00,53.312
1489.00,53.294
1490.00,53.321
1491.00,53.358
1492.00,53.375
1493.00,53.328
1494.00,53.392
1495.00,53.363
1496.00,53.396
1497.00,53.386
1498.00,53.394
1499.00,53.408
1500.00,53.430
1501.00, 
1502.00, 
1503.00, 
1504.00, 
1505.00, 
1506.00, 
1507.00, 
1508.00, 
1509.00, 
1510.00, 
1511.00, 
1512.00, 
1513.00, 
1514.00, 
1515.00, 
1516.00, 
1517.00, 
1518.00, 
1519.00, 
1520.00, 
1521.00, 
1522.00, 
1523.00, 
1524.00, 
1525.00, 
1526.00, 
1527.00, 
1528.00, 
1529.00, 
1530.00, 
1531.00, 
1532.00, 
1533.00, 
1534.00, 
1535.00, 
1536.00, 
1537.00, 
1538.00, 
1539.00, 
1540.00, 
1541.00, 
1542.00, 
1543.00, 
1544.00, 
1545.00, 
1546.00, 
1547.00, 
1548.00, 
1549.00, 
1550.00, 
1551.00, 
1552.00, 
1553.00, 
1554.00, 
1555.00, 
1556.00, 
1557.00, 
1558.00, 
1559.00, 
1560.00, 
1561.00, 
1562.00, 
1563.00, 
1564.00, 
1565.00, 
1566.00, 
1567.00, 
1568.00, 
1569.00, 
1570.00, 
1571.00, 
1572.00, 
1573.00, 
1574.00, 
1575.00, 
1576.00, 
1577.00, 
1578.00, 
1579.00, 
1580.00, 
1581.00, 
1582.00, 
1583.00, 
1584.00, 
1585.00, 
1586.00, 
1587.00, 
1588.00, 
1589.00, 
1590.00, 
1591.00, 
1592.00, 
1593.00, 
1594.00, 
1595.00, 
1596.00, 
1597.00, 
1598.00, 
1599.00, 
1600.00, 
1601.00, 
1602.00, 
1603.00, 
1604.00, 
1605.00, 
1606.00, 
1607.00, 
1608.00, 
1609.00, 
1610.00, 
1611.00, 
1612.00, 
1613.00, 
1614.00, 
1615.00, 
1616.00, 
1617.00, 
1618.00, 
1619.00, 
1620.00, 
1621.00, 
1622.00, 
1623.00, 
1624.00, 
1625.00, 
1626.00, 
1627.00, 
1628.00, 
1629.00, 
1630.00, 
1631.00, 
1632.00, 
1633.00, 
1634.00, 
1635.00, 
1636.00, 
1637.00, 
1638.00, 
1639.00, 
1640.00, 
1641.00, 
1642.00, 
1643.00, 
1644.00, 
1645.00, 
1646.00, 
1647.00, 
1648.00, 
1649.00, 
1650.00, 
1651.00, 
1652.00, 
1653.00, 
1654.00, 
1655.00, 
1656.00, 
1657.00, 
1658.00, 
1659.00, 
1660.00, 
1661.00, 
1662.00, 
1663.00, 
1664.00, 
1665.00, 
1666.00, 
1667.00, 
1668.00, 
1669.00, 
1670.00, 
1671.00, 
1672.00, 
1673.00, 
1674.00, 
1675.00, 
1676.00, 
1677.00, 
1678.00, 
1679.00, 
1680.00, 
1681.00, 
1682.00, 
1683.00, 
1684.00, 
1685.00, 
1686.00, 
1687.00, 
1688.00, 
1689.00, 
1690.00, 
1691.00, 
1692.00, 
1693.00, 
1694.00, 
1695.00, 
1696.00, 
1697.00, 
1698.00, 
1699.00, 
1700.00, 
1701.00, 
1702.00, 
1703.00, 
1704.00, 
1705.00, 
1706.00, 
1707.00, 
1708.00, 
1709.00, 
1710.00, 
1711.00, 
1712.00, 
1713.00, 
1714.00, 
1715.00, 
1716.00, 
1717.00, 
1718.00, 
1719.00, 
1720.00, 
1721.00, 
1722.00, 
1723.00, 
1724.00, 
1725.00, 
1726.00, 
1727.00, 
1728.00, 
1729.00, 
1730.00, 
1731.00, 
1732.00, 
1733.00, 
1734.00, 
1735.00, 
1736.00, 
1737.00, 
1738.00, 
1739.00, 
1740.00, 
1741.00, 
1742.00, 
1743.00, 
1744.00, 
1745.00, 
1746.00, 
1747.00, 
1748.00, 
1749.00, 
1750.00, 
1751.00, 
1752.00, 
1753.00, 
1754.00, 
1755.00, 
1756.00, 
1757.00, 
1758.00, 
1759.00, 
1760.00, 
1761.00, 
1762.00, 
1763.00, 
1764.00, 
1765.00, 
1766.00, 
1767.00, 
1768.00, 
1769.00, 
1770.00, 
1771.00, 
1772.00, 
1773.00, 
1774.00, 
1775.00, 
1776.00, 
1777.00, 
1778.00, 
1779.00, 
1780.00, 
1781.00, 
1782.00, 
1783.00, 
1784.00, 
1785.00, 
1786.00, 
1787.00, 
1788.00, 
1789.00, 
1790.00, 
1791.00, 
1792.00, 
1793.00, 
1794.00, 
1795.00, 
1796.00, 
1797.00, 
1798.00, 
1799.00, 
1800.00, 
1801.00, 
1802.00, 
1803.00, 
1804.00, 
1805.00, 
1806.00, 
1807.00, 
1808.00, 
1809.00, 
1810.00, 
1811.00, 
1812.00, 
1813.00, 
1814.00, 
1815.00, 
1816.00, 
1817.00, 
1818.00, 
1819.00, 
1820.00, 
1821.00, 
1822.00, 
1823.00, 
1824.00, 
1825.00, 
1826.00, 
1827.00, 
1828.00, 
1829.00, 
1830.00, 
1831.00, 
1832.00, 
1833.00, 
1834.00, 
1835.00, 
1836.00, 
1837.00, 
1838.00, 
1839.00, 
1840.00, 
1841.00, 
1842.00, 
1843.00, 
1844.00, 
1845.00, 
1846.00, 
1847.00, 
1848.00, 
1849.00, 
1850.00, 
1851.00, 
1852.00, 
1853.00, 
1854.00, 
1855.00, 
1856.00, 
1857.00, 
1858.00, 
1859.00, 
1860.00, 
1861.00, 
1862.00, 
1863.00, 
1864.00, 
1865.00, 
1866.00, 
1867.00, 
1868.00, 
1869.00, 
1870.00, 
1871.00, 
1872.00, 
1873.00, 
1874.00, 
1875.00, 
1876.00, 
1877.00, 
1878.00, 
1879.00, 
1880.00, 
1881.00, 
1882.00, 
1883.00, 
1884.00, 
1885.00, 
1886.00, 
1887.00, 
1888.00, 
1889.00, 
1890.00, 
1891.00, 
1892.00, 
1893.00, 
1894.00, 
1895.00, 
1896.00, 
1897.00, 
1898.00, 
1899.00, 
1900.00, 
1901.00, 
1902.00, 
1903.00, 
1904.00, 
1905.00, 
1906.00, 
1907.00, 
1908.00, 
1909.00, 
1910.00, 
1911.00, 
1912.00, 
1913.00, 
1914.00, 
1915.00, 
1916.00, 
1917.00, 
1918.00, 
1919.00, 
1920.00, 
1921.00, 
1922.00, 
1923.00, 
1924.00, 
1925.00, 
1926.00, 
1927.00, 
1928.00, 
1929.00, 
1930.00, 
1931.00, 
1932.00, 
1933.00, 
1934.00, 
1935.00, 
1936.00, 
1937.00, 
1938.00, 
1939.00, 
1940.00, 
1941.00, 
1942.00, 
1943.00, 
1944.00, 
1945.00, 
1946.00, 
1947.00, 
1948.00, 
1949.00, 
1950.00, 
1951.00, 
1952.00, 
1953.00, 
1954.00, 
1955.00, 
1956.00, 
1957.00, 
1958.00, 
1959.00, 
1960.00, 
1961.00, 
1962.00, 
1963.00, 
1964.00, 
1965.00, 
1966.00, 
1967.00, 
1968.00, 
1969.00, 
1970.00, 
1971.00, 
1972.00, 
1973.00, 
1974.00, 
1975.00, 
1976.00, 
1977.00, 
1978.00, 
1979.00, 
1980.00, 
1981.00, 
1982.00, 
1983.00, 
1984.00, 
1985.00, 
1986.00, 
1987.00, 
1988.00, 
1989.00, 
1990.00, 
1991.00, 
1992.00, 
1993.00, 
1994.00, 
1995.00, 
1996.00, 
1997.00, 
1998.00, 
1999.00, 
2000.00, 
2001.00, 
2002.00, 
2003.00, 
2004.00, 
2005.00, 
2006.00, 
2007.00, 
2008.00, 
2009.00, 
2010.00, 
2011.00, 
2012.00, 
2013.00, 
2014.00, 
2015.00, 
2016.00, 
2017.00, 
2018.00, 
2019.00, 
2020.00, 
2021.00, 
2022.00, 
2023.00, 
2024.00, 
2025.00, 
2026.00, 
2027.00, 
2028.00, 
2029.00, 
2030.00, 
2031.00, 
2032.00, 
2033.00, 
2034.00, 
2035.00, 
2036.00, 
2037.00, 
2038.00, 
2039.00, 
2040.00, 
2041.00, 
2042.00, 
2043.00, 
2044.00, 
2045.00, 
2046.00, 
2047.00, 
2048.00, 
2049.00, 
2050.00, 
2051.00, 
2052.00, 
2053.00, 
2054.00, 
2055.00, 
2056.00, 
2057.00, 
2058.00, 
2059.00, 
2060.00, 
2061.00, 
2062.00, 
2063.00, 
2064.00, 
2065.00, 
2066.00, 
2067.00, 
2068.00, 
2069.00, 
2070.00, 
2071.00, 
2072.00, 
2073.00, 
2074.00, 
2075.00, 
2076.00, 
2077.00, 
2078.00, 
2079.00, 
2080.00, 
2081.00, 
2082.00, 
2083.00, 
2084.00, 
2085.00, 
2086.00, 
2087.00, 
2088.00, 
2089.00, 
2090.00, 
2091.00, 
2092.00, 
2093.00, 
2094.00, 
2095.00, 
2096.00, 
2097.00, 
2098.00, 
2099.00, 
2100.00, 
2101.00, 
2102.00, 
2103.00, 
2104.00, 
2105.00, 
2106.00, 
2107.00, 
2108.00, 
2109.00, 
2110.00, 
2111.00, 
2112.00, 
2113.00, 
2114.00, 
2115.00, 
2116.00, 
2117.00, 
2118.00, 
2119.00, 
2120.00, 
2121.00, 
2122.00, 
2123.00, 
2124.00, 
2125.00, 
2126.00, 
2127.00, 
2128.00, 
2129.00, 
2130.00, 
2131.00, 
2132.00, 
2133.00, 
2134.00, 
2135.00, 
2136.00, 
2137.00, 
2138.00, 
2139.00, 
2140.00, 
2141.00, 
2142.00, 
2143.00, 
2144.00, 
2145.00, 
2146.00, 
2147.00, 
2148.00, 
2149.00, 
2150.00, 
2151.00, 
2152.00, 
2153.00, 
2154.00, 
2155.00, 
2156.00, 
2157.00, 
2158.00, 
2159.00, 
2160.00, 
2161.00, 
2162.00, 
2163.00, 
2164.00, 
2165.00, 
2166.00, 
2167.00, 
2168.00, 
2169.00, 
2170.00, 
2171.00, 
2172.00, 
2173.00, 
2174.00, 
2175.00, 
2176.00, 
2177.00, 
2178.00, 
2179.00, 
2180.00, 
2181.00, 
2182.00, 
2183.00, 
2184.00, 
2185.00, 
2186.00, 
2187.00, 
2188.00, 
2189.00, 
2190.00, 
2191.00, 
2192.00, 
2193.00, 
2194.00, 
2195.00, 
2196.00, 
2197.00, 
2198.00, 
2199.00, 
2200.00, 
2201.00, 
2202.00, 
2203.00, 
2204.00, 
2205.00, 
2206.00, 
2207.00, 
2208.00, 
2209.00, 
2210.00, 
2211.00, 
2212.00, 
2213.00, 
2214.00, 
2215.00, 
2216.00, 
2217.00, 
2218.00, 
2219.00, 
2220.00, 
2221.00, 
2222.00, 
2223.00, 
2224.00, 
2225.00, 
2226.00, 
2227.00, 
2228.00, 
2229.00, 
2230.00, 
2231.00, 
2232.00, 
2233.00, 
2234.00, 
2235.00, 
2236.00, 
2237.00, 
2238.00, 
2239.00, 
2240.00, 
2241.00, 
2242.00, 
2243.00, 
2244.00, 
2245.00, 
2246.00, 
2247.00, 
2248.00, 
2249.00, 
2250.00, 
2251.00, 
2252.00, 
2253.00, 
2254.00, 
2255.00, 
2256.00, 
2257.00, 
2258.00, 
2259.00, 
2260.00, 
2261.00, 
2262.00, 
2263.00, 
2264.00, 
2265.00, 
2266.00, 
2267.00, 
2268.00, 
2269.00, 
2270.00, 
2271.00, 
2272.00, 
2273.00, 
2274.00, 
2275.00, 
2276.00, 
2277.00, 
2278.00, 
2279.00, 
2280.00, 
2281.00, 
2282.00, 
2283.00, 
2284.00, 
2285.00, 
2286.00, 
2287.00, 
2288.00, 
2289.00, 
2290.00, 
2291.00, 
2292.00, 
2293.00, 
2294.00, 
2295.00, 
2296.00, 
2297.00, 
2298.00, 
2299.00, 
2300.00, 
2301.00, 
2302.00, 
2303.00, 
2304.00, 
2305.00, 
2306.00, 
2307.00, 
2308.00, 
2309.00, 
2310.00, 
2311.00, 
2312.00, 
2313.00, 
2314.00, 
2315.00, 
2316.00, 
2317.00, 
2318.00, 
2319.00, 
2320.00, 
2321.00, 
2322.00, 
2323.00, 
2324.00, 
2325.00, 
2326.00, 
2327.00, 
2328.00, 
2329.00, 
2330.00, 
2331.00, 
2332.00, 
2333.00, 
2334.00, 
2335.00, 
2336.00, 
2337.00, 
2338.00, 
2339.00, 
2340.00, 
2341.00, 
2342.00, 
2343.00, 
2344.00, 
2345.00, 
2346.00, 
2347.00, 
2348.00, 
2349.00, 
2350.00, 
2351.00, 
2352.00, 
2353.00, 
2354.00, 
2355.00, 
2356.00, 
2357.00, 
2358.00, 
2359.00, 
2360.00, 
2361.00, 
2362.00, 
2363.00, 
2364.00, 
2365.00, 
2366.00, 
2367.00, 
2368.00, 
2369.00, 
2370.00, 
2371.00, 
2372.00, 
2373.00, 
2374.00, 
2375.00, 
2376.00, 
2377.00, 
2378.00, 
2379.00, 
2380.00, 
2381.00, 
2382.00, 
2383.00, 
2384.00, 
2385.00, 
2386.00, 
2387.00, 
2388.00, 
2389.00, 
2390.00, 
2391.00, 
2392.00, 
2393.00, 
2394.00, 
2395.00, 
2396.00, 
2397.00, 
2398.00, 
2399.00, 
2400.00, 
2401.00, 
2402.00, 
2403.00, 
2404.00, 
2405.00, 
2406.00, 
2407.00, 
2408.00, 
2409.00, 
2410.00, 
2411.00, 
2412.00, 
2413.00, 
2414.00, 
2415.00, 
2416.00, 
2417.00, 
2418.00, 
2419.00, 
2420.00, 
2421.00, 
2422.00, 
2423.00, 
2424.00, 
2425.00, 
2426.00, 
2427.00, 
2428.00, 
2429.00, 
2430.00, 
2431.00, 
2432.00, 
2433.00, 
2434.00, 
2435.00, 
2436.00, 
2437.00, 
2438.00, 
2439.00, 
2440.00, 
2441.00, 
2442.00, 
2443.00, 
2444.00, 
2445.00, 
2446.00, 
2447.00, 
2448.00, 
2449.00, 
2450.00, 
2451.00, 
2452.00, 
2453.00, 
2454.00, 
2455.00, 
2456.00, 
2457.00, 
2458.00, 
2459.00, 
2460.00, 
2461.00, 
2462.00, 
2463.00, 
2464.00, 
2465.00, 
2466.00, 
2467.00, 
2468.00, 
2469.00, 
2470.00, 
2471.00, 
2472.00, 
2473.00, 
2474.00, 
2475.00, 
2476.00, 
2477.00, 
2478.00, 
2479.00, 
2480.00, 
2481.00, 
2482.00, 
2483.00, 
2484.00, 
2485.00, 
2486.00, 
2487.00, 
2488.00, 
2489.00, 
2490.00, 
2491.00, 
2492.00, 
2493.00, 
2494.00, 
2495.00, 
2496.00, 
2497.00, 
2498.00, 
2499.00, 
2500.00, 
2501.00, 
2502.00, 
2503.00, 
2504.00, 
2505.00, 
2506.00, 
2507.00, 
2508.00, 
2509.00, 
2510.00, 
2511.00, 
2512.00, 
2513.00, 
2514.00, 
2515.00, 
2516.00, 
2517.00, 
2518.00, 
2519.00, 
2520.00, 
2521.00, 
2522.00, 
2523.00, 
2524.00, 
2525.00, 
2526.00, 
2527.00, 
2528.00, 
2529.00, 
2530.00, 
2531.00, 
2532.00, 
2533.00, 
2534.00, 
2535.00, 
2536.00, 
2537.00, 
2538.00, 
2539.00, 
2540.00, 
2541.00, 
2542.00, 
2543.00, 
2544.00, 
2545.00, 
2546.00, 
2547.00, 
2548.00, 
2549.00, 
2550.00, 
2551.00, 
2552.00, 
2553.00, 
2554.00, 
2555.00, 
2556.00, 
2557.00, 
2558.00, 
2559.00, 
2560.00, 
2561.00, 
2562.00, 
2563.00, 
2564.00, 
2565.00, 
2566.00, 
2567.00, 
2568.00, 
2569.00, 
2570.00, 
2571.00, 
2572.00, 
2573.00, 
2574.00, 
2575.00, 
2576.00, 
2577.00, 
2578.00, 
2579.00, 
2580.00, 
2581.00, 
2582.00, 
2583.00, 
2584.00, 
2585.00, 
2586.00, 
2587.00, 
2588.00, 
2589.00, 
2590.00, 
2591.00, 
2592.00, 
2593.00, 
2594.00, 
2595.00, 
2596.00, 
2597.00, 
2598.00, 
2599.00, 
2600.00, 
