"1cP2 - RawData"
"Wavelength nm.","T%"
200.00,0.003
201.00,0.004
202.00,0.004
203.00,0.004
204.00,0.000
205.00,-0.000
206.00,-0.001
207.00,0.001
208.00,0.003
209.00,0.001
210.00,0.002
211.00,0.002
212.00,0.001
213.00,0.002
214.00,0.000
215.00,-0.001
216.00,0.001
217.00,-0.002
218.00,0.004
219.00,-0.000
220.00,0.003
221.00,0.000
222.00,0.002
223.00,0.000
224.00,0.001
225.00,0.002
226.00,0.003
227.00,0.000
228.00,-0.001
229.00,0.001
230.00,0.000
231.00,0.001
232.00,0.001
233.00,0.003
234.00,-0.000
235.00,0.000
236.00,0.002
237.00,-0.001
238.00,0.001
239.00,0.002
240.00,0.001
241.00,0.000
242.00,0.000
243.00,0.002
244.00,-0.000
245.00,0.002
246.00,0.001
247.00,0.001
248.00,-0.001
249.00,0.000
250.00,0.001
251.00,0.001
252.00,0.000
253.00,-0.000
254.00,0.000
255.00,0.000
256.00,0.001
257.00,0.001
258.00,0.001
259.00,-0.000
260.00,0.000
261.00,-0.001
262.00,0.001
263.00,-0.001
264.00,0.003
265.00,0.001
266.00,0.001
267.00,0.004
268.00,-0.001
269.00,0.001
270.00,0.001
271.00,-0.000
272.00,-0.002
273.00,0.000
274.00,0.000
275.00,-0.001
276.00,-0.001
277.00,0.000
278.00,0.001
279.00,0.001
280.00,0.001
281.00,0.002
282.00,0.002
283.00,-0.001
284.00,0.002
285.00,0.001
286.00,0.001
287.00,0.001
288.00,-0.000
289.00,0.000
290.00,-0.000
291.00,0.002
292.00,0.001
293.00,0.002
294.00,-0.000
295.00,0.002
296.00,0.001
297.00,-0.000
298.00,-0.000
299.00,0.001
300.00,0.000
301.00,0.000
302.00,0.003
303.00,0.003
304.00,-0.001
305.00,0.003
306.00,0.003
307.00,0.005
308.00,0.012
309.00,0.021
310.00,0.034
311.00,0.055
312.00,0.081
313.00,0.126
314.00,0.190
315.00,0.273
316.00,0.387
317.00,0.553
318.00,0.755
319.00,1.019
320.00,1.372
321.00,1.713
322.00,2.264
323.00,2.859
324.00,3.531
325.00,4.253
326.00,5.076
327.00,6.013
328.00,7.047
329.00,8.125
330.00,9.321
331.00,10.566
332.00,11.873
333.00,13.308
334.00,14.637
335.00,16.129
336.00,17.420
337.00,19.060
338.00,20.600
339.00,21.978
340.00,23.420
341.00,24.918
342.00,26.199
343.00,27.581
344.00,28.913
345.00,30.169
346.00,31.353
347.00,32.526
348.00,33.562
349.00,34.689
350.00,35.664
351.00,36.576
352.00,37.448
353.00,38.242
354.00,39.138
355.00,39.889
356.00,40.574
357.00,41.208
358.00,41.838
359.00,42.508
360.00,43.175
361.00,43.399
362.00,44.188
363.00,44.651
364.00,45.050
365.00,45.260
366.00,45.633
367.00,45.943
368.00,46.206
369.00,46.383
370.00,46.618
371.00,46.758
372.00,46.768
373.00,46.995
374.00,47.049
375.00,46.996
376.00,46.931
377.00,46.899
378.00,46.848
379.00,46.736
380.00,46.789
381.00,46.860
382.00,46.978
383.00,47.154
384.00,47.418
385.00,47.610
386.00,47.838
387.00,48.127
388.00,48.416
389.00,48.578
390.00,48.829
391.00,49.029
392.00,49.201
393.00,49.289
394.00,49.482
395.00,49.666
396.00,49.694
397.00,49.821
398.00,49.971
399.00,50.058
400.00,50.116
401.00,50.166
402.00,50.205
403.00,50.240
404.00,50.257
405.00,50.275
406.00,50.330
407.00,50.251
408.00,50.314
409.00,50.210
410.00,50.150
411.00,50.126
412.00,50.093
413.00,50.096
414.00,50.023
415.00,50.053
416.00,50.120
417.00,49.997
418.00,49.997
419.00,50.143
420.00,50.133
421.00,50.253
422.00,50.231
423.00,50.222
424.00,50.278
425.00,50.318
426.00,50.322
427.00,50.385
428.00,50.312
429.00,50.351
430.00,50.361
431.00,50.370
432.00,50.374
433.00,50.383
434.00,50.457
435.00,50.491
436.00,50.455
437.00,50.490
438.00,50.507
439.00,50.476
440.00,50.507
441.00,50.538
442.00,50.613
443.00,50.553
444.00,50.636
445.00,50.687
446.00,50.742
447.00,50.744
448.00,50.847
449.00,50.839
450.00,50.865
451.00,50.930
452.00,50.989
453.00,51.071
454.00,51.006
455.00,51.122
456.00,51.063
457.00,51.232
458.00,51.215
459.00,51.273
460.00,51.343
461.00,51.356
462.00,51.394
463.00,51.490
464.00,51.529
465.00,51.523
466.00,51.606
467.00,51.694
468.00,51.614
469.00,51.583
470.00,51.542
471.00,51.527
472.00,51.616
473.00,51.615
474.00,51.680
475.00,51.510
476.00,51.564
477.00,51.592
478.00,51.626
479.00,51.729
480.00,51.795
481.00,51.820
482.00,51.891
483.00,51.957
484.00,52.058
485.00,52.076
486.00,52.199
487.00,52.191
488.00,52.302
489.00,52.351
490.00,52.337
491.00,52.358
492.00,52.322
493.00,52.485
494.00,52.475
495.00,52.444
496.00,52.489
497.00,52.509
498.00,52.576
499.00,52.618
500.00,52.627
501.00,52.630
502.00,52.669
503.00,52.693
504.00,52.579
505.00,52.699
506.00,52.696
507.00,52.767
508.00,52.781
509.00,52.849
510.00,52.932
511.00,52.830
512.00,52.879
513.00,53.048
514.00,53.099
515.00,53.072
516.00,53.054
517.00,53.051
518.00,53.206
519.00,53.149
520.00,53.030
521.00,53.161
522.00,53.223
523.00,53.088
524.00,53.206
525.00,53.205
526.00,53.202
527.00,53.164
528.00,53.093
529.00,53.211
530.00,53.318
531.00,53.420
532.00,53.384
533.00,53.430
534.00,53.518
535.00,53.544
536.00,53.513
537.00,53.541
538.00,53.581
539.00,53.544
540.00,53.538
541.00,53.598
542.00,53.523
543.00,53.611
544.00,53.730
545.00,53.610
546.00,53.612
547.00,53.591
548.00,53.734
549.00,53.685
550.00,53.692
551.00,53.805
552.00,53.792
553.00,53.695
554.00,53.776
555.00,53.749
556.00,53.799
557.00,53.825
558.00,53.787
559.00,53.824
560.00,53.868
561.00,53.801
562.00,53.897
563.00,53.906
564.00,53.943
565.00,53.842
566.00,53.789
567.00,53.829
568.00,53.835
569.00,53.819
570.00,53.758
571.00,53.782
572.00,53.803
573.00,53.678
574.00,53.658
575.00,53.581
576.00,53.680
577.00,53.659
578.00,53.779
579.00,53.829
580.00,53.724
581.00,53.935
582.00,54.108
583.00,53.912
584.00,53.970
585.00,53.999
586.00,53.953
587.00,54.046
588.00,54.029
589.00,53.940
590.00,54.207
591.00,54.098
592.00,53.976
593.00,53.876
594.00,54.019
595.00,54.020
596.00,54.071
597.00,54.294
598.00,54.184
599.00,54.103
600.00,54.082
601.00,54.032
602.00,53.996
603.00,54.052
604.00,53.996
605.00,53.965
606.00,54.003
607.00,53.942
608.00,53.911
609.00,53.881
610.00,54.104
611.00,53.941
612.00,53.871
613.00,53.903
614.00,53.812
615.00,53.925
616.00,53.988
617.00,53.871
618.00,53.813
619.00,53.798
620.00,53.841
621.00,53.868
622.00,53.897
623.00,53.873
624.00,53.924
625.00,53.891
626.00,53.820
627.00,53.857
628.00,53.772
629.00,53.794
630.00,53.802
631.00,53.700
632.00,53.744
633.00,53.895
634.00,53.784
635.00,53.800
636.00,53.805
637.00,53.793
638.00,53.698
639.00,53.802
640.00,53.816
641.00,53.681
642.00,53.644
643.00,53.682
644.00,53.760
645.00,53.629
646.00,53.705
647.00,53.715
648.00,53.562
649.00,53.525
650.00,53.517
651.00,53.699
652.00,53.667
653.00,53.423
654.00,53.404
655.00,53.582
656.00,53.683
657.00,53.349
658.00,53.320
659.00,53.300
660.00,53.423
661.00,53.398
662.00,53.333
663.00,53.287
664.00,53.519
665.00,53.522
666.00,53.480
667.00,53.402
668.00,53.244
669.00,53.381
670.00,53.568
671.00,53.428
672.00,53.463
673.00,53.429
674.00,53.236
675.00,53.304
676.00,53.427
677.00,53.448
678.00,53.199
679.00,53.247
680.00,53.424
681.00,53.427
682.00,53.136
683.00,53.168
684.00,53.270
685.00,53.237
686.00,52.958
687.00,52.959
688.00,52.894
689.00,52.716
690.00,53.038
691.00,53.274
692.00,53.069
693.00,52.934
694.00,52.943
695.00,52.986
696.00,52.905
697.00,52.789
698.00,52.812
699.00,53.031
700.00,53.001
701.00,52.767
702.00,52.805
703.00,52.875
704.00,52.839
705.00,52.497
706.00,52.674
707.00,52.530
708.00,52.387
709.00,52.744
710.00,52.880
711.00,52.303
712.00,52.251
713.00,52.233
714.00,52.683
715.00,52.816
716.00,52.315
717.00,52.401
718.00,52.411
719.00,52.305
720.00,52.363
721.00,57.207
722.00,57.106
723.00,56.949
724.00,56.924
725.00,56.888
726.00,56.701
727.00,56.744
728.00,56.665
729.00,56.660
730.00,56.536
731.00,56.507
732.00,56.441
733.00,56.331
734.00,56.260
735.00,56.267
736.00,56.213
737.00,56.189
738.00,56.216
739.00,56.090
740.00,56.018
741.00,55.957
742.00,55.968
743.00,55.828
744.00,55.782
745.00,55.735
746.00,55.687
747.00,55.612
748.00,55.488
749.00,55.381
750.00,55.312
751.00,55.297
752.00,55.257
753.00,55.165
754.00,55.070
755.00,55.030
756.00,55.014
757.00,54.948
758.00,54.995
759.00,54.837
760.00,54.843
761.00,54.854
762.00,54.730
763.00,54.702
764.00,54.623
765.00,54.676
766.00,54.540
767.00,54.593
768.00,54.443
769.00,54.412
770.00,54.431
771.00,54.376
772.00,54.334
773.00,54.252
774.00,54.266
775.00,54.158
776.00,54.164
777.00,54.113
778.00,54.065
779.00,54.075
780.00,53.975
781.00,53.942
782.00,53.907
783.00,53.913
784.00,53.857
785.00,53.800
786.00,53.726
787.00,53.644
788.00,53.525
789.00,53.532
790.00,53.478
791.00,53.553
792.00,53.451
793.00,53.357
794.00,53.363
795.00,53.337
796.00,53.334
797.00,53.195
798.00,53.273
799.00,53.106
800.00,53.133
801.00,53.083
802.00,52.959
803.00,52.968
804.00,52.835
805.00,52.912
806.00,52.803
807.00,52.795
808.00,52.755
809.00,52.770
810.00,52.739
811.00,52.648
812.00,52.745
813.00,52.538
814.00,52.602
815.00,52.450
816.00,52.497
817.00,52.471
818.00,52.276
819.00,52.373
820.00,52.278
821.00,52.303
822.00,52.202
823.00,52.228
824.00,52.251
825.00,52.160
826.00,52.072
827.00,52.116
828.00,52.091
829.00,51.954
830.00,52.124
831.00,54.369
832.00,54.322
833.00,54.260
834.00,54.245
835.00,54.170
836.00,54.215
837.00,54.191
838.00,54.108
839.00,54.131
840.00,54.037
841.00,54.061
842.00,53.973
843.00,53.969
844.00,53.912
845.00,53.862
846.00,53.873
847.00,53.767
848.00,53.648
849.00,53.741
850.00,53.662
851.00,53.727
852.00,53.664
853.00,53.552
854.00,53.546
855.00,53.485
856.00,53.457
857.00,53.418
858.00,53.351
859.00,53.295
860.00,53.303
861.00,53.297
862.00,53.262
863.00,53.281
864.00,53.230
865.00,53.233
866.00,53.199
867.00,53.193
868.00,53.092
869.00,53.135
870.00,53.091
871.00,53.104
872.00,53.051
873.00,53.081
874.00,53.022
875.00,53.015
876.00,53.024
877.00,52.960
878.00,52.962
879.00,52.918
880.00,52.885
881.00,52.869
882.00,52.902
883.00,52.804
884.00,52.795
885.00,52.779
886.00,52.766
887.00,52.737
888.00,52.696
889.00,52.668
890.00,52.660
891.00,52.615
892.00,52.600
893.00,52.596
894.00,52.575
895.00,52.551
896.00,52.537
897.00,52.480
898.00,52.438
899.00,52.432
900.00,52.413
901.00,52.389
902.00,52.397
903.00,52.355
904.00,52.325
905.00,52.305
906.00,52.312
907.00,52.275
908.00,52.211
909.00,52.223
910.00,52.145
911.00,52.172
912.00,52.146
913.00,52.099
914.00,52.062
915.00,52.022
916.00,52.043
917.00,51.959
918.00,52.004
919.00,51.950
920.00,51.902
921.00,51.891
922.00,51.899
923.00,51.874
924.00,51.827
925.00,51.795
926.00,51.797
927.00,51.772
928.00,51.758
929.00,51.771
930.00,51.722
931.00,51.734
932.00,51.672
933.00,51.681
934.00,51.688
935.00,51.628
936.00,51.561
937.00,51.629
938.00,51.565
939.00,51.566
940.00,51.519
941.00,51.497
942.00,51.448
943.00,51.464
944.00,51.397
945.00,51.424
946.00,51.397
947.00,51.377
948.00,51.354
949.00,51.332
950.00,51.298
951.00,51.269
952.00,51.238
953.00,51.225
954.00,51.202
955.00,51.145
956.00,51.133
957.00,51.114
958.00,51.132
959.00,51.078
960.00,51.078
961.00,51.059
962.00,51.048
963.00,50.994
964.00,51.010
965.00,50.995
966.00,50.957
967.00,50.955
968.00,50.926
969.00,50.966
970.00,50.941
971.00,50.963
972.00,50.916
973.00,50.958
974.00,50.965
975.00,50.934
976.00,50.942
977.00,50.907
978.00,50.963
979.00,50.923
980.00,50.924
981.00,50.895
982.00,50.876
983.00,50.909
984.00,50.889
985.00,50.913
986.00,50.864
987.00,50.890
988.00,50.856
989.00,50.852
990.00,50.833
991.00,50.816
992.00,50.838
993.00,50.799
994.00,50.804
995.00,50.784
996.00,50.745
997.00,50.761
998.00,50.712
999.00,50.729
1000.00,50.683
1001.00,50.682
1002.00,50.676
1003.00,50.676
1004.00,50.662
1005.00,50.629
1006.00,50.663
1007.00,50.627
1008.00,50.597
1009.00,50.593
1010.00,50.586
1011.00,50.564
1012.00,50.540
1013.00,50.556
1014.00,50.514
1015.00,50.530
1016.00,50.511
1017.00,50.498
1018.00,50.469
1019.00,50.437
1020.00,50.440
1021.00,50.401
1022.00,50.406
1023.00,50.359
1024.00,50.370
1025.00,50.344
1026.00,50.332
1027.00,50.313
1028.00,50.319
1029.00,50.291
1030.00,50.259
1031.00,50.266
1032.00,50.223
1033.00,50.244
1034.00,50.214
1035.00,50.186
1036.00,50.144
1037.00,50.135
1038.00,50.120
1039.00,50.087
1040.00,50.086
1041.00,50.057
1042.00,50.071
1043.00,50.017
1044.00,50.065
1045.00,50.045
1046.00,50.032
1047.00,50.047
1048.00,50.066
1049.00,50.081
1050.00,50.078
1051.00,50.108
1052.00,50.121
1053.00,50.118
1054.00,50.088
1055.00,50.131
1056.00,50.129
1057.00,50.126
1058.00,50.148
1059.00,50.108
1060.00,50.135
1061.00,50.122
1062.00,50.106
1063.00,50.121
1064.00,50.105
1065.00,50.099
1066.00,50.104
1067.00,50.105
1068.00,50.119
1069.00,50.069
1070.00,50.052
1071.00,50.051
1072.00,50.069
1073.00,50.028
1074.00,50.028
1075.00,50.018
1076.00,50.000
1077.00,49.991
1078.00,49.977
1079.00,49.980
1080.00,49.971
1081.00,49.957
1082.00,49.964
1083.00,49.945
1084.00,49.924
1085.00,49.933
1086.00,49.928
1087.00,49.913
1088.00,49.935
1089.00,49.939
1090.00,49.890
1091.00,49.893
1092.00,49.882
1093.00,49.881
1094.00,49.857
1095.00,49.837
1096.00,49.840
1097.00,49.837
1098.00,49.811
1099.00,49.820
1100.00,49.807
1101.00,49.795
1102.00,49.781
1103.00,49.793
1104.00,49.810
1105.00,49.772
1106.00,49.748
1107.00,49.757
1108.00,49.741
1109.00,49.720
1110.00,49.723
1111.00,49.704
1112.00,49.692
1113.00,49.700
1114.00,49.712
1115.00,49.723
1116.00,49.714
1117.00,49.689
1118.00,49.688
1119.00,49.695
1120.00,49.666
1121.00,49.690
1122.00,49.650
1123.00,49.627
1124.00,49.642
1125.00,49.641
1126.00,49.637
1127.00,49.636
1128.00,49.614
1129.00,49.603
1130.00,49.594
1131.00,49.593
1132.00,49.588
1133.00,49.595
1134.00,49.541
1135.00,49.559
1136.00,49.571
1137.00,49.588
1138.00,49.582
1139.00,49.582
1140.00,49.588
1141.00,49.564
1142.00,49.542
1143.00,49.577
1144.00,49.542
1145.00,49.545
1146.00,49.540
1147.00,49.536
1148.00,49.538
1149.00,49.556
1150.00,49.547
1151.00,49.550
1152.00,49.529
1153.00,49.515
1154.00,49.520
1155.00,49.513
1156.00,49.510
1157.00,49.522
1158.00,49.520
1159.00,49.524
1160.00,49.515
1161.00,49.519
1162.00,49.518
1163.00,49.513
1164.00,49.523
1165.00,49.544
1166.00,49.527
1167.00,49.511
1168.00,49.522
1169.00,49.503
1170.00,49.519
1171.00,49.504
1172.00,49.495
1173.00,49.502
1174.00,49.497
1175.00,49.496
1176.00,49.499
1177.00,49.503
1178.00,49.527
1179.00,49.511
1180.00,49.499
1181.00,49.528
1182.00,49.523
1183.00,49.499
1184.00,49.497
1185.00,49.504
1186.00,49.466
1187.00,49.483
1188.00,49.478
1189.00,49.478
1190.00,49.479
1191.00,49.495
1192.00,49.526
1193.00,49.498
1194.00,49.498
1195.00,49.475
1196.00,49.499
1197.00,49.502
1198.00,49.505
1199.00,49.498
1200.00,49.503
1201.00,49.513
1202.00,49.487
1203.00,49.495
1204.00,49.499
1205.00,49.509
1206.00,49.506
1207.00,49.513
1208.00,49.491
1209.00,49.518
1210.00,49.513
1211.00,49.517
1212.00,49.526
1213.00,49.483
1214.00,49.523
1215.00,49.513
1216.00,49.506
1217.00,49.525
1218.00,49.517
1219.00,49.534
1220.00,49.521
1221.00,49.540
1222.00,49.539
1223.00,49.553
1224.00,49.544
1225.00,49.535
1226.00,49.539
1227.00,49.524
1228.00,49.538
1229.00,49.548
1230.00,49.568
1231.00,49.558
1232.00,49.584
1233.00,49.583
1234.00,49.592
1235.00,49.574
1236.00,49.587
1237.00,49.598
1238.00,49.590
1239.00,49.607
1240.00,49.582
1241.00,49.597
1242.00,49.609
1243.00,49.626
1244.00,49.602
1245.00,49.619
1246.00,49.627
1247.00,49.620
1248.00,49.635
1249.00,49.652
1250.00,49.651
1251.00,49.635
1252.00,49.645
1253.00,49.657
1254.00,49.670
1255.00,49.671
1256.00,49.650
1257.00,49.625
1258.00,49.690
1259.00,49.685
1260.00,49.709
1261.00,49.716
1262.00,49.714
1263.00,49.703
1264.00,49.710
1265.00,49.717
1266.00,49.716
1267.00,49.731
1268.00,49.728
1269.00,49.743
1270.00,49.763
1271.00,49.751
1272.00,49.756
1273.00,49.773
1274.00,49.782
1275.00,49.800
1276.00,49.799
1277.00,49.804
1278.00,49.828
1279.00,49.813
1280.00,49.809
1281.00,49.838
1282.00,49.832
1283.00,49.838
1284.00,49.819
1285.00,49.833
1286.00,49.873
1287.00,49.838
1288.00,49.859
1289.00,49.848
1290.00,49.881
1291.00,49.890
1292.00,49.882
1293.00,49.888
1294.00,49.904
1295.00,49.923
1296.00,49.909
1297.00,49.921
1298.00,49.937
1299.00,49.923
1300.00,49.947
1301.00,49.913
1302.00,49.941
1303.00,49.946
1304.00,49.930
1305.00,49.972
1306.00,49.981
1307.00,49.991
1308.00,49.995
1309.00,50.000
1310.00,50.014
1311.00,49.996
1312.00,50.006
1313.00,50.025
1314.00,50.058
1315.00,50.048
1316.00,50.061
1317.00,50.088
1318.00,50.084
1319.00,50.092
1320.00,50.100
1321.00,50.249
1322.00,50.262
1323.00,50.253
1324.00,50.235
1325.00,50.226
1326.00,50.243
1327.00,50.230
1328.00,50.230
1329.00,50.220
1330.00,50.254
1331.00,50.228
1332.00,50.232
1333.00,50.251
1334.00,50.290
1335.00,50.305
1336.00,50.347
1337.00,50.375
1338.00,50.450
1339.00,50.509
1340.00,50.540
1341.00,50.606
1342.00,50.668
1343.00,50.722
1344.00,50.781
1345.00,50.840
1346.00,50.889
1347.00,50.888
1348.00,50.936
1349.00,50.945
1350.00,50.978
1351.00,50.972
1352.00,51.006
1353.00,51.038
1354.00,51.007
1355.00,50.958
1356.00,51.035
1357.00,51.019
1358.00,51.031
1359.00,51.059
1360.00,51.140
1361.00,51.512
1362.00,51.009
1363.00,51.111
1364.00,51.161
1365.00,51.084
1366.00,51.161
1367.00,51.087
1368.00,51.114
1369.00,51.071
1370.00,51.080
1371.00,51.005
1372.00,51.047
1373.00,51.049
1374.00,51.065
1375.00,51.069
1376.00,51.049
1377.00,51.060
1378.00,51.128
1379.00,51.084
1380.00,51.080
1381.00,51.107
1382.00,51.137
1383.00,51.052
1384.00,51.017
1385.00,51.096
1386.00,51.040
1387.00,50.999
1388.00,51.021
1389.00,51.127
1390.00,51.062
1391.00,51.013
1392.00,51.092
1393.00,51.064
1394.00,51.044
1395.00,51.056
1396.00,51.020
1397.00,51.101
1398.00,51.056
1399.00,51.076
1400.00,50.771
1401.00,51.051
1402.00,51.127
1403.00,51.087
1404.00,51.111
1405.00,51.109
1406.00,51.139
1407.00,51.121
1408.00,51.073
1409.00,51.106
1410.00,51.162
1411.00,51.142
1412.00,51.179
1413.00,51.141
1414.00,51.159
1415.00,51.187
1416.00,51.217
1417.00,51.217
1418.00,51.192
1419.00,51.219
1420.00,51.254
1421.00,51.347
1422.00,51.296
1423.00,51.292
1424.00,51.315
1425.00,51.354
1426.00,51.345
1427.00,51.358
1428.00,51.353
1429.00,51.368
1430.00,51.385
1431.00,51.405
1432.00,51.439
1433.00,51.454
1434.00,51.450
1435.00,51.523
1436.00,51.510
1437.00,51.494
1438.00,51.520
1439.00,51.556
1440.00,51.564
1441.00,51.577
1442.00,51.569
1443.00,51.620
1444.00,51.722
1445.00,51.641
1446.00,51.669
1447.00,51.710
1448.00,51.756
1449.00,51.738
1450.00,51.723
1451.00,51.750
1452.00,51.771
1453.00,51.768
1454.00,51.810
1455.00,51.819
1456.00,51.836
1457.00,51.858
1458.00,51.879
1459.00,51.884
1460.00,51.926
1461.00,51.913
1462.00,51.940
1463.00,51.957
1464.00,51.964
1465.00,52.007
1466.00,51.989
1467.00,52.037
1468.00,52.102
1469.00,52.060
1470.00,52.070
1471.00,52.082
1472.00,52.082
1473.00,52.095
1474.00,52.120
1475.00,52.160
1476.00,52.176
1477.00,52.159
1478.00,52.199
1479.00,52.234
1480.00,52.226
1481.00,52.235
1482.00,52.272
1483.00,52.265
1484.00,52.265
1485.00,52.280
1486.00,52.284
1487.00,52.333
1488.00,52.341
1489.00,52.341
1490.00,52.376
1491.00,52.385
1492.00,52.403
1493.00,52.407
1494.00,52.424
1495.00,52.427
1496.00,52.453
1497.00,52.440
1498.00,52.470
1499.00,52.460
1500.00,52.479
1501.00, 
1502.00, 
1503.00, 
1504.00, 
1505.00, 
1506.00, 
1507.00, 
1508.00, 
1509.00, 
1510.00, 
1511.00, 
1512.00, 
1513.00, 
1514.00, 
1515.00, 
1516.00, 
1517.00, 
1518.00, 
1519.00, 
1520.00, 
1521.00, 
1522.00, 
1523.00, 
1524.00, 
1525.00, 
1526.00, 
1527.00, 
1528.00, 
1529.00, 
1530.00, 
1531.00, 
1532.00, 
1533.00, 
1534.00, 
1535.00, 
1536.00, 
1537.00, 
1538.00, 
1539.00, 
1540.00, 
1541.00, 
1542.00, 
1543.00, 
1544.00, 
1545.00, 
1546.00, 
1547.00, 
1548.00, 
1549.00, 
1550.00, 
1551.00, 
1552.00, 
1553.00, 
1554.00, 
1555.00, 
1556.00, 
1557.00, 
1558.00, 
1559.00, 
1560.00, 
1561.00, 
1562.00, 
1563.00, 
1564.00, 
1565.00, 
1566.00, 
1567.00, 
1568.00, 
1569.00, 
1570.00, 
1571.00, 
1572.00, 
1573.00, 
1574.00, 
1575.00, 
1576.00, 
1577.00, 
1578.00, 
1579.00, 
1580.00, 
1581.00, 
1582.00, 
1583.00, 
1584.00, 
1585.00, 
1586.00, 
1587.00, 
1588.00, 
1589.00, 
1590.00, 
1591.00, 
1592.00, 
1593.00, 
1594.00, 
1595.00, 
1596.00, 
1597.00, 
1598.00, 
1599.00, 
1600.00, 
1601.00, 
1602.00, 
1603.00, 
1604.00, 
1605.00, 
1606.00, 
1607.00, 
1608.00, 
1609.00, 
1610.00, 
1611.00, 
1612.00, 
1613.00, 
1614.00, 
1615.00, 
1616.00, 
1617.00, 
1618.00, 
1619.00, 
1620.00, 
1621.00, 
1622.00, 
1623.00, 
1624.00, 
1625.00, 
1626.00, 
1627.00, 
1628.00, 
1629.00, 
1630.00, 
1631.00, 
1632.00, 
1633.00, 
1634.00, 
1635.00, 
1636.00, 
1637.00, 
1638.00, 
1639.00, 
1640.00, 
1641.00, 
1642.00, 
1643.00, 
1644.00, 
1645.00, 
1646.00, 
1647.00, 
1648.00, 
1649.00, 
1650.00, 
1651.00, 
1652.00, 
1653.00, 
1654.00, 
1655.00, 
1656.00, 
1657.00, 
1658.00, 
1659.00, 
1660.00, 
1661.00, 
1662.00, 
1663.00, 
1664.00, 
1665.00, 
1666.00, 
1667.00, 
1668.00, 
1669.00, 
1670.00, 
1671.00, 
1672.00, 
1673.00, 
1674.00, 
1675.00, 
1676.00, 
1677.00, 
1678.00, 
1679.00, 
1680.00, 
1681.00, 
1682.00, 
1683.00, 
1684.00, 
1685.00, 
1686.00, 
1687.00, 
1688.00, 
1689.00, 
1690.00, 
1691.00, 
1692.00, 
1693.00, 
1694.00, 
1695.00, 
1696.00, 
1697.00, 
1698.00, 
1699.00, 
1700.00, 
1701.00, 
1702.00, 
1703.00, 
1704.00, 
1705.00, 
1706.00, 
1707.00, 
1708.00, 
1709.00, 
1710.00, 
1711.00, 
1712.00, 
1713.00, 
1714.00, 
1715.00, 
1716.00, 
1717.00, 
1718.00, 
1719.00, 
1720.00, 
1721.00, 
1722.00, 
1723.00, 
1724.00, 
1725.00, 
1726.00, 
1727.00, 
1728.00, 
1729.00, 
1730.00, 
1731.00, 
1732.00, 
1733.00, 
1734.00, 
1735.00, 
1736.00, 
1737.00, 
1738.00, 
1739.00, 
1740.00, 
1741.00, 
1742.00, 
1743.00, 
1744.00, 
1745.00, 
1746.00, 
1747.00, 
1748.00, 
1749.00, 
1750.00, 
1751.00, 
1752.00, 
1753.00, 
1754.00, 
1755.00, 
1756.00, 
1757.00, 
1758.00, 
1759.00, 
1760.00, 
1761.00, 
1762.00, 
1763.00, 
1764.00, 
1765.00, 
1766.00, 
1767.00, 
1768.00, 
1769.00, 
1770.00, 
1771.00, 
1772.00, 
1773.00, 
1774.00, 
1775.00, 
1776.00, 
1777.00, 
1778.00, 
1779.00, 
1780.00, 
1781.00, 
1782.00, 
1783.00, 
1784.00, 
1785.00, 
1786.00, 
1787.00, 
1788.00, 
1789.00, 
1790.00, 
1791.00, 
1792.00, 
1793.00, 
1794.00, 
1795.00, 
1796.00, 
1797.00, 
1798.00, 
1799.00, 
1800.00, 
1801.00, 
1802.00, 
1803.00, 
1804.00, 
1805.00, 
1806.00, 
1807.00, 
1808.00, 
1809.00, 
1810.00, 
1811.00, 
1812.00, 
1813.00, 
1814.00, 
1815.00, 
1816.00, 
1817.00, 
1818.00, 
1819.00, 
1820.00, 
1821.00, 
1822.00, 
1823.00, 
1824.00, 
1825.00, 
1826.00, 
1827.00, 
1828.00, 
1829.00, 
1830.00, 
1831.00, 
1832.00, 
1833.00, 
1834.00, 
1835.00, 
1836.00, 
1837.00, 
1838.00, 
1839.00, 
1840.00, 
1841.00, 
1842.00, 
1843.00, 
1844.00, 
1845.00, 
1846.00, 
1847.00, 
1848.00, 
1849.00, 
1850.00, 
1851.00, 
1852.00, 
1853.00, 
1854.00, 
1855.00, 
1856.00, 
1857.00, 
1858.00, 
1859.00, 
1860.00, 
1861.00, 
1862.00, 
1863.00, 
1864.00, 
1865.00, 
1866.00, 
1867.00, 
1868.00, 
1869.00, 
1870.00, 
1871.00, 
1872.00, 
1873.00, 
1874.00, 
1875.00, 
1876.00, 
1877.00, 
1878.00, 
1879.00, 
1880.00, 
1881.00, 
1882.00, 
1883.00, 
1884.00, 
1885.00, 
1886.00, 
1887.00, 
1888.00, 
1889.00, 
1890.00, 
1891.00, 
1892.00, 
1893.00, 
1894.00, 
1895.00, 
1896.00, 
1897.00, 
1898.00, 
1899.00, 
1900.00, 
1901.00, 
1902.00, 
1903.00, 
1904.00, 
1905.00, 
1906.00, 
1907.00, 
1908.00, 
1909.00, 
1910.00, 
1911.00, 
1912.00, 
1913.00, 
1914.00, 
1915.00, 
1916.00, 
1917.00, 
1918.00, 
1919.00, 
1920.00, 
1921.00, 
1922.00, 
1923.00, 
1924.00, 
1925.00, 
1926.00, 
1927.00, 
1928.00, 
1929.00, 
1930.00, 
1931.00, 
1932.00, 
1933.00, 
1934.00, 
1935.00, 
1936.00, 
1937.00, 
1938.00, 
1939.00, 
1940.00, 
1941.00, 
1942.00, 
1943.00, 
1944.00, 
1945.00, 
1946.00, 
1947.00, 
1948.00, 
1949.00, 
1950.00, 
1951.00, 
1952.00, 
1953.00, 
1954.00, 
1955.00, 
1956.00, 
1957.00, 
1958.00, 
1959.00, 
1960.00, 
1961.00, 
1962.00, 
1963.00, 
1964.00, 
1965.00, 
1966.00, 
1967.00, 
1968.00, 
1969.00, 
1970.00, 
1971.00, 
1972.00, 
1973.00, 
1974.00, 
1975.00, 
1976.00, 
1977.00, 
1978.00, 
1979.00, 
1980.00, 
1981.00, 
1982.00, 
1983.00, 
1984.00, 
1985.00, 
1986.00, 
1987.00, 
1988.00, 
1989.00, 
1990.00, 
1991.00, 
1992.00, 
1993.00, 
1994.00, 
1995.00, 
1996.00, 
1997.00, 
1998.00, 
1999.00, 
2000.00, 
2001.00, 
2002.00, 
2003.00, 
2004.00, 
2005.00, 
2006.00, 
2007.00, 
2008.00, 
2009.00, 
2010.00, 
2011.00, 
2012.00, 
2013.00, 
2014.00, 
2015.00, 
2016.00, 
2017.00, 
2018.00, 
2019.00, 
2020.00, 
2021.00, 
2022.00, 
2023.00, 
2024.00, 
2025.00, 
2026.00, 
2027.00, 
2028.00, 
2029.00, 
2030.00, 
2031.00, 
2032.00, 
2033.00, 
2034.00, 
2035.00, 
2036.00, 
2037.00, 
2038.00, 
2039.00, 
2040.00, 
2041.00, 
2042.00, 
2043.00, 
2044.00, 
2045.00, 
2046.00, 
2047.00, 
2048.00, 
2049.00, 
2050.00, 
2051.00, 
2052.00, 
2053.00, 
2054.00, 
2055.00, 
2056.00, 
2057.00, 
2058.00, 
2059.00, 
2060.00, 
2061.00, 
2062.00, 
2063.00, 
2064.00, 
2065.00, 
2066.00, 
2067.00, 
2068.00, 
2069.00, 
2070.00, 
2071.00, 
2072.00, 
2073.00, 
2074.00, 
2075.00, 
2076.00, 
2077.00, 
2078.00, 
2079.00, 
2080.00, 
2081.00, 
2082.00, 
2083.00, 
2084.00, 
2085.00, 
2086.00, 
2087.00, 
2088.00, 
2089.00, 
2090.00, 
2091.00, 
2092.00, 
2093.00, 
2094.00, 
2095.00, 
2096.00, 
2097.00, 
2098.00, 
2099.00, 
2100.00, 
2101.00, 
2102.00, 
2103.00, 
2104.00, 
2105.00, 
2106.00, 
2107.00, 
2108.00, 
2109.00, 
2110.00, 
2111.00, 
2112.00, 
2113.00, 
2114.00, 
2115.00, 
2116.00, 
2117.00, 
2118.00, 
2119.00, 
2120.00, 
2121.00, 
2122.00, 
2123.00, 
2124.00, 
2125.00, 
2126.00, 
2127.00, 
2128.00, 
2129.00, 
2130.00, 
2131.00, 
2132.00, 
2133.00, 
2134.00, 
2135.00, 
2136.00, 
2137.00, 
2138.00, 
2139.00, 
2140.00, 
2141.00, 
2142.00, 
2143.00, 
2144.00, 
2145.00, 
2146.00, 
2147.00, 
2148.00, 
2149.00, 
2150.00, 
2151.00, 
2152.00, 
2153.00, 
2154.00, 
2155.00, 
2156.00, 
2157.00, 
2158.00, 
2159.00, 
2160.00, 
2161.00, 
2162.00, 
2163.00, 
2164.00, 
2165.00, 
2166.00, 
2167.00, 
2168.00, 
2169.00, 
2170.00, 
2171.00, 
2172.00, 
2173.00, 
2174.00, 
2175.00, 
2176.00, 
2177.00, 
2178.00, 
2179.00, 
2180.00, 
2181.00, 
2182.00, 
2183.00, 
2184.00, 
2185.00, 
2186.00, 
2187.00, 
2188.00, 
2189.00, 
2190.00, 
2191.00, 
2192.00, 
2193.00, 
2194.00, 
2195.00, 
2196.00, 
2197.00, 
2198.00, 
2199.00, 
2200.00, 
2201.00, 
2202.00, 
2203.00, 
2204.00, 
2205.00, 
2206.00, 
2207.00, 
2208.00, 
2209.00, 
2210.00, 
2211.00, 
2212.00, 
2213.00, 
2214.00, 
2215.00, 
2216.00, 
2217.00, 
2218.00, 
2219.00, 
2220.00, 
2221.00, 
2222.00, 
2223.00, 
2224.00, 
2225.00, 
2226.00, 
2227.00, 
2228.00, 
2229.00, 
2230.00, 
2231.00, 
2232.00, 
2233.00, 
2234.00, 
2235.00, 
2236.00, 
2237.00, 
2238.00, 
2239.00, 
2240.00, 
2241.00, 
2242.00, 
2243.00, 
2244.00, 
2245.00, 
2246.00, 
2247.00, 
2248.00, 
2249.00, 
2250.00, 
2251.00, 
2252.00, 
2253.00, 
2254.00, 
2255.00, 
2256.00, 
2257.00, 
2258.00, 
2259.00, 
2260.00, 
2261.00, 
2262.00, 
2263.00, 
2264.00, 
2265.00, 
2266.00, 
2267.00, 
2268.00, 
2269.00, 
2270.00, 
2271.00, 
2272.00, 
2273.00, 
2274.00, 
2275.00, 
2276.00, 
2277.00, 
2278.00, 
2279.00, 
2280.00, 
2281.00, 
2282.00, 
2283.00, 
2284.00, 
2285.00, 
2286.00, 
2287.00, 
2288.00, 
2289.00, 
2290.00, 
2291.00, 
2292.00, 
2293.00, 
2294.00, 
2295.00, 
2296.00, 
2297.00, 
2298.00, 
2299.00, 
2300.00, 
2301.00, 
2302.00, 
2303.00, 
2304.00, 
2305.00, 
2306.00, 
2307.00, 
2308.00, 
2309.00, 
2310.00, 
2311.00, 
2312.00, 
2313.00, 
2314.00, 
2315.00, 
2316.00, 
2317.00, 
2318.00, 
2319.00, 
2320.00, 
2321.00, 
2322.00, 
2323.00, 
2324.00, 
2325.00, 
2326.00, 
2327.00, 
2328.00, 
2329.00, 
2330.00, 
2331.00, 
2332.00, 
2333.00, 
2334.00, 
2335.00, 
2336.00, 
2337.00, 
2338.00, 
2339.00, 
2340.00, 
2341.00, 
2342.00, 
2343.00, 
2344.00, 
2345.00, 
2346.00, 
2347.00, 
2348.00, 
2349.00, 
2350.00, 
2351.00, 
2352.00, 
2353.00, 
2354.00, 
2355.00, 
2356.00, 
2357.00, 
2358.00, 
2359.00, 
2360.00, 
2361.00, 
2362.00, 
2363.00, 
2364.00, 
2365.00, 
2366.00, 
2367.00, 
2368.00, 
2369.00, 
2370.00, 
2371.00, 
2372.00, 
2373.00, 
2374.00, 
2375.00, 
2376.00, 
2377.00, 
2378.00, 
2379.00, 
2380.00, 
2381.00, 
2382.00, 
2383.00, 
2384.00, 
2385.00, 
2386.00, 
2387.00, 
2388.00, 
2389.00, 
2390.00, 
2391.00, 
2392.00, 
2393.00, 
2394.00, 
2395.00, 
2396.00, 
2397.00, 
2398.00, 
2399.00, 
2400.00, 
2401.00, 
2402.00, 
2403.00, 
2404.00, 
2405.00, 
2406.00, 
2407.00, 
2408.00, 
2409.00, 
2410.00, 
2411.00, 
2412.00, 
2413.00, 
2414.00, 
2415.00, 
2416.00, 
2417.00, 
2418.00, 
2419.00, 
2420.00, 
2421.00, 
2422.00, 
2423.00, 
2424.00, 
2425.00, 
2426.00, 
2427.00, 
2428.00, 
2429.00, 
2430.00, 
2431.00, 
2432.00, 
2433.00, 
2434.00, 
2435.00, 
2436.00, 
2437.00, 
2438.00, 
2439.00, 
2440.00, 
2441.00, 
2442.00, 
2443.00, 
2444.00, 
2445.00, 
2446.00, 
2447.00, 
2448.00, 
2449.00, 
2450.00, 
2451.00, 
2452.00, 
2453.00, 
2454.00, 
2455.00, 
2456.00, 
2457.00, 
2458.00, 
2459.00, 
2460.00, 
2461.00, 
2462.00, 
2463.00, 
2464.00, 
2465.00, 
2466.00, 
2467.00, 
2468.00, 
2469.00, 
2470.00, 
2471.00, 
2472.00, 
2473.00, 
2474.00, 
2475.00, 
2476.00, 
2477.00, 
2478.00, 
2479.00, 
2480.00, 
2481.00, 
2482.00, 
2483.00, 
2484.00, 
2485.00, 
2486.00, 
2487.00, 
2488.00, 
2489.00, 
2490.00, 
2491.00, 
2492.00, 
2493.00, 
2494.00, 
2495.00, 
2496.00, 
2497.00, 
2498.00, 
2499.00, 
2500.00, 
2501.00, 
2502.00, 
2503.00, 
2504.00, 
2505.00, 
2506.00, 
2507.00, 
2508.00, 
2509.00, 
2510.00, 
2511.00, 
2512.00, 
2513.00, 
2514.00, 
2515.00, 
2516.00, 
2517.00, 
2518.00, 
2519.00, 
2520.00, 
2521.00, 
2522.00, 
2523.00, 
2524.00, 
2525.00, 
2526.00, 
2527.00, 
2528.00, 
2529.00, 
2530.00, 
2531.00, 
2532.00, 
2533.00, 
2534.00, 
2535.00, 
2536.00, 
2537.00, 
2538.00, 
2539.00, 
2540.00, 
2541.00, 
2542.00, 
2543.00, 
2544.00, 
2545.00, 
2546.00, 
2547.00, 
2548.00, 
2549.00, 
2550.00, 
2551.00, 
2552.00, 
2553.00, 
2554.00, 
2555.00, 
2556.00, 
2557.00, 
2558.00, 
2559.00, 
2560.00, 
2561.00, 
2562.00, 
2563.00, 
2564.00, 
2565.00, 
2566.00, 
2567.00, 
2568.00, 
2569.00, 
2570.00, 
2571.00, 
2572.00, 
2573.00, 
2574.00, 
2575.00, 
2576.00, 
2577.00, 
2578.00, 
2579.00, 
2580.00, 
2581.00, 
2582.00, 
2583.00, 
2584.00, 
2585.00, 
2586.00, 
2587.00, 
2588.00, 
2589.00, 
2590.00, 
2591.00, 
2592.00, 
2593.00, 
2594.00, 
2595.00, 
2596.00, 
2597.00, 
2598.00, 
2599.00, 
2600.00, 
