"2cP1 - RawData"
"Wavelength nm.","T%"
200.00,0.001
201.00,-0.001
202.00,0.001
203.00,-0.002
204.00,0.002
205.00,0.003
206.00,0.004
207.00,0.004
208.00,0.001
209.00,0.000
210.00,0.002
211.00,0.001
212.00,0.000
213.00,0.001
214.00,-0.001
215.00,0.002
216.00,0.002
217.00,0.002
218.00,0.002
219.00,0.002
220.00,0.000
221.00,0.000
222.00,0.003
223.00,0.002
224.00,0.001
225.00,0.001
226.00,-0.003
227.00,0.001
228.00,0.003
229.00,0.001
230.00,-0.001
231.00,0.001
232.00,-0.001
233.00,-0.001
234.00,0.000
235.00,0.002
236.00,-0.000
237.00,-0.002
238.00,0.000
239.00,0.002
240.00,0.000
241.00,0.000
242.00,0.002
243.00,0.001
244.00,-0.000
245.00,0.002
246.00,-0.001
247.00,0.001
248.00,0.002
249.00,0.002
250.00,-0.002
251.00,0.000
252.00,0.001
253.00,0.001
254.00,0.001
255.00,0.001
256.00,-0.001
257.00,0.000
258.00,-0.000
259.00,0.002
260.00,0.000
261.00,-0.000
262.00,0.002
263.00,-0.001
264.00,0.001
265.00,0.002
266.00,-0.000
267.00,0.001
268.00,-0.000
269.00,0.002
270.00,-0.000
271.00,-0.000
272.00,0.001
273.00,0.001
274.00,0.001
275.00,0.001
276.00,0.001
277.00,-0.000
278.00,0.001
279.00,-0.001
280.00,0.001
281.00,-0.001
282.00,0.001
283.00,-0.000
284.00,-0.003
285.00,0.003
286.00,0.000
287.00,0.001
288.00,-0.001
289.00,-0.000
290.00,-0.001
291.00,0.001
292.00,0.001
293.00,0.001
294.00,0.001
295.00,-0.000
296.00,0.003
297.00,-0.000
298.00,0.001
299.00,0.000
300.00,0.003
301.00,0.006
302.00,0.005
303.00,0.008
304.00,0.011
305.00,0.019
306.00,0.025
307.00,0.042
308.00,0.068
309.00,0.102
310.00,0.141
311.00,0.188
312.00,0.259
313.00,0.353
314.00,0.471
315.00,0.621
316.00,0.786
317.00,0.993
318.00,1.226
319.00,1.503
320.00,1.819
321.00,2.181
322.00,2.608
323.00,3.049
324.00,3.547
325.00,4.040
326.00,4.564
327.00,5.155
328.00,5.772
329.00,6.372
330.00,6.986
331.00,7.692
332.00,8.358
333.00,9.074
334.00,9.726
335.00,10.449
336.00,11.109
337.00,11.814
338.00,12.483
339.00,13.094
340.00,13.726
341.00,14.360
342.00,14.945
343.00,15.542
344.00,16.068
345.00,16.592
346.00,17.068
347.00,17.528
348.00,17.981
349.00,18.417
350.00,18.778
351.00,19.156
352.00,19.528
353.00,19.856
354.00,20.197
355.00,20.463
356.00,20.727
357.00,20.993
358.00,21.221
359.00,21.464
360.00,21.640
361.00,21.779
362.00,21.990
363.00,22.167
364.00,22.294
365.00,22.445
366.00,22.546
367.00,22.604
368.00,22.691
369.00,22.754
370.00,22.828
371.00,22.862
372.00,22.902
373.00,22.879
374.00,22.862
375.00,22.868
376.00,22.846
377.00,22.779
378.00,22.749
379.00,22.737
380.00,22.698
381.00,22.676
382.00,22.724
383.00,22.709
384.00,22.777
385.00,22.793
386.00,22.800
387.00,22.855
388.00,22.890
389.00,22.943
390.00,22.956
391.00,22.978
392.00,23.029
393.00,23.004
394.00,23.046
395.00,23.067
396.00,23.081
397.00,23.117
398.00,23.096
399.00,23.108
400.00,23.112
401.00,23.101
402.00,23.115
403.00,23.066
404.00,23.082
405.00,23.099
406.00,23.110
407.00,23.072
408.00,23.042
409.00,23.012
410.00,22.943
411.00,22.957
412.00,22.913
413.00,22.989
414.00,22.965
415.00,22.957
416.00,23.009
417.00,22.985
418.00,23.018
419.00,23.000
420.00,23.039
421.00,23.115
422.00,23.166
423.00,23.213
424.00,23.224
425.00,23.236
426.00,23.278
427.00,23.320
428.00,23.380
429.00,23.383
430.00,23.415
431.00,23.480
432.00,23.510
433.00,23.571
434.00,23.598
435.00,23.693
436.00,23.764
437.00,23.792
438.00,23.865
439.00,23.925
440.00,23.998
441.00,24.095
442.00,24.129
443.00,24.220
444.00,24.317
445.00,24.389
446.00,24.505
447.00,24.582
448.00,24.664
449.00,24.768
450.00,24.871
451.00,24.955
452.00,25.096
453.00,25.148
454.00,25.253
455.00,25.359
456.00,25.396
457.00,25.611
458.00,25.660
459.00,25.797
460.00,25.925
461.00,26.045
462.00,26.143
463.00,26.236
464.00,26.365
465.00,26.461
466.00,26.595
467.00,26.741
468.00,26.860
469.00,27.009
470.00,27.042
471.00,27.092
472.00,27.275
473.00,27.362
474.00,27.475
475.00,27.601
476.00,27.705
477.00,27.814
478.00,27.942
479.00,28.081
480.00,28.211
481.00,28.367
482.00,28.519
483.00,28.652
484.00,28.804
485.00,28.981
486.00,29.117
487.00,29.198
488.00,29.338
489.00,29.515
490.00,29.625
491.00,29.764
492.00,29.943
493.00,30.046
494.00,30.045
495.00,30.213
496.00,30.302
497.00,30.460
498.00,30.424
499.00,30.764
500.00,30.847
501.00,30.985
502.00,31.143
503.00,31.241
504.00,31.344
505.00,31.479
506.00,31.581
507.00,31.685
508.00,31.791
509.00,31.947
510.00,32.044
511.00,32.147
512.00,32.271
513.00,32.308
514.00,32.599
515.00,32.687
516.00,32.756
517.00,32.924
518.00,33.033
519.00,33.096
520.00,33.213
521.00,33.272
522.00,33.319
523.00,33.460
524.00,33.502
525.00,33.580
526.00,33.711
527.00,33.786
528.00,33.886
529.00,33.951
530.00,34.046
531.00,34.221
532.00,34.271
533.00,34.384
534.00,34.454
535.00,34.598
536.00,34.663
537.00,34.735
538.00,34.829
539.00,34.882
540.00,34.969
541.00,35.038
542.00,35.128
543.00,35.217
544.00,35.289
545.00,35.347
546.00,35.365
547.00,35.514
548.00,35.542
549.00,35.587
550.00,35.728
551.00,35.800
552.00,35.864
553.00,35.946
554.00,36.068
555.00,36.130
556.00,36.181
557.00,36.238
558.00,36.278
559.00,36.325
560.00,36.420
561.00,36.483
562.00,36.518
563.00,36.580
564.00,36.600
565.00,36.629
566.00,36.655
567.00,36.734
568.00,36.742
569.00,36.834
570.00,36.839
571.00,36.929
572.00,36.985
573.00,36.957
574.00,37.055
575.00,37.087
576.00,37.085
577.00,37.200
578.00,37.236
579.00,37.257
580.00,37.376
581.00,37.464
582.00,37.548
583.00,37.590
584.00,37.690
585.00,37.747
586.00,37.798
587.00,37.900
588.00,37.943
589.00,37.951
590.00,38.039
591.00,38.052
592.00,38.032
593.00,38.119
594.00,38.170
595.00,38.233
596.00,38.208
597.00,38.315
598.00,38.436
599.00,38.396
600.00,38.494
601.00,38.535
602.00,38.591
603.00,38.625
604.00,38.690
605.00,38.745
606.00,38.820
607.00,38.801
608.00,38.918
609.00,38.829
610.00,38.934
611.00,38.929
612.00,39.005
613.00,38.966
614.00,39.021
615.00,39.148
616.00,39.254
617.00,39.291
618.00,39.378
619.00,39.434
620.00,39.465
621.00,39.508
622.00,39.538
623.00,39.643
624.00,39.662
625.00,39.702
626.00,39.821
627.00,39.873
628.00,39.967
629.00,39.989
630.00,39.995
631.00,40.069
632.00,40.094
633.00,40.210
634.00,40.296
635.00,40.367
636.00,40.449
637.00,40.513
638.00,40.589
639.00,40.597
640.00,40.679
641.00,40.752
642.00,40.764
643.00,40.841
644.00,40.931
645.00,40.971
646.00,41.153
647.00,41.190
648.00,41.195
649.00,41.354
650.00,41.327
651.00,41.442
652.00,41.525
653.00,41.576
654.00,41.661
655.00,41.718
656.00,41.861
657.00,41.910
658.00,42.046
659.00,42.160
660.00,42.027
661.00,42.310
662.00,42.300
663.00,42.489
664.00,42.556
665.00,42.585
666.00,42.631
667.00,42.786
668.00,42.904
669.00,43.022
670.00,43.043
671.00,43.144
672.00,43.194
673.00,43.266
674.00,43.331
675.00,43.447
676.00,43.560
677.00,43.631
678.00,43.731
679.00,43.713
680.00,43.816
681.00,43.962
682.00,43.954
683.00,44.103
684.00,44.252
685.00,44.252
686.00,44.290
687.00,44.320
688.00,44.451
689.00,44.527
690.00,44.564
691.00,44.744
692.00,44.747
693.00,44.660
694.00,44.789
695.00,45.119
696.00,45.105
697.00,45.209
698.00,45.282
699.00,45.399
700.00,45.499
701.00,45.609
702.00,45.618
703.00,45.649
704.00,45.812
705.00,45.833
706.00,45.956
707.00,45.892
708.00,45.900
709.00,46.171
710.00,46.253
711.00,46.158
712.00,46.250
713.00,46.317
714.00,46.299
715.00,46.418
716.00,46.549
717.00,46.594
718.00,46.631
719.00,46.733
720.00,46.734
721.00,50.738
722.00,50.757
723.00,50.788
724.00,50.795
725.00,50.862
726.00,50.907
727.00,50.854
728.00,50.908
729.00,50.913
730.00,50.966
731.00,50.917
732.00,50.991
733.00,51.038
734.00,51.019
735.00,51.055
736.00,51.028
737.00,51.144
738.00,51.185
739.00,51.179
740.00,51.284
741.00,51.245
742.00,51.258
743.00,51.277
744.00,51.300
745.00,51.227
746.00,51.214
747.00,51.250
748.00,51.186
749.00,51.224
750.00,51.230
751.00,51.216
752.00,51.305
753.00,51.288
754.00,51.239
755.00,51.176
756.00,51.251
757.00,51.245
758.00,51.351
759.00,51.307
760.00,51.278
761.00,51.343
762.00,51.295
763.00,51.263
764.00,51.411
765.00,51.382
766.00,51.341
767.00,51.388
768.00,51.376
769.00,51.387
770.00,51.450
771.00,51.378
772.00,51.386
773.00,51.531
774.00,51.403
775.00,51.441
776.00,51.440
777.00,51.495
778.00,51.432
779.00,51.513
780.00,51.500
781.00,51.476
782.00,51.438
783.00,51.426
784.00,51.525
785.00,51.359
786.00,51.438
787.00,51.431
788.00,51.472
789.00,51.417
790.00,51.397
791.00,51.359
792.00,51.348
793.00,51.367
794.00,51.327
795.00,51.353
796.00,51.330
797.00,51.278
798.00,51.279
799.00,51.244
800.00,51.359
801.00,51.296
802.00,51.310
803.00,51.274
804.00,51.249
805.00,51.270
806.00,51.163
807.00,51.192
808.00,51.202
809.00,51.179
810.00,51.123
811.00,51.135
812.00,51.104
813.00,51.103
814.00,51.164
815.00,51.109
816.00,51.125
817.00,51.014
818.00,50.915
819.00,50.977
820.00,50.981
821.00,50.958
822.00,51.013
823.00,50.977
824.00,51.002
825.00,50.862
826.00,50.951
827.00,50.952
828.00,50.967
829.00,50.925
830.00,50.972
831.00,53.443
832.00,53.426
833.00,53.389
834.00,53.382
835.00,53.343
836.00,53.343
837.00,53.306
838.00,53.298
839.00,53.292
840.00,53.231
841.00,53.246
842.00,53.183
843.00,53.187
844.00,53.180
845.00,53.138
846.00,53.158
847.00,53.160
848.00,53.080
849.00,53.035
850.00,53.018
851.00,52.983
852.00,52.993
853.00,52.920
854.00,52.866
855.00,52.918
856.00,52.881
857.00,52.806
858.00,52.790
859.00,52.770
860.00,52.800
861.00,52.743
862.00,52.687
863.00,52.711
864.00,52.730
865.00,52.704
866.00,52.677
867.00,52.702
868.00,52.658
869.00,52.612
870.00,52.732
871.00,52.629
872.00,52.615
873.00,52.561
874.00,52.576
875.00,52.577
876.00,52.569
877.00,52.550
878.00,52.543
879.00,52.513
880.00,52.512
881.00,52.478
882.00,52.485
883.00,52.475
884.00,52.400
885.00,52.496
886.00,52.401
887.00,52.382
888.00,52.363
889.00,52.346
890.00,52.328
891.00,52.290
892.00,52.288
893.00,52.242
894.00,52.265
895.00,52.206
896.00,52.185
897.00,52.177
898.00,52.205
899.00,52.036
900.00,52.171
901.00,52.116
902.00,52.134
903.00,52.106
904.00,52.087
905.00,52.061
906.00,52.048
907.00,52.024
908.00,51.997
909.00,51.988
910.00,51.941
911.00,51.935
912.00,51.955
913.00,51.897
914.00,51.872
915.00,51.869
916.00,51.833
917.00,51.800
918.00,51.804
919.00,51.788
920.00,51.752
921.00,51.754
922.00,51.725
923.00,51.747
924.00,51.664
925.00,51.653
926.00,51.680
927.00,51.675
928.00,51.640
929.00,51.620
930.00,51.580
931.00,51.591
932.00,51.547
933.00,51.550
934.00,51.514
935.00,51.509
936.00,51.473
937.00,51.464
938.00,51.487
939.00,51.433
940.00,51.414
941.00,51.431
942.00,51.363
943.00,51.373
944.00,51.311
945.00,51.312
946.00,51.311
947.00,51.321
948.00,51.250
949.00,51.226
950.00,51.201
951.00,51.197
952.00,51.152
953.00,51.142
954.00,51.124
955.00,51.089
956.00,51.098
957.00,51.025
958.00,51.045
959.00,51.000
960.00,50.988
961.00,50.959
962.00,50.979
963.00,50.932
964.00,50.914
965.00,50.904
966.00,50.892
967.00,50.896
968.00,50.872
969.00,50.891
970.00,50.872
971.00,50.892
972.00,50.855
973.00,50.884
974.00,50.903
975.00,50.863
976.00,50.893
977.00,50.862
978.00,50.894
979.00,50.848
980.00,50.876
981.00,50.873
982.00,50.843
983.00,50.838
984.00,50.844
985.00,50.860
986.00,50.831
987.00,50.848
988.00,50.877
989.00,50.808
990.00,50.808
991.00,50.778
992.00,50.790
993.00,50.756
994.00,50.731
995.00,50.734
996.00,50.720
997.00,50.719
998.00,50.694
999.00,50.708
1000.00,50.659
1001.00,50.667
1002.00,50.643
1003.00,50.642
1004.00,50.625
1005.00,50.601
1006.00,50.623
1007.00,50.590
1008.00,50.577
1009.00,50.563
1010.00,50.542
1011.00,50.530
1012.00,50.499
1013.00,50.518
1014.00,50.477
1015.00,50.479
1016.00,50.438
1017.00,50.461
1018.00,50.428
1019.00,50.401
1020.00,50.389
1021.00,50.373
1022.00,50.371
1023.00,50.321
1024.00,50.325
1025.00,50.318
1026.00,50.307
1027.00,50.289
1028.00,50.284
1029.00,50.265
1030.00,50.234
1031.00,50.256
1032.00,50.199
1033.00,50.200
1034.00,50.173
1035.00,50.137
1036.00,50.124
1037.00,50.105
1038.00,50.085
1039.00,50.046
1040.00,50.052
1041.00,50.021
1042.00,50.028
1043.00,49.989
1044.00,50.020
1045.00,50.009
1046.00,49.995
1047.00,50.008
1048.00,50.015
1049.00,50.032
1050.00,50.037
1051.00,50.044
1052.00,50.054
1053.00,50.069
1054.00,50.057
1055.00,50.077
1056.00,50.092
1057.00,50.088
1058.00,50.084
1059.00,50.063
1060.00,50.063
1061.00,50.075
1062.00,50.044
1063.00,50.056
1064.00,50.061
1065.00,50.068
1066.00,50.034
1067.00,50.020
1068.00,50.022
1069.00,49.994
1070.00,49.988
1071.00,49.958
1072.00,49.982
1073.00,49.950
1074.00,49.947
1075.00,49.943
1076.00,49.929
1077.00,49.918
1078.00,49.909
1079.00,49.882
1080.00,49.900
1081.00,49.870
1082.00,49.867
1083.00,49.867
1084.00,49.859
1085.00,49.849
1086.00,49.849
1087.00,49.846
1088.00,49.827
1089.00,49.817
1090.00,49.807
1091.00,49.808
1092.00,49.806
1093.00,49.768
1094.00,49.753
1095.00,49.748
1096.00,49.757
1097.00,49.734
1098.00,49.725
1099.00,49.722
1100.00,49.703
1101.00,49.675
1102.00,49.693
1103.00,49.678
1104.00,49.660
1105.00,49.659
1106.00,49.660
1107.00,49.640
1108.00,49.640
1109.00,49.618
1110.00,49.629
1111.00,49.614
1112.00,49.595
1113.00,49.601
1114.00,49.590
1115.00,49.582
1116.00,49.582
1117.00,49.566
1118.00,49.564
1119.00,49.563
1120.00,49.553
1121.00,49.546
1122.00,49.534
1123.00,49.521
1124.00,49.525
1125.00,49.489
1126.00,49.493
1127.00,49.493
1128.00,49.472
1129.00,49.454
1130.00,49.458
1131.00,49.445
1132.00,49.448
1133.00,49.445
1134.00,49.429
1135.00,49.414
1136.00,49.419
1137.00,49.408
1138.00,49.417
1139.00,49.411
1140.00,49.405
1141.00,49.412
1142.00,49.384
1143.00,49.396
1144.00,49.378
1145.00,49.367
1146.00,49.387
1147.00,49.370
1148.00,49.359
1149.00,49.368
1150.00,49.368
1151.00,49.371
1152.00,49.350
1153.00,49.346
1154.00,49.334
1155.00,49.337
1156.00,49.318
1157.00,49.338
1158.00,49.322
1159.00,49.311
1160.00,49.322
1161.00,49.323
1162.00,49.307
1163.00,49.313
1164.00,49.306
1165.00,49.302
1166.00,49.307
1167.00,49.290
1168.00,49.304
1169.00,49.290
1170.00,49.291
1171.00,49.265
1172.00,49.275
1173.00,49.270
1174.00,49.282
1175.00,49.269
1176.00,49.271
1177.00,49.265
1178.00,49.255
1179.00,49.284
1180.00,49.267
1181.00,49.274
1182.00,49.276
1183.00,49.262
1184.00,49.255
1185.00,49.258
1186.00,49.229
1187.00,49.247
1188.00,49.239
1189.00,49.233
1190.00,49.239
1191.00,49.235
1192.00,49.241
1193.00,49.239
1194.00,49.248
1195.00,49.221
1196.00,49.244
1197.00,49.237
1198.00,49.230
1199.00,49.224
1200.00,49.207
1201.00,49.230
1202.00,49.225
1203.00,49.209
1204.00,49.206
1205.00,49.219
1206.00,49.208
1207.00,49.224
1208.00,49.206
1209.00,49.204
1210.00,49.216
1211.00,49.205
1212.00,49.220
1213.00,49.193
1214.00,49.204
1215.00,49.212
1216.00,49.200
1217.00,49.195
1218.00,49.188
1219.00,49.192
1220.00,49.173
1221.00,49.195
1222.00,49.171
1223.00,49.211
1224.00,49.195
1225.00,49.181
1226.00,49.208
1227.00,49.184
1228.00,49.203
1229.00,49.206
1230.00,49.236
1231.00,49.223
1232.00,49.235
1233.00,49.224
1234.00,49.236
1235.00,49.234
1236.00,49.227
1237.00,49.239
1238.00,49.233
1239.00,49.236
1240.00,49.233
1241.00,49.230
1242.00,49.230
1243.00,49.262
1244.00,49.227
1245.00,49.255
1246.00,49.263
1247.00,49.256
1248.00,49.266
1249.00,49.256
1250.00,49.266
1251.00,49.262
1252.00,49.270
1253.00,49.266
1254.00,49.288
1255.00,49.269
1256.00,49.260
1257.00,49.245
1258.00,49.286
1259.00,49.281
1260.00,49.294
1261.00,49.307
1262.00,49.301
1263.00,49.299
1264.00,49.296
1265.00,49.299
1266.00,49.294
1267.00,49.307
1268.00,49.314
1269.00,49.289
1270.00,49.318
1271.00,49.316
1272.00,49.329
1273.00,49.338
1274.00,49.332
1275.00,49.343
1276.00,49.337
1277.00,49.321
1278.00,49.361
1279.00,49.352
1280.00,49.344
1281.00,49.359
1282.00,49.379
1283.00,49.355
1284.00,49.363
1285.00,49.340
1286.00,49.364
1287.00,49.359
1288.00,49.363
1289.00,49.381
1290.00,49.375
1291.00,49.391
1292.00,49.396
1293.00,49.395
1294.00,49.420
1295.00,49.411
1296.00,49.406
1297.00,49.422
1298.00,49.438
1299.00,49.412
1300.00,49.435
1301.00,49.435
1302.00,49.429
1303.00,49.454
1304.00,49.434
1305.00,49.444
1306.00,49.452
1307.00,49.466
1308.00,49.467
1309.00,49.470
1310.00,49.461
1311.00,49.474
1312.00,49.465
1313.00,49.452
1314.00,49.485
1315.00,49.490
1316.00,49.479
1317.00,49.504
1318.00,49.493
1319.00,49.507
1320.00,49.530
1321.00,49.678
1322.00,49.705
1323.00,49.683
1324.00,49.684
1325.00,49.671
1326.00,49.700
1327.00,49.689
1328.00,49.690
1329.00,49.676
1330.00,49.703
1331.00,49.691
1332.00,49.684
1333.00,49.701
1334.00,49.729
1335.00,49.728
1336.00,49.767
1337.00,49.775
1338.00,49.844
1339.00,49.894
1340.00,49.940
1341.00,50.018
1342.00,50.084
1343.00,50.116
1344.00,50.180
1345.00,50.239
1346.00,50.272
1347.00,50.301
1348.00,50.315
1349.00,50.337
1350.00,50.342
1351.00,50.358
1352.00,50.389
1353.00,50.165
1354.00,50.376
1355.00,50.321
1356.00,50.379
1357.00,50.393
1358.00,50.415
1359.00,50.428
1360.00,50.416
1361.00,50.370
1362.00,50.392
1363.00,50.470
1364.00,50.414
1365.00,50.399
1366.00,50.435
1367.00,50.341
1368.00,50.327
1369.00,50.431
1370.00,50.369
1371.00,50.341
1372.00,50.366
1373.00,50.366
1374.00,50.406
1375.00,50.374
1376.00,50.364
1377.00,50.351
1378.00,50.388
1379.00,50.366
1380.00,50.393
1381.00,50.340
1382.00,50.323
1383.00,50.342
1384.00,50.306
1385.00,50.335
1386.00,50.367
1387.00,50.297
1388.00,50.297
1389.00,50.334
1390.00,50.371
1391.00,50.300
1392.00,50.326
1393.00,50.288
1394.00,50.320
1395.00,50.288
1396.00,50.298
1397.00,50.366
1398.00,50.521
1399.00,50.357
1400.00,50.262
1401.00,50.318
1402.00,50.428
1403.00,50.345
1404.00,50.351
1405.00,50.367
1406.00,50.377
1407.00,50.300
1408.00,50.407
1409.00,50.376
1410.00,50.401
1411.00,50.392
1412.00,50.439
1413.00,50.326
1414.00,50.376
1415.00,50.437
1416.00,50.480
1417.00,50.464
1418.00,50.445
1419.00,50.467
1420.00,50.481
1421.00,50.518
1422.00,50.518
1423.00,50.501
1424.00,50.537
1425.00,50.542
1426.00,50.568
1427.00,50.620
1428.00,50.604
1429.00,50.608
1430.00,50.614
1431.00,50.614
1432.00,50.637
1433.00,50.656
1434.00,50.636
1435.00,50.699
1436.00,50.685
1437.00,50.683
1438.00,50.708
1439.00,50.733
1440.00,50.752
1441.00,50.766
1442.00,50.761
1443.00,50.806
1444.00,50.812
1445.00,50.802
1446.00,50.821
1447.00,50.840
1448.00,50.864
1449.00,50.892
1450.00,50.871
1451.00,50.916
1452.00,50.915
1453.00,50.936
1454.00,50.946
1455.00,50.967
1456.00,50.959
1457.00,50.998
1458.00,50.997
1459.00,51.018
1460.00,51.042
1461.00,51.038
1462.00,51.055
1463.00,51.089
1464.00,51.065
1465.00,51.097
1466.00,51.095
1467.00,51.119
1468.00,51.167
1469.00,51.142
1470.00,51.157
1471.00,51.180
1472.00,51.176
1473.00,51.203
1474.00,51.229
1475.00,51.235
1476.00,51.247
1477.00,51.249
1478.00,51.256
1479.00,51.279
1480.00,51.274
1481.00,51.276
1482.00,51.311
1483.00,51.302
1484.00,51.328
1485.00,51.345
1486.00,51.336
1487.00,51.380
1488.00,51.389
1489.00,51.379
1490.00,51.408
1491.00,51.407
1492.00,51.429
1493.00,51.433
1494.00,51.434
1495.00,51.467
1496.00,51.461
1497.00,51.464
1498.00,51.477
1499.00,51.485
1500.00,51.504
1501.00, 
1502.00, 
1503.00, 
1504.00, 
1505.00, 
1506.00, 
1507.00, 
1508.00, 
1509.00, 
1510.00, 
1511.00, 
1512.00, 
1513.00, 
1514.00, 
1515.00, 
1516.00, 
1517.00, 
1518.00, 
1519.00, 
1520.00, 
1521.00, 
1522.00, 
1523.00, 
1524.00, 
1525.00, 
1526.00, 
1527.00, 
1528.00, 
1529.00, 
1530.00, 
1531.00, 
1532.00, 
1533.00, 
1534.00, 
1535.00, 
1536.00, 
1537.00, 
1538.00, 
1539.00, 
1540.00, 
1541.00, 
1542.00, 
1543.00, 
1544.00, 
1545.00, 
1546.00, 
1547.00, 
1548.00, 
1549.00, 
1550.00, 
1551.00, 
1552.00, 
1553.00, 
1554.00, 
1555.00, 
1556.00, 
1557.00, 
1558.00, 
1559.00, 
1560.00, 
1561.00, 
1562.00, 
1563.00, 
1564.00, 
1565.00, 
1566.00, 
1567.00, 
1568.00, 
1569.00, 
1570.00, 
1571.00, 
1572.00, 
1573.00, 
1574.00, 
1575.00, 
1576.00, 
1577.00, 
1578.00, 
1579.00, 
1580.00, 
1581.00, 
1582.00, 
1583.00, 
1584.00, 
1585.00, 
1586.00, 
1587.00, 
1588.00, 
1589.00, 
1590.00, 
1591.00, 
1592.00, 
1593.00, 
1594.00, 
1595.00, 
1596.00, 
1597.00, 
1598.00, 
1599.00, 
1600.00, 
1601.00, 
1602.00, 
1603.00, 
1604.00, 
1605.00, 
1606.00, 
1607.00, 
1608.00, 
1609.00, 
1610.00, 
1611.00, 
1612.00, 
1613.00, 
1614.00, 
1615.00, 
1616.00, 
1617.00, 
1618.00, 
1619.00, 
1620.00, 
1621.00, 
1622.00, 
1623.00, 
1624.00, 
1625.00, 
1626.00, 
1627.00, 
1628.00, 
1629.00, 
1630.00, 
1631.00, 
1632.00, 
1633.00, 
1634.00, 
1635.00, 
1636.00, 
1637.00, 
1638.00, 
1639.00, 
1640.00, 
1641.00, 
1642.00, 
1643.00, 
1644.00, 
1645.00, 
1646.00, 
1647.00, 
1648.00, 
1649.00, 
1650.00, 
1651.00, 
1652.00, 
1653.00, 
1654.00, 
1655.00, 
1656.00, 
1657.00, 
1658.00, 
1659.00, 
1660.00, 
1661.00, 
1662.00, 
1663.00, 
1664.00, 
1665.00, 
1666.00, 
1667.00, 
1668.00, 
1669.00, 
1670.00, 
1671.00, 
1672.00, 
1673.00, 
1674.00, 
1675.00, 
1676.00, 
1677.00, 
1678.00, 
1679.00, 
1680.00, 
1681.00, 
1682.00, 
1683.00, 
1684.00, 
1685.00, 
1686.00, 
1687.00, 
1688.00, 
1689.00, 
1690.00, 
1691.00, 
1692.00, 
1693.00, 
1694.00, 
1695.00, 
1696.00, 
1697.00, 
1698.00, 
1699.00, 
1700.00, 
1701.00, 
1702.00, 
1703.00, 
1704.00, 
1705.00, 
1706.00, 
1707.00, 
1708.00, 
1709.00, 
1710.00, 
1711.00, 
1712.00, 
1713.00, 
1714.00, 
1715.00, 
1716.00, 
1717.00, 
1718.00, 
1719.00, 
1720.00, 
1721.00, 
1722.00, 
1723.00, 
1724.00, 
1725.00, 
1726.00, 
1727.00, 
1728.00, 
1729.00, 
1730.00, 
1731.00, 
1732.00, 
1733.00, 
1734.00, 
1735.00, 
1736.00, 
1737.00, 
1738.00, 
1739.00, 
1740.00, 
1741.00, 
1742.00, 
1743.00, 
1744.00, 
1745.00, 
1746.00, 
1747.00, 
1748.00, 
1749.00, 
1750.00, 
1751.00, 
1752.00, 
1753.00, 
1754.00, 
1755.00, 
1756.00, 
1757.00, 
1758.00, 
1759.00, 
1760.00, 
1761.00, 
1762.00, 
1763.00, 
1764.00, 
1765.00, 
1766.00, 
1767.00, 
1768.00, 
1769.00, 
1770.00, 
1771.00, 
1772.00, 
1773.00, 
1774.00, 
1775.00, 
1776.00, 
1777.00, 
1778.00, 
1779.00, 
1780.00, 
1781.00, 
1782.00, 
1783.00, 
1784.00, 
1785.00, 
1786.00, 
1787.00, 
1788.00, 
1789.00, 
1790.00, 
1791.00, 
1792.00, 
1793.00, 
1794.00, 
1795.00, 
1796.00, 
1797.00, 
1798.00, 
1799.00, 
1800.00, 
1801.00, 
1802.00, 
1803.00, 
1804.00, 
1805.00, 
1806.00, 
1807.00, 
1808.00, 
1809.00, 
1810.00, 
1811.00, 
1812.00, 
1813.00, 
1814.00, 
1815.00, 
1816.00, 
1817.00, 
1818.00, 
1819.00, 
1820.00, 
1821.00, 
1822.00, 
1823.00, 
1824.00, 
1825.00, 
1826.00, 
1827.00, 
1828.00, 
1829.00, 
1830.00, 
1831.00, 
1832.00, 
1833.00, 
1834.00, 
1835.00, 
1836.00, 
1837.00, 
1838.00, 
1839.00, 
1840.00, 
1841.00, 
1842.00, 
1843.00, 
1844.00, 
1845.00, 
1846.00, 
1847.00, 
1848.00, 
1849.00, 
1850.00, 
1851.00, 
1852.00, 
1853.00, 
1854.00, 
1855.00, 
1856.00, 
1857.00, 
1858.00, 
1859.00, 
1860.00, 
1861.00, 
1862.00, 
1863.00, 
1864.00, 
1865.00, 
1866.00, 
1867.00, 
1868.00, 
1869.00, 
1870.00, 
1871.00, 
1872.00, 
1873.00, 
1874.00, 
1875.00, 
1876.00, 
1877.00, 
1878.00, 
1879.00, 
1880.00, 
1881.00, 
1882.00, 
1883.00, 
1884.00, 
1885.00, 
1886.00, 
1887.00, 
1888.00, 
1889.00, 
1890.00, 
1891.00, 
1892.00, 
1893.00, 
1894.00, 
1895.00, 
1896.00, 
1897.00, 
1898.00, 
1899.00, 
1900.00, 
1901.00, 
1902.00, 
1903.00, 
1904.00, 
1905.00, 
1906.00, 
1907.00, 
1908.00, 
1909.00, 
1910.00, 
1911.00, 
1912.00, 
1913.00, 
1914.00, 
1915.00, 
1916.00, 
1917.00, 
1918.00, 
1919.00, 
1920.00, 
1921.00, 
1922.00, 
1923.00, 
1924.00, 
1925.00, 
1926.00, 
1927.00, 
1928.00, 
1929.00, 
1930.00, 
1931.00, 
1932.00, 
1933.00, 
1934.00, 
1935.00, 
1936.00, 
1937.00, 
1938.00, 
1939.00, 
1940.00, 
1941.00, 
1942.00, 
1943.00, 
1944.00, 
1945.00, 
1946.00, 
1947.00, 
1948.00, 
1949.00, 
1950.00, 
1951.00, 
1952.00, 
1953.00, 
1954.00, 
1955.00, 
1956.00, 
1957.00, 
1958.00, 
1959.00, 
1960.00, 
1961.00, 
1962.00, 
1963.00, 
1964.00, 
1965.00, 
1966.00, 
1967.00, 
1968.00, 
1969.00, 
1970.00, 
1971.00, 
1972.00, 
1973.00, 
1974.00, 
1975.00, 
1976.00, 
1977.00, 
1978.00, 
1979.00, 
1980.00, 
1981.00, 
1982.00, 
1983.00, 
1984.00, 
1985.00, 
1986.00, 
1987.00, 
1988.00, 
1989.00, 
1990.00, 
1991.00, 
1992.00, 
1993.00, 
1994.00, 
1995.00, 
1996.00, 
1997.00, 
1998.00, 
1999.00, 
2000.00, 
2001.00, 
2002.00, 
2003.00, 
2004.00, 
2005.00, 
2006.00, 
2007.00, 
2008.00, 
2009.00, 
2010.00, 
2011.00, 
2012.00, 
2013.00, 
2014.00, 
2015.00, 
2016.00, 
2017.00, 
2018.00, 
2019.00, 
2020.00, 
2021.00, 
2022.00, 
2023.00, 
2024.00, 
2025.00, 
2026.00, 
2027.00, 
2028.00, 
2029.00, 
2030.00, 
2031.00, 
2032.00, 
2033.00, 
2034.00, 
2035.00, 
2036.00, 
2037.00, 
2038.00, 
2039.00, 
2040.00, 
2041.00, 
2042.00, 
2043.00, 
2044.00, 
2045.00, 
2046.00, 
2047.00, 
2048.00, 
2049.00, 
2050.00, 
2051.00, 
2052.00, 
2053.00, 
2054.00, 
2055.00, 
2056.00, 
2057.00, 
2058.00, 
2059.00, 
2060.00, 
2061.00, 
2062.00, 
2063.00, 
2064.00, 
2065.00, 
2066.00, 
2067.00, 
2068.00, 
2069.00, 
2070.00, 
2071.00, 
2072.00, 
2073.00, 
2074.00, 
2075.00, 
2076.00, 
2077.00, 
2078.00, 
2079.00, 
2080.00, 
2081.00, 
2082.00, 
2083.00, 
2084.00, 
2085.00, 
2086.00, 
2087.00, 
2088.00, 
2089.00, 
2090.00, 
2091.00, 
2092.00, 
2093.00, 
2094.00, 
2095.00, 
2096.00, 
2097.00, 
2098.00, 
2099.00, 
2100.00, 
2101.00, 
2102.00, 
2103.00, 
2104.00, 
2105.00, 
2106.00, 
2107.00, 
2108.00, 
2109.00, 
2110.00, 
2111.00, 
2112.00, 
2113.00, 
2114.00, 
2115.00, 
2116.00, 
2117.00, 
2118.00, 
2119.00, 
2120.00, 
2121.00, 
2122.00, 
2123.00, 
2124.00, 
2125.00, 
2126.00, 
2127.00, 
2128.00, 
2129.00, 
2130.00, 
2131.00, 
2132.00, 
2133.00, 
2134.00, 
2135.00, 
2136.00, 
2137.00, 
2138.00, 
2139.00, 
2140.00, 
2141.00, 
2142.00, 
2143.00, 
2144.00, 
2145.00, 
2146.00, 
2147.00, 
2148.00, 
2149.00, 
2150.00, 
2151.00, 
2152.00, 
2153.00, 
2154.00, 
2155.00, 
2156.00, 
2157.00, 
2158.00, 
2159.00, 
2160.00, 
2161.00, 
2162.00, 
2163.00, 
2164.00, 
2165.00, 
2166.00, 
2167.00, 
2168.00, 
2169.00, 
2170.00, 
2171.00, 
2172.00, 
2173.00, 
2174.00, 
2175.00, 
2176.00, 
2177.00, 
2178.00, 
2179.00, 
2180.00, 
2181.00, 
2182.00, 
2183.00, 
2184.00, 
2185.00, 
2186.00, 
2187.00, 
2188.00, 
2189.00, 
2190.00, 
2191.00, 
2192.00, 
2193.00, 
2194.00, 
2195.00, 
2196.00, 
2197.00, 
2198.00, 
2199.00, 
2200.00, 
2201.00, 
2202.00, 
2203.00, 
2204.00, 
2205.00, 
2206.00, 
2207.00, 
2208.00, 
2209.00, 
2210.00, 
2211.00, 
2212.00, 
2213.00, 
2214.00, 
2215.00, 
2216.00, 
2217.00, 
2218.00, 
2219.00, 
2220.00, 
2221.00, 
2222.00, 
2223.00, 
2224.00, 
2225.00, 
2226.00, 
2227.00, 
2228.00, 
2229.00, 
2230.00, 
2231.00, 
2232.00, 
2233.00, 
2234.00, 
2235.00, 
2236.00, 
2237.00, 
2238.00, 
2239.00, 
2240.00, 
2241.00, 
2242.00, 
2243.00, 
2244.00, 
2245.00, 
2246.00, 
2247.00, 
2248.00, 
2249.00, 
2250.00, 
2251.00, 
2252.00, 
2253.00, 
2254.00, 
2255.00, 
2256.00, 
2257.00, 
2258.00, 
2259.00, 
2260.00, 
2261.00, 
2262.00, 
2263.00, 
2264.00, 
2265.00, 
2266.00, 
2267.00, 
2268.00, 
2269.00, 
2270.00, 
2271.00, 
2272.00, 
2273.00, 
2274.00, 
2275.00, 
2276.00, 
2277.00, 
2278.00, 
2279.00, 
2280.00, 
2281.00, 
2282.00, 
2283.00, 
2284.00, 
2285.00, 
2286.00, 
2287.00, 
2288.00, 
2289.00, 
2290.00, 
2291.00, 
2292.00, 
2293.00, 
2294.00, 
2295.00, 
2296.00, 
2297.00, 
2298.00, 
2299.00, 
2300.00, 
2301.00, 
2302.00, 
2303.00, 
2304.00, 
2305.00, 
2306.00, 
2307.00, 
2308.00, 
2309.00, 
2310.00, 
2311.00, 
2312.00, 
2313.00, 
2314.00, 
2315.00, 
2316.00, 
2317.00, 
2318.00, 
2319.00, 
2320.00, 
2321.00, 
2322.00, 
2323.00, 
2324.00, 
2325.00, 
2326.00, 
2327.00, 
2328.00, 
2329.00, 
2330.00, 
2331.00, 
2332.00, 
2333.00, 
2334.00, 
2335.00, 
2336.00, 
2337.00, 
2338.00, 
2339.00, 
2340.00, 
2341.00, 
2342.00, 
2343.00, 
2344.00, 
2345.00, 
2346.00, 
2347.00, 
2348.00, 
2349.00, 
2350.00, 
2351.00, 
2352.00, 
2353.00, 
2354.00, 
2355.00, 
2356.00, 
2357.00, 
2358.00, 
2359.00, 
2360.00, 
2361.00, 
2362.00, 
2363.00, 
2364.00, 
2365.00, 
2366.00, 
2367.00, 
2368.00, 
2369.00, 
2370.00, 
2371.00, 
2372.00, 
2373.00, 
2374.00, 
2375.00, 
2376.00, 
2377.00, 
2378.00, 
2379.00, 
2380.00, 
2381.00, 
2382.00, 
2383.00, 
2384.00, 
2385.00, 
2386.00, 
2387.00, 
2388.00, 
2389.00, 
2390.00, 
2391.00, 
2392.00, 
2393.00, 
2394.00, 
2395.00, 
2396.00, 
2397.00, 
2398.00, 
2399.00, 
2400.00, 
2401.00, 
2402.00, 
2403.00, 
2404.00, 
2405.00, 
2406.00, 
2407.00, 
2408.00, 
2409.00, 
2410.00, 
2411.00, 
2412.00, 
2413.00, 
2414.00, 
2415.00, 
2416.00, 
2417.00, 
2418.00, 
2419.00, 
2420.00, 
2421.00, 
2422.00, 
2423.00, 
2424.00, 
2425.00, 
2426.00, 
2427.00, 
2428.00, 
2429.00, 
2430.00, 
2431.00, 
2432.00, 
2433.00, 
2434.00, 
2435.00, 
2436.00, 
2437.00, 
2438.00, 
2439.00, 
2440.00, 
2441.00, 
2442.00, 
2443.00, 
2444.00, 
2445.00, 
2446.00, 
2447.00, 
2448.00, 
2449.00, 
2450.00, 
2451.00, 
2452.00, 
2453.00, 
2454.00, 
2455.00, 
2456.00, 
2457.00, 
2458.00, 
2459.00, 
2460.00, 
2461.00, 
2462.00, 
2463.00, 
2464.00, 
2465.00, 
2466.00, 
2467.00, 
2468.00, 
2469.00, 
2470.00, 
2471.00, 
2472.00, 
2473.00, 
2474.00, 
2475.00, 
2476.00, 
2477.00, 
2478.00, 
2479.00, 
2480.00, 
2481.00, 
2482.00, 
2483.00, 
2484.00, 
2485.00, 
2486.00, 
2487.00, 
2488.00, 
2489.00, 
2490.00, 
2491.00, 
2492.00, 
2493.00, 
2494.00, 
2495.00, 
2496.00, 
2497.00, 
2498.00, 
2499.00, 
2500.00, 
2501.00, 
2502.00, 
2503.00, 
2504.00, 
2505.00, 
2506.00, 
2507.00, 
2508.00, 
2509.00, 
2510.00, 
2511.00, 
2512.00, 
2513.00, 
2514.00, 
2515.00, 
2516.00, 
2517.00, 
2518.00, 
2519.00, 
2520.00, 
2521.00, 
2522.00, 
2523.00, 
2524.00, 
2525.00, 
2526.00, 
2527.00, 
2528.00, 
2529.00, 
2530.00, 
2531.00, 
2532.00, 
2533.00, 
2534.00, 
2535.00, 
2536.00, 
2537.00, 
2538.00, 
2539.00, 
2540.00, 
2541.00, 
2542.00, 
2543.00, 
2544.00, 
2545.00, 
2546.00, 
2547.00, 
2548.00, 
2549.00, 
2550.00, 
2551.00, 
2552.00, 
2553.00, 
2554.00, 
2555.00, 
2556.00, 
2557.00, 
2558.00, 
2559.00, 
2560.00, 
2561.00, 
2562.00, 
2563.00, 
2564.00, 
2565.00, 
2566.00, 
2567.00, 
2568.00, 
2569.00, 
2570.00, 
2571.00, 
2572.00, 
2573.00, 
2574.00, 
2575.00, 
2576.00, 
2577.00, 
2578.00, 
2579.00, 
2580.00, 
2581.00, 
2582.00, 
2583.00, 
2584.00, 
2585.00, 
2586.00, 
2587.00, 
2588.00, 
2589.00, 
2590.00, 
2591.00, 
2592.00, 
2593.00, 
2594.00, 
2595.00, 
2596.00, 
2597.00, 
2598.00, 
2599.00, 
2600.00, 
