"1cP3 - RawData"
"Wavelength nm.","T%"
200.00,0.002
201.00,-0.001
202.00,0.001
203.00,0.001
204.00,0.001
205.00,0.001
206.00,-0.002
207.00,0.003
208.00,0.002
209.00,0.002
210.00,0.001
211.00,0.000
212.00,0.003
213.00,0.003
214.00,-0.001
215.00,0.000
216.00,-0.002
217.00,0.002
218.00,-0.000
219.00,0.001
220.00,0.001
221.00,0.000
222.00,0.002
223.00,0.003
224.00,0.001
225.00,-0.001
226.00,-0.001
227.00,0.002
228.00,0.001
229.00,0.001
230.00,0.001
231.00,0.001
232.00,-0.001
233.00,-0.001
234.00,0.001
235.00,0.000
236.00,0.001
237.00,-0.000
238.00,0.001
239.00,0.000
240.00,0.001
241.00,0.000
242.00,0.002
243.00,-0.001
244.00,0.001
245.00,0.001
246.00,0.001
247.00,-0.000
248.00,0.002
249.00,0.001
250.00,0.000
251.00,-0.000
252.00,0.001
253.00,-0.002
254.00,0.000
255.00,-0.000
256.00,0.001
257.00,-0.000
258.00,-0.000
259.00,0.000
260.00,0.000
261.00,0.001
262.00,0.000
263.00,0.000
264.00,0.001
265.00,0.000
266.00,0.001
267.00,0.000
268.00,0.001
269.00,0.001
270.00,0.001
271.00,-0.001
272.00,-0.000
273.00,0.001
274.00,0.001
275.00,-0.001
276.00,0.000
277.00,0.001
278.00,-0.001
279.00,0.000
280.00,0.001
281.00,-0.000
282.00,0.001
283.00,-0.001
284.00,-0.001
285.00,-0.000
286.00,0.001
287.00,0.001
288.00,0.001
289.00,0.001
290.00,0.000
291.00,0.000
292.00,0.001
293.00,0.001
294.00,-0.001
295.00,0.000
296.00,0.001
297.00,0.002
298.00,0.002
299.00,0.001
300.00,0.000
301.00,-0.002
302.00,0.002
303.00,-0.001
304.00,0.002
305.00,0.002
306.00,0.001
307.00,0.004
308.00,0.010
309.00,0.017
310.00,0.025
311.00,0.041
312.00,0.057
313.00,0.096
314.00,0.130
315.00,0.205
316.00,0.299
317.00,0.426
318.00,0.587
319.00,0.814
320.00,1.071
321.00,1.407
322.00,1.760
323.00,2.243
324.00,2.778
325.00,3.397
326.00,3.986
327.00,4.771
328.00,5.621
329.00,6.525
330.00,7.464
331.00,8.427
332.00,9.431
333.00,10.646
334.00,11.719
335.00,12.829
336.00,14.014
337.00,15.326
338.00,16.570
339.00,17.694
340.00,18.905
341.00,19.975
342.00,21.157
343.00,22.252
344.00,23.296
345.00,24.388
346.00,25.273
347.00,26.287
348.00,27.217
349.00,27.969
350.00,28.774
351.00,29.601
352.00,30.319
353.00,31.094
354.00,31.847
355.00,32.232
356.00,32.950
357.00,33.457
358.00,34.039
359.00,34.495
360.00,35.096
361.00,35.364
362.00,35.751
363.00,36.119
364.00,36.404
365.00,36.732
366.00,36.942
367.00,37.316
368.00,37.559
369.00,37.511
370.00,37.807
371.00,38.008
372.00,37.950
373.00,38.131
374.00,38.119
375.00,37.992
376.00,37.974
377.00,38.067
378.00,38.037
379.00,37.910
380.00,37.842
381.00,37.872
382.00,37.949
383.00,38.130
384.00,38.243
385.00,38.444
386.00,38.645
387.00,38.829
388.00,39.026
389.00,39.254
390.00,39.372
391.00,39.518
392.00,39.648
393.00,39.716
394.00,39.863
395.00,39.877
396.00,39.936
397.00,40.101
398.00,40.142
399.00,40.237
400.00,40.302
401.00,40.318
402.00,40.520
403.00,40.503
404.00,40.503
405.00,40.484
406.00,40.471
407.00,40.429
408.00,40.453
409.00,40.303
410.00,40.278
411.00,40.292
412.00,40.213
413.00,40.274
414.00,40.359
415.00,40.295
416.00,40.434
417.00,40.387
418.00,40.401
419.00,40.548
420.00,40.600
421.00,40.311
422.00,40.432
423.00,40.318
424.00,40.511
425.00,40.576
426.00,40.539
427.00,40.657
428.00,40.613
429.00,40.611
430.00,40.608
431.00,40.681
432.00,40.723
433.00,40.678
434.00,40.796
435.00,40.816
436.00,40.784
437.00,40.951
438.00,40.965
439.00,40.952
440.00,41.023
441.00,41.211
442.00,41.214
443.00,41.311
444.00,41.275
445.00,41.419
446.00,41.415
447.00,41.522
448.00,41.560
449.00,41.575
450.00,41.785
451.00,41.776
452.00,41.779
453.00,41.796
454.00,41.982
455.00,42.049
456.00,42.145
457.00,42.222
458.00,42.281
459.00,42.360
460.00,42.574
461.00,42.640
462.00,42.706
463.00,42.798
464.00,42.794
465.00,42.939
466.00,43.114
467.00,43.075
468.00,43.095
469.00,43.260
470.00,43.033
471.00,43.212
472.00,43.211
473.00,43.295
474.00,43.272
475.00,43.388
476.00,43.365
477.00,43.471
478.00,43.526
479.00,43.665
480.00,43.761
481.00,43.815
482.00,43.930
483.00,44.034
484.00,44.220
485.00,44.297
486.00,44.398
487.00,44.485
488.00,44.641
489.00,44.810
490.00,44.945
491.00,44.658
492.00,44.866
493.00,44.935
494.00,44.981
495.00,45.028
496.00,45.105
497.00,45.255
498.00,45.210
499.00,45.307
500.00,45.494
501.00,45.570
502.00,45.591
503.00,45.589
504.00,45.607
505.00,45.797
506.00,45.814
507.00,45.825
508.00,45.917
509.00,46.000
510.00,46.045
511.00,46.124
512.00,46.263
513.00,46.295
514.00,46.358
515.00,46.466
516.00,46.459
517.00,46.500
518.00,46.554
519.00,46.535
520.00,46.607
521.00,46.670
522.00,46.668
523.00,46.834
524.00,46.874
525.00,46.896
526.00,47.129
527.00,47.087
528.00,47.294
529.00,47.315
530.00,47.507
531.00,47.530
532.00,47.482
533.00,47.631
534.00,47.545
535.00,47.687
536.00,47.701
537.00,47.719
538.00,47.771
539.00,47.758
540.00,47.795
541.00,47.877
542.00,47.860
543.00,47.911
544.00,48.022
545.00,48.080
546.00,48.132
547.00,48.040
548.00,48.142
549.00,48.258
550.00,48.349
551.00,48.374
552.00,48.274
553.00,48.323
554.00,48.404
555.00,48.514
556.00,48.482
557.00,48.470
558.00,48.611
559.00,48.652
560.00,48.705
561.00,48.735
562.00,48.751
563.00,48.750
564.00,48.857
565.00,48.771
566.00,48.817
567.00,48.829
568.00,48.852
569.00,48.939
570.00,48.922
571.00,48.874
572.00,48.844
573.00,48.867
574.00,48.812
575.00,48.818
576.00,48.822
577.00,48.920
578.00,48.886
579.00,48.953
580.00,49.133
581.00,49.139
582.00,49.247
583.00,49.337
584.00,49.375
585.00,49.363
586.00,49.455
587.00,49.456
588.00,49.376
589.00,49.440
590.00,49.453
591.00,49.324
592.00,49.548
593.00,49.610
594.00,49.623
595.00,49.769
596.00,49.603
597.00,49.596
598.00,49.870
599.00,49.878
600.00,49.754
601.00,49.764
602.00,49.517
603.00,49.746
604.00,49.791
605.00,49.675
606.00,49.780
607.00,49.968
608.00,49.916
609.00,49.979
610.00,49.947
611.00,49.862
612.00,49.855
613.00,49.897
614.00,49.965
615.00,49.918
616.00,49.766
617.00,49.933
618.00,49.960
619.00,49.838
620.00,49.813
621.00,49.971
622.00,49.920
623.00,50.153
624.00,50.221
625.00,49.989
626.00,49.989
627.00,50.135
628.00,50.326
629.00,50.148
630.00,50.107
631.00,50.149
632.00,50.319
633.00,50.402
634.00,50.298
635.00,50.312
636.00,50.388
637.00,50.336
638.00,50.277
639.00,50.424
640.00,50.316
641.00,50.335
642.00,50.534
643.00,50.429
644.00,50.523
645.00,50.544
646.00,50.700
647.00,50.622
648.00,50.559
649.00,50.672
650.00,50.605
651.00,50.651
652.00,50.689
653.00,50.659
654.00,50.719
655.00,50.977
656.00,51.197
657.00,50.982
658.00,50.765
659.00,50.835
660.00,50.810
661.00,50.732
662.00,50.804
663.00,50.879
664.00,51.074
665.00,50.652
666.00,50.984
667.00,51.017
668.00,51.428
669.00,50.850
670.00,50.904
671.00,51.147
672.00,51.355
673.00,51.023
674.00,51.169
675.00,51.071
676.00,50.956
677.00,51.017
678.00,51.262
679.00,51.516
680.00,51.064
681.00,51.159
682.00,51.318
683.00,51.015
684.00,50.950
685.00,51.101
686.00,51.223
687.00,51.111
688.00,51.231
689.00,51.363
690.00,51.272
691.00,51.490
692.00,51.139
693.00,50.865
694.00,51.080
695.00,51.288
696.00,51.255
697.00,51.173
698.00,51.391
699.00,51.170
700.00,51.220
701.00,51.335
702.00,51.378
703.00,51.327
704.00,51.321
705.00,51.845
706.00,51.093
707.00,51.251
708.00,51.113
709.00,51.102
710.00,51.125
711.00,50.978
712.00,51.282
713.00,51.313
714.00,51.124
715.00,51.298
716.00,51.123
717.00,51.277
718.00,51.118
719.00,51.321
720.00,51.379
721.00,56.463
722.00,56.213
723.00,56.357
724.00,56.256
725.00,56.168
726.00,56.116
727.00,56.111
728.00,55.995
729.00,56.076
730.00,56.089
731.00,55.873
732.00,55.945
733.00,55.855
734.00,55.815
735.00,55.716
736.00,55.751
737.00,55.783
738.00,55.768
739.00,55.700
740.00,55.738
741.00,55.471
742.00,55.642
743.00,55.484
744.00,55.416
745.00,55.464
746.00,55.312
747.00,55.239
748.00,55.283
749.00,55.315
750.00,55.225
751.00,55.229
752.00,55.122
753.00,55.082
754.00,55.012
755.00,55.080
756.00,54.995
757.00,54.815
758.00,54.833
759.00,55.013
760.00,54.819
761.00,54.754
762.00,54.653
763.00,54.697
764.00,54.749
765.00,54.645
766.00,54.594
767.00,54.524
768.00,54.553
769.00,54.379
770.00,54.552
771.00,54.454
772.00,54.482
773.00,54.495
774.00,54.406
775.00,54.559
776.00,54.342
777.00,54.281
778.00,54.137
779.00,54.342
780.00,54.317
781.00,54.149
782.00,54.289
783.00,54.076
784.00,54.046
785.00,54.078
786.00,54.029
787.00,54.011
788.00,53.870
789.00,53.954
790.00,53.928
791.00,53.918
792.00,53.868
793.00,53.869
794.00,53.988
795.00,53.575
796.00,53.710
797.00,53.658
798.00,53.552
799.00,53.524
800.00,53.463
801.00,53.556
802.00,53.370
803.00,53.493
804.00,53.367
805.00,53.329
806.00,53.348
807.00,53.278
808.00,53.231
809.00,53.046
810.00,53.199
811.00,53.103
812.00,53.027
813.00,53.212
814.00,53.037
815.00,53.100
816.00,53.087
817.00,52.932
818.00,52.830
819.00,53.019
820.00,52.874
821.00,52.762
822.00,52.761
823.00,52.751
824.00,52.821
825.00,52.716
826.00,52.800
827.00,52.610
828.00,52.661
829.00,52.827
830.00,52.577
831.00,55.002
832.00,54.936
833.00,54.840
834.00,54.913
835.00,54.954
836.00,54.933
837.00,54.870
838.00,54.824
839.00,54.701
840.00,54.774
841.00,54.617
842.00,54.646
843.00,54.592
844.00,54.642
845.00,54.525
846.00,54.443
847.00,54.410
848.00,54.482
849.00,54.349
850.00,54.311
851.00,54.359
852.00,54.255
853.00,54.294
854.00,54.186
855.00,54.210
856.00,54.117
857.00,54.161
858.00,54.030
859.00,54.061
860.00,53.981
861.00,53.959
862.00,53.957
863.00,53.959
864.00,53.866
865.00,53.933
866.00,53.866
867.00,53.894
868.00,53.845
869.00,53.812
870.00,53.850
871.00,53.842
872.00,53.780
873.00,53.750
874.00,53.758
875.00,53.693
876.00,53.682
877.00,53.710
878.00,53.698
879.00,53.672
880.00,53.578
881.00,53.594
882.00,53.612
883.00,53.571
884.00,53.488
885.00,53.645
886.00,53.442
887.00,53.421
888.00,53.406
889.00,53.404
890.00,53.376
891.00,53.302
892.00,53.364
893.00,53.297
894.00,53.310
895.00,53.236
896.00,53.261
897.00,53.214
898.00,53.114
899.00,53.160
900.00,53.155
901.00,53.157
902.00,53.133
903.00,53.064
904.00,53.024
905.00,53.122
906.00,53.025
907.00,52.986
908.00,53.070
909.00,53.001
910.00,52.953
911.00,52.943
912.00,52.909
913.00,52.850
914.00,52.866
915.00,52.800
916.00,52.791
917.00,52.772
918.00,52.760
919.00,52.735
920.00,52.675
921.00,52.705
922.00,52.704
923.00,52.658
924.00,52.566
925.00,52.666
926.00,52.603
927.00,52.586
928.00,52.556
929.00,52.559
930.00,52.530
931.00,52.512
932.00,52.465
933.00,52.442
934.00,52.425
935.00,52.378
936.00,52.397
937.00,52.381
938.00,52.370
939.00,52.335
940.00,52.423
941.00,52.312
942.00,52.306
943.00,52.215
944.00,52.219
945.00,52.204
946.00,52.206
947.00,52.171
948.00,52.175
949.00,52.161
950.00,52.139
951.00,52.075
952.00,52.060
953.00,52.050
954.00,51.997
955.00,51.957
956.00,51.940
957.00,51.950
958.00,51.941
959.00,51.906
960.00,51.839
961.00,51.867
962.00,51.846
963.00,51.817
964.00,51.796
965.00,51.824
966.00,51.767
967.00,51.754
968.00,51.723
969.00,51.768
970.00,51.753
971.00,51.740
972.00,51.742
973.00,51.701
974.00,51.753
975.00,51.747
976.00,51.715
977.00,51.743
978.00,51.750
979.00,51.695
980.00,51.689
981.00,51.708
982.00,51.677
983.00,51.698
984.00,51.658
985.00,51.654
986.00,51.710
987.00,51.651
988.00,51.644
989.00,51.587
990.00,51.630
991.00,51.622
992.00,51.605
993.00,51.589
994.00,51.565
995.00,51.579
996.00,51.521
997.00,51.540
998.00,51.520
999.00,51.497
1000.00,51.449
1001.00,51.464
1002.00,51.482
1003.00,51.434
1004.00,51.450
1005.00,51.417
1006.00,51.434
1007.00,51.440
1008.00,51.388
1009.00,51.405
1010.00,51.352
1011.00,51.378
1012.00,51.355
1013.00,51.325
1014.00,51.300
1015.00,51.298
1016.00,51.294
1017.00,51.244
1018.00,51.263
1019.00,51.227
1020.00,51.224
1021.00,51.199
1022.00,51.175
1023.00,51.165
1024.00,51.159
1025.00,51.138
1026.00,51.116
1027.00,51.111
1028.00,51.092
1029.00,51.087
1030.00,51.051
1031.00,51.029
1032.00,51.035
1033.00,50.988
1034.00,50.995
1035.00,50.957
1036.00,50.948
1037.00,50.920
1038.00,50.898
1039.00,50.866
1040.00,50.847
1041.00,50.842
1042.00,50.831
1043.00,50.787
1044.00,50.833
1045.00,50.805
1046.00,50.830
1047.00,50.890
1048.00,50.856
1049.00,50.866
1050.00,50.852
1051.00,50.882
1052.00,50.897
1053.00,50.901
1054.00,50.906
1055.00,50.909
1056.00,50.924
1057.00,50.912
1058.00,50.910
1059.00,50.918
1060.00,50.913
1061.00,50.887
1062.00,50.886
1063.00,50.870
1064.00,50.881
1065.00,50.867
1066.00,50.857
1067.00,50.851
1068.00,50.884
1069.00,50.852
1070.00,50.841
1071.00,50.825
1072.00,50.805
1073.00,50.818
1074.00,50.792
1075.00,50.779
1076.00,50.760
1077.00,50.756
1078.00,50.744
1079.00,50.748
1080.00,50.744
1081.00,50.751
1082.00,50.746
1083.00,50.730
1084.00,50.722
1085.00,50.726
1086.00,50.716
1087.00,50.706
1088.00,50.698
1089.00,50.697
1090.00,50.694
1091.00,50.717
1092.00,50.690
1093.00,50.672
1094.00,50.634
1095.00,50.638
1096.00,50.614
1097.00,50.596
1098.00,50.587
1099.00,50.572
1100.00,50.575
1101.00,50.587
1102.00,50.593
1103.00,50.558
1104.00,50.530
1105.00,50.535
1106.00,50.535
1107.00,50.541
1108.00,50.534
1109.00,50.485
1110.00,50.494
1111.00,50.493
1112.00,50.466
1113.00,50.475
1114.00,50.453
1115.00,50.457
1116.00,50.434
1117.00,50.424
1118.00,50.426
1119.00,50.463
1120.00,50.433
1121.00,50.525
1122.00,50.449
1123.00,50.439
1124.00,50.438
1125.00,50.398
1126.00,50.408
1127.00,50.379
1128.00,50.369
1129.00,50.358
1130.00,50.361
1131.00,50.349
1132.00,50.334
1133.00,50.359
1134.00,50.353
1135.00,50.332
1136.00,50.337
1137.00,50.367
1138.00,50.332
1139.00,50.331
1140.00,50.313
1141.00,50.296
1142.00,50.274
1143.00,50.347
1144.00,50.301
1145.00,50.303
1146.00,50.313
1147.00,50.282
1148.00,50.297
1149.00,50.309
1150.00,50.321
1151.00,50.283
1152.00,50.284
1153.00,50.311
1154.00,50.285
1155.00,50.289
1156.00,50.271
1157.00,50.262
1158.00,50.255
1159.00,50.243
1160.00,50.239
1161.00,50.249
1162.00,50.281
1163.00,50.268
1164.00,50.266
1165.00,50.262
1166.00,50.264
1167.00,50.242
1168.00,50.286
1169.00,50.274
1170.00,50.274
1171.00,50.249
1172.00,50.227
1173.00,50.255
1174.00,50.229
1175.00,50.234
1176.00,50.252
1177.00,50.265
1178.00,50.244
1179.00,50.262
1180.00,50.240
1181.00,50.247
1182.00,50.215
1183.00,50.242
1184.00,50.230
1185.00,50.224
1186.00,50.205
1187.00,50.224
1188.00,50.252
1189.00,50.222
1190.00,50.240
1191.00,50.207
1192.00,50.253
1193.00,50.238
1194.00,50.240
1195.00,50.232
1196.00,50.230
1197.00,50.256
1198.00,50.242
1199.00,50.278
1200.00,50.240
1201.00,50.269
1202.00,50.242
1203.00,50.264
1204.00,50.252
1205.00,50.234
1206.00,50.240
1207.00,50.252
1208.00,50.247
1209.00,50.233
1210.00,50.267
1211.00,50.241
1212.00,50.249
1213.00,50.241
1214.00,50.238
1215.00,50.228
1216.00,50.191
1217.00,50.223
1218.00,50.224
1219.00,50.218
1220.00,50.229
1221.00,50.262
1222.00,50.265
1223.00,50.244
1224.00,50.255
1225.00,50.237
1226.00,50.255
1227.00,50.250
1228.00,50.249
1229.00,50.252
1230.00,50.303
1231.00,50.292
1232.00,50.297
1233.00,50.313
1234.00,50.311
1235.00,50.324
1236.00,50.306
1237.00,50.325
1238.00,50.303
1239.00,50.315
1240.00,50.303
1241.00,50.336
1242.00,50.343
1243.00,50.344
1244.00,50.333
1245.00,50.339
1246.00,50.378
1247.00,50.359
1248.00,50.367
1249.00,50.369
1250.00,50.379
1251.00,50.356
1252.00,50.359
1253.00,50.371
1254.00,50.410
1255.00,50.386
1256.00,50.381
1257.00,50.351
1258.00,50.404
1259.00,50.398
1260.00,50.432
1261.00,50.409
1262.00,50.428
1263.00,50.425
1264.00,50.433
1265.00,50.466
1266.00,50.424
1267.00,50.453
1268.00,50.451
1269.00,50.451
1270.00,50.455
1271.00,50.452
1272.00,50.473
1273.00,50.479
1274.00,50.491
1275.00,50.508
1276.00,50.515
1277.00,50.514
1278.00,50.527
1279.00,50.537
1280.00,50.540
1281.00,50.558
1282.00,50.540
1283.00,50.564
1284.00,50.521
1285.00,50.525
1286.00,50.525
1287.00,50.554
1288.00,50.527
1289.00,50.542
1290.00,50.558
1291.00,50.557
1292.00,50.575
1293.00,50.574
1294.00,50.601
1295.00,50.609
1296.00,50.599
1297.00,50.609
1298.00,50.640
1299.00,50.635
1300.00,50.667
1301.00,50.651
1302.00,50.721
1303.00,50.676
1304.00,50.681
1305.00,50.697
1306.00,50.745
1307.00,50.691
1308.00,50.678
1309.00,50.739
1310.00,50.730
1311.00,50.738
1312.00,50.729
1313.00,50.762
1314.00,50.766
1315.00,50.773
1316.00,50.770
1317.00,50.781
1318.00,50.778
1319.00,50.790
1320.00,50.811
1321.00,50.936
1322.00,50.944
1323.00,50.935
1324.00,50.940
1325.00,50.936
1326.00,50.935
1327.00,50.958
1328.00,50.915
1329.00,50.951
1330.00,50.931
1331.00,50.932
1332.00,50.946
1333.00,50.971
1334.00,50.954
1335.00,50.999
1336.00,51.061
1337.00,51.072
1338.00,51.149
1339.00,51.168
1340.00,51.237
1341.00,51.311
1342.00,51.360
1343.00,51.403
1344.00,51.447
1345.00,51.517
1346.00,51.613
1347.00,51.593
1348.00,51.577
1349.00,51.659
1350.00,51.667
1351.00,51.629
1352.00,51.627
1353.00,51.727
1354.00,51.730
1355.00,51.569
1356.00,51.653
1357.00,51.633
1358.00,51.907
1359.00,51.633
1360.00,51.861
1361.00,52.092
1362.00,51.665
1363.00,51.720
1364.00,51.661
1365.00,51.280
1366.00,51.917
1367.00,51.811
1368.00,51.735
1369.00,51.836
1370.00,51.560
1371.00,51.689
1372.00,51.723
1373.00,51.924
1374.00,51.757
1375.00,51.930
1376.00,51.500
1377.00,52.059
1378.00,51.962
1379.00,52.159
1380.00,51.317
1381.00,52.191
1382.00,51.673
1383.00,52.068
1384.00,51.682
1385.00,51.411
1386.00,51.567
1387.00,51.431
1388.00,51.732
1389.00,51.666
1390.00,51.841
1391.00,51.491
1392.00,51.649
1393.00,51.845
1394.00,51.919
1395.00,51.429
1396.00,51.762
1397.00,51.825
1398.00,51.878
1399.00,51.652
1400.00,51.650
1401.00,51.762
1402.00,51.861
1403.00,51.924
1404.00,51.887
1405.00,51.739
1406.00,51.849
1407.00,51.655
1408.00,51.708
1409.00,51.787
1410.00,51.916
1411.00,51.792
1412.00,51.988
1413.00,51.907
1414.00,51.843
1415.00,51.885
1416.00,51.864
1417.00,52.028
1418.00,51.909
1419.00,51.937
1420.00,51.949
1421.00,52.029
1422.00,51.961
1423.00,52.052
1424.00,51.997
1425.00,52.055
1426.00,52.046
1427.00,52.036
1428.00,52.063
1429.00,52.155
1430.00,52.115
1431.00,52.092
1432.00,52.156
1433.00,52.144
1434.00,52.156
1435.00,52.208
1436.00,52.214
1437.00,52.204
1438.00,52.236
1439.00,52.280
1440.00,52.356
1441.00,52.314
1442.00,52.316
1443.00,52.289
1444.00,52.666
1445.00,52.307
1446.00,52.390
1447.00,52.416
1448.00,52.389
1449.00,52.451
1450.00,52.449
1451.00,52.498
1452.00,52.492
1453.00,52.490
1454.00,52.551
1455.00,52.560
1456.00,52.572
1457.00,52.579
1458.00,52.610
1459.00,52.628
1460.00,52.642
1461.00,52.626
1462.00,52.686
1463.00,52.661
1464.00,52.708
1465.00,52.714
1466.00,52.736
1467.00,52.702
1468.00,52.763
1469.00,52.824
1470.00,52.792
1471.00,52.801
1472.00,52.813
1473.00,52.837
1474.00,52.861
1475.00,52.878
1476.00,52.928
1477.00,52.923
1478.00,52.930
1479.00,52.978
1480.00,52.969
1481.00,52.961
1482.00,52.984
1483.00,52.979
1484.00,53.002
1485.00,53.012
1486.00,53.070
1487.00,53.067
1488.00,53.087
1489.00,53.094
1490.00,53.125
1491.00,53.121
1492.00,53.159
1493.00,53.142
1494.00,53.153
1495.00,53.165
1496.00,53.232
1497.00,53.178
1498.00,53.211
1499.00,53.227
1500.00,53.242
1501.00, 
1502.00, 
1503.00, 
1504.00, 
1505.00, 
1506.00, 
1507.00, 
1508.00, 
1509.00, 
1510.00, 
1511.00, 
1512.00, 
1513.00, 
1514.00, 
1515.00, 
1516.00, 
1517.00, 
1518.00, 
1519.00, 
1520.00, 
1521.00, 
1522.00, 
1523.00, 
1524.00, 
1525.00, 
1526.00, 
1527.00, 
1528.00, 
1529.00, 
1530.00, 
1531.00, 
1532.00, 
1533.00, 
1534.00, 
1535.00, 
1536.00, 
1537.00, 
1538.00, 
1539.00, 
1540.00, 
1541.00, 
1542.00, 
1543.00, 
1544.00, 
1545.00, 
1546.00, 
1547.00, 
1548.00, 
1549.00, 
1550.00, 
1551.00, 
1552.00, 
1553.00, 
1554.00, 
1555.00, 
1556.00, 
1557.00, 
1558.00, 
1559.00, 
1560.00, 
1561.00, 
1562.00, 
1563.00, 
1564.00, 
1565.00, 
1566.00, 
1567.00, 
1568.00, 
1569.00, 
1570.00, 
1571.00, 
1572.00, 
1573.00, 
1574.00, 
1575.00, 
1576.00, 
1577.00, 
1578.00, 
1579.00, 
1580.00, 
1581.00, 
1582.00, 
1583.00, 
1584.00, 
1585.00, 
1586.00, 
1587.00, 
1588.00, 
1589.00, 
1590.00, 
1591.00, 
1592.00, 
1593.00, 
1594.00, 
1595.00, 
1596.00, 
1597.00, 
1598.00, 
1599.00, 
1600.00, 
1601.00, 
1602.00, 
1603.00, 
1604.00, 
1605.00, 
1606.00, 
1607.00, 
1608.00, 
1609.00, 
1610.00, 
1611.00, 
1612.00, 
1613.00, 
1614.00, 
1615.00, 
1616.00, 
1617.00, 
1618.00, 
1619.00, 
1620.00, 
1621.00, 
1622.00, 
1623.00, 
1624.00, 
1625.00, 
1626.00, 
1627.00, 
1628.00, 
1629.00, 
1630.00, 
1631.00, 
1632.00, 
1633.00, 
1634.00, 
1635.00, 
1636.00, 
1637.00, 
1638.00, 
1639.00, 
1640.00, 
1641.00, 
1642.00, 
1643.00, 
1644.00, 
1645.00, 
1646.00, 
1647.00, 
1648.00, 
1649.00, 
1650.00, 
1651.00, 
1652.00, 
1653.00, 
1654.00, 
1655.00, 
1656.00, 
1657.00, 
1658.00, 
1659.00, 
1660.00, 
1661.00, 
1662.00, 
1663.00, 
1664.00, 
1665.00, 
1666.00, 
1667.00, 
1668.00, 
1669.00, 
1670.00, 
1671.00, 
1672.00, 
1673.00, 
1674.00, 
1675.00, 
1676.00, 
1677.00, 
1678.00, 
1679.00, 
1680.00, 
1681.00, 
1682.00, 
1683.00, 
1684.00, 
1685.00, 
1686.00, 
1687.00, 
1688.00, 
1689.00, 
1690.00, 
1691.00, 
1692.00, 
1693.00, 
1694.00, 
1695.00, 
1696.00, 
1697.00, 
1698.00, 
1699.00, 
1700.00, 
1701.00, 
1702.00, 
1703.00, 
1704.00, 
1705.00, 
1706.00, 
1707.00, 
1708.00, 
1709.00, 
1710.00, 
1711.00, 
1712.00, 
1713.00, 
1714.00, 
1715.00, 
1716.00, 
1717.00, 
1718.00, 
1719.00, 
1720.00, 
1721.00, 
1722.00, 
1723.00, 
1724.00, 
1725.00, 
1726.00, 
1727.00, 
1728.00, 
1729.00, 
1730.00, 
1731.00, 
1732.00, 
1733.00, 
1734.00, 
1735.00, 
1736.00, 
1737.00, 
1738.00, 
1739.00, 
1740.00, 
1741.00, 
1742.00, 
1743.00, 
1744.00, 
1745.00, 
1746.00, 
1747.00, 
1748.00, 
1749.00, 
1750.00, 
1751.00, 
1752.00, 
1753.00, 
1754.00, 
1755.00, 
1756.00, 
1757.00, 
1758.00, 
1759.00, 
1760.00, 
1761.00, 
1762.00, 
1763.00, 
1764.00, 
1765.00, 
1766.00, 
1767.00, 
1768.00, 
1769.00, 
1770.00, 
1771.00, 
1772.00, 
1773.00, 
1774.00, 
1775.00, 
1776.00, 
1777.00, 
1778.00, 
1779.00, 
1780.00, 
1781.00, 
1782.00, 
1783.00, 
1784.00, 
1785.00, 
1786.00, 
1787.00, 
1788.00, 
1789.00, 
1790.00, 
1791.00, 
1792.00, 
1793.00, 
1794.00, 
1795.00, 
1796.00, 
1797.00, 
1798.00, 
1799.00, 
1800.00, 
1801.00, 
1802.00, 
1803.00, 
1804.00, 
1805.00, 
1806.00, 
1807.00, 
1808.00, 
1809.00, 
1810.00, 
1811.00, 
1812.00, 
1813.00, 
1814.00, 
1815.00, 
1816.00, 
1817.00, 
1818.00, 
1819.00, 
1820.00, 
1821.00, 
1822.00, 
1823.00, 
1824.00, 
1825.00, 
1826.00, 
1827.00, 
1828.00, 
1829.00, 
1830.00, 
1831.00, 
1832.00, 
1833.00, 
1834.00, 
1835.00, 
1836.00, 
1837.00, 
1838.00, 
1839.00, 
1840.00, 
1841.00, 
1842.00, 
1843.00, 
1844.00, 
1845.00, 
1846.00, 
1847.00, 
1848.00, 
1849.00, 
1850.00, 
1851.00, 
1852.00, 
1853.00, 
1854.00, 
1855.00, 
1856.00, 
1857.00, 
1858.00, 
1859.00, 
1860.00, 
1861.00, 
1862.00, 
1863.00, 
1864.00, 
1865.00, 
1866.00, 
1867.00, 
1868.00, 
1869.00, 
1870.00, 
1871.00, 
1872.00, 
1873.00, 
1874.00, 
1875.00, 
1876.00, 
1877.00, 
1878.00, 
1879.00, 
1880.00, 
1881.00, 
1882.00, 
1883.00, 
1884.00, 
1885.00, 
1886.00, 
1887.00, 
1888.00, 
1889.00, 
1890.00, 
1891.00, 
1892.00, 
1893.00, 
1894.00, 
1895.00, 
1896.00, 
1897.00, 
1898.00, 
1899.00, 
1900.00, 
1901.00, 
1902.00, 
1903.00, 
1904.00, 
1905.00, 
1906.00, 
1907.00, 
1908.00, 
1909.00, 
1910.00, 
1911.00, 
1912.00, 
1913.00, 
1914.00, 
1915.00, 
1916.00, 
1917.00, 
1918.00, 
1919.00, 
1920.00, 
1921.00, 
1922.00, 
1923.00, 
1924.00, 
1925.00, 
1926.00, 
1927.00, 
1928.00, 
1929.00, 
1930.00, 
1931.00, 
1932.00, 
1933.00, 
1934.00, 
1935.00, 
1936.00, 
1937.00, 
1938.00, 
1939.00, 
1940.00, 
1941.00, 
1942.00, 
1943.00, 
1944.00, 
1945.00, 
1946.00, 
1947.00, 
1948.00, 
1949.00, 
1950.00, 
1951.00, 
1952.00, 
1953.00, 
1954.00, 
1955.00, 
1956.00, 
1957.00, 
1958.00, 
1959.00, 
1960.00, 
1961.00, 
1962.00, 
1963.00, 
1964.00, 
1965.00, 
1966.00, 
1967.00, 
1968.00, 
1969.00, 
1970.00, 
1971.00, 
1972.00, 
1973.00, 
1974.00, 
1975.00, 
1976.00, 
1977.00, 
1978.00, 
1979.00, 
1980.00, 
1981.00, 
1982.00, 
1983.00, 
1984.00, 
1985.00, 
1986.00, 
1987.00, 
1988.00, 
1989.00, 
1990.00, 
1991.00, 
1992.00, 
1993.00, 
1994.00, 
1995.00, 
1996.00, 
1997.00, 
1998.00, 
1999.00, 
2000.00, 
2001.00, 
2002.00, 
2003.00, 
2004.00, 
2005.00, 
2006.00, 
2007.00, 
2008.00, 
2009.00, 
2010.00, 
2011.00, 
2012.00, 
2013.00, 
2014.00, 
2015.00, 
2016.00, 
2017.00, 
2018.00, 
2019.00, 
2020.00, 
2021.00, 
2022.00, 
2023.00, 
2024.00, 
2025.00, 
2026.00, 
2027.00, 
2028.00, 
2029.00, 
2030.00, 
2031.00, 
2032.00, 
2033.00, 
2034.00, 
2035.00, 
2036.00, 
2037.00, 
2038.00, 
2039.00, 
2040.00, 
2041.00, 
2042.00, 
2043.00, 
2044.00, 
2045.00, 
2046.00, 
2047.00, 
2048.00, 
2049.00, 
2050.00, 
2051.00, 
2052.00, 
2053.00, 
2054.00, 
2055.00, 
2056.00, 
2057.00, 
2058.00, 
2059.00, 
2060.00, 
2061.00, 
2062.00, 
2063.00, 
2064.00, 
2065.00, 
2066.00, 
2067.00, 
2068.00, 
2069.00, 
2070.00, 
2071.00, 
2072.00, 
2073.00, 
2074.00, 
2075.00, 
2076.00, 
2077.00, 
2078.00, 
2079.00, 
2080.00, 
2081.00, 
2082.00, 
2083.00, 
2084.00, 
2085.00, 
2086.00, 
2087.00, 
2088.00, 
2089.00, 
2090.00, 
2091.00, 
2092.00, 
2093.00, 
2094.00, 
2095.00, 
2096.00, 
2097.00, 
2098.00, 
2099.00, 
2100.00, 
2101.00, 
2102.00, 
2103.00, 
2104.00, 
2105.00, 
2106.00, 
2107.00, 
2108.00, 
2109.00, 
2110.00, 
2111.00, 
2112.00, 
2113.00, 
2114.00, 
2115.00, 
2116.00, 
2117.00, 
2118.00, 
2119.00, 
2120.00, 
2121.00, 
2122.00, 
2123.00, 
2124.00, 
2125.00, 
2126.00, 
2127.00, 
2128.00, 
2129.00, 
2130.00, 
2131.00, 
2132.00, 
2133.00, 
2134.00, 
2135.00, 
2136.00, 
2137.00, 
2138.00, 
2139.00, 
2140.00, 
2141.00, 
2142.00, 
2143.00, 
2144.00, 
2145.00, 
2146.00, 
2147.00, 
2148.00, 
2149.00, 
2150.00, 
2151.00, 
2152.00, 
2153.00, 
2154.00, 
2155.00, 
2156.00, 
2157.00, 
2158.00, 
2159.00, 
2160.00, 
2161.00, 
2162.00, 
2163.00, 
2164.00, 
2165.00, 
2166.00, 
2167.00, 
2168.00, 
2169.00, 
2170.00, 
2171.00, 
2172.00, 
2173.00, 
2174.00, 
2175.00, 
2176.00, 
2177.00, 
2178.00, 
2179.00, 
2180.00, 
2181.00, 
2182.00, 
2183.00, 
2184.00, 
2185.00, 
2186.00, 
2187.00, 
2188.00, 
2189.00, 
2190.00, 
2191.00, 
2192.00, 
2193.00, 
2194.00, 
2195.00, 
2196.00, 
2197.00, 
2198.00, 
2199.00, 
2200.00, 
2201.00, 
2202.00, 
2203.00, 
2204.00, 
2205.00, 
2206.00, 
2207.00, 
2208.00, 
2209.00, 
2210.00, 
2211.00, 
2212.00, 
2213.00, 
2214.00, 
2215.00, 
2216.00, 
2217.00, 
2218.00, 
2219.00, 
2220.00, 
2221.00, 
2222.00, 
2223.00, 
2224.00, 
2225.00, 
2226.00, 
2227.00, 
2228.00, 
2229.00, 
2230.00, 
2231.00, 
2232.00, 
2233.00, 
2234.00, 
2235.00, 
2236.00, 
2237.00, 
2238.00, 
2239.00, 
2240.00, 
2241.00, 
2242.00, 
2243.00, 
2244.00, 
2245.00, 
2246.00, 
2247.00, 
2248.00, 
2249.00, 
2250.00, 
2251.00, 
2252.00, 
2253.00, 
2254.00, 
2255.00, 
2256.00, 
2257.00, 
2258.00, 
2259.00, 
2260.00, 
2261.00, 
2262.00, 
2263.00, 
2264.00, 
2265.00, 
2266.00, 
2267.00, 
2268.00, 
2269.00, 
2270.00, 
2271.00, 
2272.00, 
2273.00, 
2274.00, 
2275.00, 
2276.00, 
2277.00, 
2278.00, 
2279.00, 
2280.00, 
2281.00, 
2282.00, 
2283.00, 
2284.00, 
2285.00, 
2286.00, 
2287.00, 
2288.00, 
2289.00, 
2290.00, 
2291.00, 
2292.00, 
2293.00, 
2294.00, 
2295.00, 
2296.00, 
2297.00, 
2298.00, 
2299.00, 
2300.00, 
2301.00, 
2302.00, 
2303.00, 
2304.00, 
2305.00, 
2306.00, 
2307.00, 
2308.00, 
2309.00, 
2310.00, 
2311.00, 
2312.00, 
2313.00, 
2314.00, 
2315.00, 
2316.00, 
2317.00, 
2318.00, 
2319.00, 
2320.00, 
2321.00, 
2322.00, 
2323.00, 
2324.00, 
2325.00, 
2326.00, 
2327.00, 
2328.00, 
2329.00, 
2330.00, 
2331.00, 
2332.00, 
2333.00, 
2334.00, 
2335.00, 
2336.00, 
2337.00, 
2338.00, 
2339.00, 
2340.00, 
2341.00, 
2342.00, 
2343.00, 
2344.00, 
2345.00, 
2346.00, 
2347.00, 
2348.00, 
2349.00, 
2350.00, 
2351.00, 
2352.00, 
2353.00, 
2354.00, 
2355.00, 
2356.00, 
2357.00, 
2358.00, 
2359.00, 
2360.00, 
2361.00, 
2362.00, 
2363.00, 
2364.00, 
2365.00, 
2366.00, 
2367.00, 
2368.00, 
2369.00, 
2370.00, 
2371.00, 
2372.00, 
2373.00, 
2374.00, 
2375.00, 
2376.00, 
2377.00, 
2378.00, 
2379.00, 
2380.00, 
2381.00, 
2382.00, 
2383.00, 
2384.00, 
2385.00, 
2386.00, 
2387.00, 
2388.00, 
2389.00, 
2390.00, 
2391.00, 
2392.00, 
2393.00, 
2394.00, 
2395.00, 
2396.00, 
2397.00, 
2398.00, 
2399.00, 
2400.00, 
2401.00, 
2402.00, 
2403.00, 
2404.00, 
2405.00, 
2406.00, 
2407.00, 
2408.00, 
2409.00, 
2410.00, 
2411.00, 
2412.00, 
2413.00, 
2414.00, 
2415.00, 
2416.00, 
2417.00, 
2418.00, 
2419.00, 
2420.00, 
2421.00, 
2422.00, 
2423.00, 
2424.00, 
2425.00, 
2426.00, 
2427.00, 
2428.00, 
2429.00, 
2430.00, 
2431.00, 
2432.00, 
2433.00, 
2434.00, 
2435.00, 
2436.00, 
2437.00, 
2438.00, 
2439.00, 
2440.00, 
2441.00, 
2442.00, 
2443.00, 
2444.00, 
2445.00, 
2446.00, 
2447.00, 
2448.00, 
2449.00, 
2450.00, 
2451.00, 
2452.00, 
2453.00, 
2454.00, 
2455.00, 
2456.00, 
2457.00, 
2458.00, 
2459.00, 
2460.00, 
2461.00, 
2462.00, 
2463.00, 
2464.00, 
2465.00, 
2466.00, 
2467.00, 
2468.00, 
2469.00, 
2470.00, 
2471.00, 
2472.00, 
2473.00, 
2474.00, 
2475.00, 
2476.00, 
2477.00, 
2478.00, 
2479.00, 
2480.00, 
2481.00, 
2482.00, 
2483.00, 
2484.00, 
2485.00, 
2486.00, 
2487.00, 
2488.00, 
2489.00, 
2490.00, 
2491.00, 
2492.00, 
2493.00, 
2494.00, 
2495.00, 
2496.00, 
2497.00, 
2498.00, 
2499.00, 
2500.00, 
2501.00, 
2502.00, 
2503.00, 
2504.00, 
2505.00, 
2506.00, 
2507.00, 
2508.00, 
2509.00, 
2510.00, 
2511.00, 
2512.00, 
2513.00, 
2514.00, 
2515.00, 
2516.00, 
2517.00, 
2518.00, 
2519.00, 
2520.00, 
2521.00, 
2522.00, 
2523.00, 
2524.00, 
2525.00, 
2526.00, 
2527.00, 
2528.00, 
2529.00, 
2530.00, 
2531.00, 
2532.00, 
2533.00, 
2534.00, 
2535.00, 
2536.00, 
2537.00, 
2538.00, 
2539.00, 
2540.00, 
2541.00, 
2542.00, 
2543.00, 
2544.00, 
2545.00, 
2546.00, 
2547.00, 
2548.00, 
2549.00, 
2550.00, 
2551.00, 
2552.00, 
2553.00, 
2554.00, 
2555.00, 
2556.00, 
2557.00, 
2558.00, 
2559.00, 
2560.00, 
2561.00, 
2562.00, 
2563.00, 
2564.00, 
2565.00, 
2566.00, 
2567.00, 
2568.00, 
2569.00, 
2570.00, 
2571.00, 
2572.00, 
2573.00, 
2574.00, 
2575.00, 
2576.00, 
2577.00, 
2578.00, 
2579.00, 
2580.00, 
2581.00, 
2582.00, 
2583.00, 
2584.00, 
2585.00, 
2586.00, 
2587.00, 
2588.00, 
2589.00, 
2590.00, 
2591.00, 
2592.00, 
2593.00, 
2594.00, 
2595.00, 
2596.00, 
2597.00, 
2598.00, 
2599.00, 
2600.00, 
