"2cP3 - RawData"
"Wavelength nm.","T%"
200.00,0.002
201.00,0.002
202.00,0.001
203.00,-0.001
204.00,0.004
205.00,0.000
206.00,0.002
207.00,0.002
208.00,0.003
209.00,-0.001
210.00,0.005
211.00,0.000
212.00,0.002
213.00,0.003
214.00,0.000
215.00,0.001
216.00,0.002
217.00,0.001
218.00,0.002
219.00,-0.000
220.00,0.002
221.00,-0.000
222.00,0.001
223.00,-0.000
224.00,0.001
225.00,0.001
226.00,0.000
227.00,-0.000
228.00,0.001
229.00,0.001
230.00,0.002
231.00,0.000
232.00,0.001
233.00,-0.000
234.00,-0.000
235.00,0.001
236.00,0.000
237.00,0.001
238.00,0.001
239.00,-0.001
240.00,0.000
241.00,-0.000
242.00,-0.000
243.00,0.001
244.00,0.000
245.00,0.002
246.00,0.001
247.00,-0.000
248.00,0.001
249.00,0.001
250.00,0.002
251.00,0.000
252.00,-0.001
253.00,0.002
254.00,0.002
255.00,0.001
256.00,0.001
257.00,-0.000
258.00,-0.000
259.00,0.000
260.00,0.001
261.00,0.000
262.00,0.001
263.00,0.000
264.00,-0.000
265.00,-0.000
266.00,0.000
267.00,0.000
268.00,0.000
269.00,0.001
270.00,0.001
271.00,0.001
272.00,0.001
273.00,-0.001
274.00,0.001
275.00,0.000
276.00,0.001
277.00,0.001
278.00,0.001
279.00,0.001
280.00,0.000
281.00,0.001
282.00,0.003
283.00,0.001
284.00,-0.000
285.00,0.002
286.00,0.000
287.00,-0.000
288.00,0.001
289.00,-0.001
290.00,0.002
291.00,-0.002
292.00,0.001
293.00,0.000
294.00,0.001
295.00,0.001
296.00,-0.000
297.00,-0.000
298.00,0.002
299.00,0.003
300.00,0.003
301.00,0.004
302.00,0.008
303.00,0.012
304.00,0.019
305.00,0.027
306.00,0.042
307.00,0.060
308.00,0.092
309.00,0.157
310.00,0.221
311.00,0.306
312.00,0.412
313.00,0.555
314.00,0.729
315.00,0.966
316.00,1.234
317.00,1.561
318.00,1.927
319.00,2.385
320.00,2.892
321.00,3.452
322.00,4.182
323.00,4.881
324.00,5.680
325.00,6.484
326.00,7.266
327.00,8.256
328.00,9.297
329.00,10.292
330.00,11.380
331.00,12.376
332.00,13.477
333.00,14.586
334.00,15.651
335.00,16.778
336.00,17.841
337.00,19.101
338.00,20.000
339.00,21.101
340.00,22.204
341.00,23.185
342.00,24.269
343.00,25.195
344.00,26.062
345.00,27.040
346.00,27.735
347.00,28.590
348.00,29.346
349.00,29.974
350.00,30.687
351.00,31.331
352.00,31.981
353.00,32.654
354.00,33.220
355.00,33.542
356.00,34.267
357.00,34.594
358.00,35.154
359.00,35.538
360.00,36.027
361.00,36.150
362.00,36.473
363.00,36.895
364.00,37.126
365.00,37.412
366.00,37.617
367.00,37.930
368.00,38.087
369.00,38.248
370.00,38.478
371.00,38.614
372.00,38.608
373.00,38.729
374.00,38.868
375.00,38.868
376.00,38.817
377.00,38.789
378.00,38.996
379.00,38.851
380.00,38.800
381.00,38.854
382.00,38.982
383.00,38.988
384.00,39.127
385.00,39.306
386.00,39.420
387.00,39.517
388.00,39.740
389.00,39.857
390.00,39.920
391.00,40.108
392.00,40.087
393.00,40.165
394.00,40.248
395.00,40.368
396.00,40.479
397.00,40.501
398.00,40.549
399.00,40.591
400.00,40.747
401.00,40.789
402.00,40.906
403.00,40.909
404.00,40.913
405.00,40.964
406.00,40.883
407.00,40.849
408.00,40.918
409.00,40.865
410.00,40.824
411.00,40.804
412.00,40.708
413.00,40.757
414.00,40.792
415.00,40.848
416.00,40.890
417.00,40.910
418.00,40.879
419.00,41.049
420.00,41.110
421.00,40.992
422.00,41.074
423.00,41.009
424.00,41.116
425.00,41.149
426.00,41.060
427.00,41.106
428.00,41.187
429.00,41.178
430.00,41.221
431.00,41.315
432.00,41.288
433.00,41.323
434.00,41.363
435.00,41.386
436.00,41.387
437.00,41.557
438.00,41.585
439.00,41.641
440.00,41.741
441.00,41.738
442.00,41.773
443.00,41.875
444.00,41.888
445.00,42.053
446.00,42.038
447.00,42.122
448.00,42.151
449.00,42.253
450.00,42.394
451.00,42.310
452.00,42.434
453.00,42.502
454.00,42.519
455.00,42.645
456.00,42.673
457.00,42.799
458.00,42.912
459.00,43.009
460.00,43.076
461.00,43.127
462.00,43.207
463.00,43.335
464.00,43.297
465.00,43.433
466.00,43.583
467.00,43.602
468.00,43.580
469.00,43.649
470.00,43.635
471.00,43.720
472.00,43.733
473.00,43.761
474.00,43.814
475.00,43.874
476.00,43.867
477.00,43.985
478.00,44.038
479.00,44.089
480.00,44.280
481.00,44.263
482.00,44.443
483.00,44.539
484.00,44.716
485.00,44.829
486.00,44.803
487.00,44.986
488.00,45.028
489.00,45.321
490.00,45.363
491.00,45.151
492.00,45.284
493.00,45.362
494.00,45.409
495.00,45.476
496.00,45.589
497.00,45.632
498.00,45.713
499.00,45.829
500.00,45.876
501.00,45.950
502.00,46.005
503.00,45.984
504.00,46.047
505.00,46.187
506.00,46.141
507.00,46.208
508.00,46.357
509.00,46.441
510.00,46.411
511.00,46.495
512.00,46.615
513.00,46.673
514.00,46.794
515.00,46.858
516.00,46.812
517.00,46.986
518.00,46.959
519.00,46.889
520.00,47.061
521.00,47.070
522.00,47.067
523.00,47.182
524.00,47.193
525.00,47.346
526.00,47.465
527.00,47.520
528.00,47.585
529.00,47.624
530.00,47.899
531.00,47.883
532.00,47.797
533.00,47.877
534.00,47.837
535.00,47.937
536.00,48.017
537.00,48.023
538.00,48.075
539.00,48.077
540.00,48.099
541.00,48.211
542.00,48.137
543.00,48.225
544.00,48.252
545.00,48.384
546.00,48.389
547.00,48.404
548.00,48.428
549.00,48.558
550.00,48.692
551.00,48.694
552.00,48.590
553.00,48.664
554.00,48.767
555.00,48.792
556.00,48.827
557.00,48.818
558.00,48.878
559.00,48.930
560.00,49.030
561.00,49.019
562.00,49.034
563.00,49.080
564.00,49.145
565.00,49.093
566.00,49.124
567.00,49.151
568.00,49.117
569.00,49.175
570.00,49.217
571.00,49.167
572.00,49.179
573.00,49.188
574.00,49.150
575.00,49.125
576.00,49.173
577.00,49.257
578.00,49.332
579.00,49.325
580.00,49.523
581.00,49.527
582.00,49.543
583.00,49.678
584.00,49.774
585.00,49.714
586.00,49.892
587.00,49.889
588.00,49.814
589.00,49.927
590.00,49.857
591.00,49.749
592.00,49.943
593.00,50.061
594.00,49.940
595.00,50.075
596.00,50.063
597.00,50.120
598.00,50.334
599.00,50.314
600.00,50.057
601.00,49.999
602.00,49.972
603.00,50.132
604.00,50.216
605.00,50.031
606.00,50.119
607.00,50.374
608.00,50.330
609.00,50.391
610.00,50.325
611.00,50.259
612.00,50.404
613.00,50.337
614.00,50.141
615.00,50.202
616.00,50.328
617.00,50.622
618.00,50.409
619.00,50.361
620.00,50.348
621.00,50.468
622.00,50.496
623.00,50.569
624.00,50.741
625.00,50.562
626.00,50.664
627.00,50.603
628.00,50.729
629.00,50.644
630.00,50.439
631.00,50.645
632.00,50.801
633.00,50.906
634.00,50.826
635.00,50.862
636.00,50.839
637.00,50.958
638.00,50.866
639.00,50.929
640.00,50.843
641.00,50.880
642.00,51.009
643.00,50.936
644.00,51.006
645.00,51.195
646.00,51.144
647.00,51.156
648.00,51.182
649.00,51.195
650.00,51.114
651.00,51.200
652.00,51.289
653.00,51.257
654.00,51.196
655.00,51.432
656.00,51.596
657.00,51.441
658.00,51.577
659.00,50.953
660.00,51.348
661.00,51.381
662.00,51.437
663.00,51.505
664.00,51.686
665.00,51.376
666.00,51.489
667.00,51.491
668.00,51.956
669.00,51.617
670.00,51.627
671.00,51.740
672.00,51.846
673.00,51.615
674.00,51.696
675.00,51.516
676.00,51.534
677.00,51.652
678.00,51.733
679.00,51.939
680.00,51.541
681.00,51.724
682.00,51.828
683.00,51.709
684.00,51.555
685.00,51.767
686.00,51.773
687.00,51.565
688.00,51.758
689.00,51.873
690.00,51.804
691.00,52.003
692.00,51.692
693.00,51.475
694.00,51.707
695.00,51.872
696.00,51.683
697.00,51.557
698.00,51.842
699.00,51.785
700.00,51.745
701.00,51.767
702.00,51.843
703.00,51.704
704.00,51.837
705.00,52.283
706.00,51.730
707.00,51.930
708.00,51.722
709.00,51.902
710.00,51.633
711.00,51.619
712.00,51.806
713.00,52.005
714.00,51.900
715.00,51.868
716.00,51.658
717.00,51.858
718.00,51.917
719.00,52.116
720.00,52.105
721.00,56.792
722.00,56.797
723.00,56.758
724.00,56.882
725.00,56.724
726.00,56.736
727.00,56.632
728.00,56.597
729.00,56.590
730.00,56.595
731.00,56.511
732.00,56.509
733.00,56.370
734.00,56.310
735.00,56.315
736.00,56.307
737.00,56.393
738.00,56.237
739.00,56.243
740.00,56.207
741.00,56.050
742.00,56.256
743.00,56.072
744.00,56.164
745.00,56.148
746.00,56.054
747.00,55.854
748.00,56.014
749.00,55.915
750.00,55.795
751.00,55.949
752.00,55.675
753.00,55.685
754.00,55.603
755.00,55.602
756.00,55.611
757.00,55.390
758.00,55.490
759.00,55.520
760.00,55.252
761.00,55.518
762.00,55.382
763.00,55.303
764.00,55.386
765.00,55.281
766.00,55.253
767.00,55.239
768.00,55.281
769.00,55.162
770.00,55.216
771.00,55.117
772.00,55.224
773.00,55.203
774.00,55.077
775.00,55.223
776.00,55.069
777.00,55.110
778.00,54.876
779.00,55.078
780.00,55.110
781.00,54.894
782.00,55.036
783.00,54.848
784.00,54.810
785.00,54.819
786.00,54.722
787.00,54.731
788.00,54.659
789.00,54.843
790.00,54.599
791.00,54.657
792.00,54.447
793.00,54.649
794.00,54.606
795.00,54.354
796.00,54.460
797.00,54.263
798.00,54.390
799.00,54.385
800.00,54.325
801.00,54.210
802.00,54.300
803.00,54.321
804.00,54.193
805.00,54.086
806.00,54.085
807.00,54.159
808.00,54.113
809.00,53.895
810.00,54.003
811.00,53.860
812.00,53.821
813.00,53.883
814.00,53.802
815.00,53.913
816.00,53.872
817.00,53.694
818.00,53.745
819.00,53.867
820.00,53.647
821.00,53.648
822.00,53.607
823.00,53.669
824.00,53.617
825.00,53.611
826.00,53.598
827.00,53.469
828.00,53.601
829.00,53.661
830.00,53.459
831.00,55.782
832.00,55.885
833.00,55.773
834.00,55.803
835.00,55.850
836.00,55.677
837.00,55.861
838.00,55.703
839.00,55.638
840.00,55.627
841.00,55.614
842.00,55.537
843.00,55.519
844.00,55.508
845.00,55.411
846.00,55.392
847.00,55.436
848.00,55.451
849.00,55.378
850.00,55.268
851.00,55.288
852.00,55.220
853.00,55.254
854.00,55.143
855.00,55.173
856.00,55.015
857.00,55.034
858.00,54.992
859.00,55.054
860.00,54.978
861.00,54.932
862.00,54.948
863.00,54.856
864.00,54.819
865.00,54.809
866.00,54.788
867.00,54.795
868.00,54.842
869.00,54.806
870.00,54.716
871.00,54.938
872.00,54.810
873.00,54.690
874.00,54.754
875.00,54.683
876.00,54.644
877.00,54.650
878.00,54.687
879.00,54.529
880.00,54.580
881.00,54.533
882.00,54.537
883.00,54.561
884.00,54.506
885.00,54.466
886.00,54.427
887.00,54.409
888.00,54.394
889.00,54.379
890.00,54.325
891.00,54.290
892.00,54.319
893.00,54.273
894.00,54.305
895.00,54.197
896.00,54.232
897.00,54.177
898.00,54.111
899.00,54.154
900.00,54.135
901.00,54.104
902.00,54.050
903.00,54.026
904.00,54.006
905.00,54.026
906.00,53.999
907.00,53.975
908.00,53.950
909.00,53.931
910.00,53.891
911.00,53.856
912.00,53.864
913.00,53.816
914.00,53.778
915.00,53.823
916.00,53.740
917.00,53.783
918.00,53.717
919.00,53.652
920.00,53.796
921.00,53.677
922.00,53.656
923.00,53.624
924.00,53.602
925.00,53.631
926.00,53.580
927.00,53.550
928.00,53.543
929.00,53.515
930.00,53.497
931.00,53.494
932.00,53.459
933.00,53.455
934.00,53.471
935.00,53.395
936.00,53.372
937.00,53.373
938.00,53.347
939.00,53.339
940.00,53.307
941.00,53.296
942.00,53.270
943.00,53.194
944.00,53.223
945.00,53.176
946.00,53.203
947.00,53.143
948.00,53.163
949.00,53.115
950.00,53.098
951.00,53.087
952.00,53.044
953.00,53.025
954.00,53.001
955.00,52.961
956.00,52.949
957.00,52.927
958.00,52.924
959.00,52.877
960.00,52.820
961.00,52.851
962.00,52.836
963.00,52.790
964.00,52.785
965.00,52.849
966.00,52.818
967.00,52.777
968.00,52.741
969.00,52.772
970.00,52.757
971.00,52.744
972.00,52.755
973.00,52.707
974.00,52.751
975.00,52.754
976.00,52.720
977.00,52.728
978.00,52.772
979.00,52.749
980.00,52.682
981.00,52.780
982.00,52.664
983.00,52.713
984.00,52.666
985.00,52.665
986.00,52.659
987.00,52.677
988.00,52.663
989.00,52.618
990.00,52.641
991.00,52.629
992.00,52.599
993.00,52.576
994.00,52.580
995.00,52.570
996.00,52.521
997.00,52.551
998.00,52.515
999.00,52.507
1000.00,52.500
1001.00,52.484
1002.00,52.504
1003.00,52.438
1004.00,52.462
1005.00,52.417
1006.00,52.424
1007.00,52.415
1008.00,52.391
1009.00,52.395
1010.00,52.348
1011.00,52.382
1012.00,52.315
1013.00,52.311
1014.00,52.293
1015.00,52.275
1016.00,52.285
1017.00,52.219
1018.00,52.240
1019.00,52.215
1020.00,52.226
1021.00,52.178
1022.00,52.165
1023.00,52.155
1024.00,52.125
1025.00,52.113
1026.00,52.096
1027.00,52.095
1028.00,52.065
1029.00,52.053
1030.00,52.025
1031.00,52.032
1032.00,52.027
1033.00,51.986
1034.00,51.980
1035.00,51.943
1036.00,51.923
1037.00,51.874
1038.00,51.864
1039.00,51.827
1040.00,51.827
1041.00,51.831
1042.00,51.814
1043.00,51.800
1044.00,51.831
1045.00,51.804
1046.00,51.798
1047.00,51.834
1048.00,51.801
1049.00,51.823
1050.00,51.819
1051.00,51.833
1052.00,51.867
1053.00,51.874
1054.00,51.879
1055.00,51.891
1056.00,51.903
1057.00,51.898
1058.00,51.893
1059.00,51.870
1060.00,51.886
1061.00,51.866
1062.00,51.864
1063.00,51.863
1064.00,51.860
1065.00,51.836
1066.00,51.830
1067.00,51.797
1068.00,51.825
1069.00,51.792
1070.00,51.760
1071.00,51.758
1072.00,51.733
1073.00,51.729
1074.00,51.731
1075.00,51.741
1076.00,51.720
1077.00,51.719
1078.00,51.697
1079.00,51.702
1080.00,51.678
1081.00,51.657
1082.00,51.667
1083.00,51.659
1084.00,51.646
1085.00,51.664
1086.00,51.653
1087.00,51.651
1088.00,51.634
1089.00,51.621
1090.00,51.609
1091.00,51.613
1092.00,51.582
1093.00,51.588
1094.00,51.569
1095.00,51.565
1096.00,51.533
1097.00,51.533
1098.00,51.535
1099.00,51.540
1100.00,51.517
1101.00,51.519
1102.00,51.502
1103.00,51.485
1104.00,51.476
1105.00,51.478
1106.00,51.452
1107.00,51.437
1108.00,51.425
1109.00,51.415
1110.00,51.429
1111.00,51.442
1112.00,51.412
1113.00,51.410
1114.00,51.379
1115.00,51.411
1116.00,51.371
1117.00,51.368
1118.00,51.363
1119.00,51.374
1120.00,51.333
1121.00,51.299
1122.00,51.324
1123.00,51.325
1124.00,51.297
1125.00,51.282
1126.00,51.284
1127.00,51.274
1128.00,51.270
1129.00,51.292
1130.00,51.277
1131.00,51.253
1132.00,51.268
1133.00,51.220
1134.00,51.241
1135.00,51.199
1136.00,51.196
1137.00,51.231
1138.00,51.210
1139.00,51.203
1140.00,51.201
1141.00,51.181
1142.00,51.163
1143.00,51.201
1144.00,51.160
1145.00,51.180
1146.00,51.165
1147.00,51.167
1148.00,51.187
1149.00,51.185
1150.00,51.193
1151.00,51.169
1152.00,51.148
1153.00,51.175
1154.00,51.171
1155.00,51.163
1156.00,51.145
1157.00,51.128
1158.00,51.128
1159.00,51.133
1160.00,51.126
1161.00,51.136
1162.00,51.176
1163.00,51.161
1164.00,51.177
1165.00,51.134
1166.00,51.119
1167.00,51.095
1168.00,51.106
1169.00,51.083
1170.00,51.104
1171.00,51.097
1172.00,51.088
1173.00,51.109
1174.00,51.076
1175.00,51.085
1176.00,51.113
1177.00,51.097
1178.00,51.077
1179.00,51.088
1180.00,51.052
1181.00,51.090
1182.00,51.073
1183.00,51.068
1184.00,51.085
1185.00,51.079
1186.00,51.060
1187.00,51.079
1188.00,51.098
1189.00,51.075
1190.00,51.071
1191.00,51.030
1192.00,51.072
1193.00,51.068
1194.00,51.057
1195.00,51.075
1196.00,51.054
1197.00,51.076
1198.00,51.060
1199.00,51.079
1200.00,51.062
1201.00,51.085
1202.00,51.054
1203.00,51.066
1204.00,51.052
1205.00,51.022
1206.00,51.048
1207.00,51.046
1208.00,51.040
1209.00,51.043
1210.00,51.057
1211.00,51.017
1212.00,51.033
1213.00,51.025
1214.00,51.040
1215.00,51.017
1216.00,50.992
1217.00,51.026
1218.00,51.016
1219.00,51.007
1220.00,51.023
1221.00,51.051
1222.00,51.036
1223.00,51.043
1224.00,51.064
1225.00,51.032
1226.00,51.051
1227.00,51.017
1228.00,51.035
1229.00,51.031
1230.00,51.077
1231.00,51.083
1232.00,51.061
1233.00,51.071
1234.00,51.073
1235.00,51.076
1236.00,51.070
1237.00,51.091
1238.00,51.063
1239.00,51.077
1240.00,51.059
1241.00,51.080
1242.00,51.095
1243.00,51.079
1244.00,51.076
1245.00,51.083
1246.00,51.105
1247.00,51.107
1248.00,51.120
1249.00,51.107
1250.00,51.134
1251.00,51.104
1252.00,51.097
1253.00,51.129
1254.00,51.171
1255.00,51.128
1256.00,51.122
1257.00,51.059
1258.00,51.147
1259.00,51.130
1260.00,51.140
1261.00,51.162
1262.00,51.149
1263.00,51.151
1264.00,51.153
1265.00,51.166
1266.00,51.136
1267.00,51.173
1268.00,51.163
1269.00,51.176
1270.00,51.177
1271.00,51.168
1272.00,51.190
1273.00,51.193
1274.00,51.183
1275.00,51.204
1276.00,51.197
1277.00,51.200
1278.00,51.209
1279.00,51.208
1280.00,51.214
1281.00,51.227
1282.00,51.210
1283.00,51.243
1284.00,51.207
1285.00,51.211
1286.00,51.229
1287.00,51.235
1288.00,51.234
1289.00,51.243
1290.00,51.261
1291.00,51.283
1292.00,51.285
1293.00,51.264
1294.00,51.306
1295.00,51.307
1296.00,51.309
1297.00,51.309
1298.00,51.304
1299.00,51.319
1300.00,51.325
1301.00,51.306
1302.00,51.363
1303.00,51.348
1304.00,51.336
1305.00,51.366
1306.00,51.390
1307.00,51.351
1308.00,51.333
1309.00,51.376
1310.00,51.383
1311.00,51.375
1312.00,51.345
1313.00,51.375
1314.00,51.379
1315.00,51.383
1316.00,51.383
1317.00,51.399
1318.00,51.390
1319.00,51.416
1320.00,51.427
1321.00,51.567
1322.00,51.596
1323.00,51.556
1324.00,51.570
1325.00,51.566
1326.00,51.543
1327.00,51.572
1328.00,51.528
1329.00,51.554
1330.00,51.561
1331.00,51.560
1332.00,51.557
1333.00,51.559
1334.00,51.619
1335.00,51.620
1336.00,51.675
1337.00,51.665
1338.00,51.764
1339.00,51.794
1340.00,51.822
1341.00,51.916
1342.00,51.971
1343.00,52.039
1344.00,52.079
1345.00,52.171
1346.00,52.181
1347.00,52.181
1348.00,52.169
1349.00,52.231
1350.00,52.262
1351.00,52.198
1352.00,52.219
1353.00,52.279
1354.00,52.281
1355.00,52.229
1356.00,52.271
1357.00,52.246
1358.00,52.365
1359.00,52.239
1360.00,52.565
1361.00,52.425
1362.00,52.218
1363.00,52.354
1364.00,52.061
1365.00,52.257
1366.00,52.479
1367.00,52.370
1368.00,52.304
1369.00,52.356
1370.00,52.180
1371.00,52.276
1372.00,52.249
1373.00,52.365
1374.00,52.275
1375.00,52.379
1376.00,52.142
1377.00,52.476
1378.00,52.684
1379.00,52.350
1380.00,52.485
1381.00,52.550
1382.00,52.201
1383.00,52.449
1384.00,52.214
1385.00,52.029
1386.00,52.318
1387.00,52.059
1388.00,52.268
1389.00,52.199
1390.00,52.390
1391.00,51.920
1392.00,52.152
1393.00,52.421
1394.00,52.320
1395.00,52.004
1396.00,52.274
1397.00,52.214
1398.00,52.319
1399.00,52.309
1400.00,52.223
1401.00,52.235
1402.00,52.597
1403.00,52.360
1404.00,52.523
1405.00,51.976
1406.00,52.617
1407.00,52.112
1408.00,52.342
1409.00,52.341
1410.00,52.375
1411.00,52.310
1412.00,52.395
1413.00,52.432
1414.00,52.317
1415.00,52.338
1416.00,52.362
1417.00,52.414
1418.00,52.381
1419.00,52.429
1420.00,52.412
1421.00,52.555
1422.00,52.555
1423.00,52.485
1424.00,52.483
1425.00,52.474
1426.00,52.511
1427.00,52.517
1428.00,52.531
1429.00,52.609
1430.00,52.611
1431.00,52.584
1432.00,52.648
1433.00,52.611
1434.00,52.621
1435.00,52.692
1436.00,52.564
1437.00,52.638
1438.00,52.632
1439.00,52.710
1440.00,52.678
1441.00,52.743
1442.00,52.768
1443.00,52.777
1444.00,52.829
1445.00,52.781
1446.00,52.828
1447.00,52.836
1448.00,52.873
1449.00,52.782
1450.00,52.883
1451.00,52.910
1452.00,52.923
1453.00,52.914
1454.00,52.944
1455.00,52.920
1456.00,52.946
1457.00,52.937
1458.00,52.954
1459.00,52.976
1460.00,52.999
1461.00,53.016
1462.00,53.032
1463.00,53.077
1464.00,53.066
1465.00,53.100
1466.00,53.088
1467.00,53.092
1468.00,53.120
1469.00,53.115
1470.00,53.152
1471.00,53.163
1472.00,53.157
1473.00,53.190
1474.00,53.219
1475.00,53.231
1476.00,53.280
1477.00,53.241
1478.00,53.275
1479.00,53.287
1480.00,53.255
1481.00,53.291
1482.00,53.355
1483.00,53.326
1484.00,53.355
1485.00,53.337
1486.00,53.352
1487.00,53.395
1488.00,53.365
1489.00,53.384
1490.00,53.385
1491.00,53.387
1492.00,53.438
1493.00,53.447
1494.00,53.468
1495.00,53.492
1496.00,53.483
1497.00,53.487
1498.00,53.508
1499.00,53.504
1500.00,53.509
1501.00, 
1502.00, 
1503.00, 
1504.00, 
1505.00, 
1506.00, 
1507.00, 
1508.00, 
1509.00, 
1510.00, 
1511.00, 
1512.00, 
1513.00, 
1514.00, 
1515.00, 
1516.00, 
1517.00, 
1518.00, 
1519.00, 
1520.00, 
1521.00, 
1522.00, 
1523.00, 
1524.00, 
1525.00, 
1526.00, 
1527.00, 
1528.00, 
1529.00, 
1530.00, 
1531.00, 
1532.00, 
1533.00, 
1534.00, 
1535.00, 
1536.00, 
1537.00, 
1538.00, 
1539.00, 
1540.00, 
1541.00, 
1542.00, 
1543.00, 
1544.00, 
1545.00, 
1546.00, 
1547.00, 
1548.00, 
1549.00, 
1550.00, 
1551.00, 
1552.00, 
1553.00, 
1554.00, 
1555.00, 
1556.00, 
1557.00, 
1558.00, 
1559.00, 
1560.00, 
1561.00, 
1562.00, 
1563.00, 
1564.00, 
1565.00, 
1566.00, 
1567.00, 
1568.00, 
1569.00, 
1570.00, 
1571.00, 
1572.00, 
1573.00, 
1574.00, 
1575.00, 
1576.00, 
1577.00, 
1578.00, 
1579.00, 
1580.00, 
1581.00, 
1582.00, 
1583.00, 
1584.00, 
1585.00, 
1586.00, 
1587.00, 
1588.00, 
1589.00, 
1590.00, 
1591.00, 
1592.00, 
1593.00, 
1594.00, 
1595.00, 
1596.00, 
1597.00, 
1598.00, 
1599.00, 
1600.00, 
1601.00, 
1602.00, 
1603.00, 
1604.00, 
1605.00, 
1606.00, 
1607.00, 
1608.00, 
1609.00, 
1610.00, 
1611.00, 
1612.00, 
1613.00, 
1614.00, 
1615.00, 
1616.00, 
1617.00, 
1618.00, 
1619.00, 
1620.00, 
1621.00, 
1622.00, 
1623.00, 
1624.00, 
1625.00, 
1626.00, 
1627.00, 
1628.00, 
1629.00, 
1630.00, 
1631.00, 
1632.00, 
1633.00, 
1634.00, 
1635.00, 
1636.00, 
1637.00, 
1638.00, 
1639.00, 
1640.00, 
1641.00, 
1642.00, 
1643.00, 
1644.00, 
1645.00, 
1646.00, 
1647.00, 
1648.00, 
1649.00, 
1650.00, 
1651.00, 
1652.00, 
1653.00, 
1654.00, 
1655.00, 
1656.00, 
1657.00, 
1658.00, 
1659.00, 
1660.00, 
1661.00, 
1662.00, 
1663.00, 
1664.00, 
1665.00, 
1666.00, 
1667.00, 
1668.00, 
1669.00, 
1670.00, 
1671.00, 
1672.00, 
1673.00, 
1674.00, 
1675.00, 
1676.00, 
1677.00, 
1678.00, 
1679.00, 
1680.00, 
1681.00, 
1682.00, 
1683.00, 
1684.00, 
1685.00, 
1686.00, 
1687.00, 
1688.00, 
1689.00, 
1690.00, 
1691.00, 
1692.00, 
1693.00, 
1694.00, 
1695.00, 
1696.00, 
1697.00, 
1698.00, 
1699.00, 
1700.00, 
1701.00, 
1702.00, 
1703.00, 
1704.00, 
1705.00, 
1706.00, 
1707.00, 
1708.00, 
1709.00, 
1710.00, 
1711.00, 
1712.00, 
1713.00, 
1714.00, 
1715.00, 
1716.00, 
1717.00, 
1718.00, 
1719.00, 
1720.00, 
1721.00, 
1722.00, 
1723.00, 
1724.00, 
1725.00, 
1726.00, 
1727.00, 
1728.00, 
1729.00, 
1730.00, 
1731.00, 
1732.00, 
1733.00, 
1734.00, 
1735.00, 
1736.00, 
1737.00, 
1738.00, 
1739.00, 
1740.00, 
1741.00, 
1742.00, 
1743.00, 
1744.00, 
1745.00, 
1746.00, 
1747.00, 
1748.00, 
1749.00, 
1750.00, 
1751.00, 
1752.00, 
1753.00, 
1754.00, 
1755.00, 
1756.00, 
1757.00, 
1758.00, 
1759.00, 
1760.00, 
1761.00, 
1762.00, 
1763.00, 
1764.00, 
1765.00, 
1766.00, 
1767.00, 
1768.00, 
1769.00, 
1770.00, 
1771.00, 
1772.00, 
1773.00, 
1774.00, 
1775.00, 
1776.00, 
1777.00, 
1778.00, 
1779.00, 
1780.00, 
1781.00, 
1782.00, 
1783.00, 
1784.00, 
1785.00, 
1786.00, 
1787.00, 
1788.00, 
1789.00, 
1790.00, 
1791.00, 
1792.00, 
1793.00, 
1794.00, 
1795.00, 
1796.00, 
1797.00, 
1798.00, 
1799.00, 
1800.00, 
1801.00, 
1802.00, 
1803.00, 
1804.00, 
1805.00, 
1806.00, 
1807.00, 
1808.00, 
1809.00, 
1810.00, 
1811.00, 
1812.00, 
1813.00, 
1814.00, 
1815.00, 
1816.00, 
1817.00, 
1818.00, 
1819.00, 
1820.00, 
1821.00, 
1822.00, 
1823.00, 
1824.00, 
1825.00, 
1826.00, 
1827.00, 
1828.00, 
1829.00, 
1830.00, 
1831.00, 
1832.00, 
1833.00, 
1834.00, 
1835.00, 
1836.00, 
1837.00, 
1838.00, 
1839.00, 
1840.00, 
1841.00, 
1842.00, 
1843.00, 
1844.00, 
1845.00, 
1846.00, 
1847.00, 
1848.00, 
1849.00, 
1850.00, 
1851.00, 
1852.00, 
1853.00, 
1854.00, 
1855.00, 
1856.00, 
1857.00, 
1858.00, 
1859.00, 
1860.00, 
1861.00, 
1862.00, 
1863.00, 
1864.00, 
1865.00, 
1866.00, 
1867.00, 
1868.00, 
1869.00, 
1870.00, 
1871.00, 
1872.00, 
1873.00, 
1874.00, 
1875.00, 
1876.00, 
1877.00, 
1878.00, 
1879.00, 
1880.00, 
1881.00, 
1882.00, 
1883.00, 
1884.00, 
1885.00, 
1886.00, 
1887.00, 
1888.00, 
1889.00, 
1890.00, 
1891.00, 
1892.00, 
1893.00, 
1894.00, 
1895.00, 
1896.00, 
1897.00, 
1898.00, 
1899.00, 
1900.00, 
1901.00, 
1902.00, 
1903.00, 
1904.00, 
1905.00, 
1906.00, 
1907.00, 
1908.00, 
1909.00, 
1910.00, 
1911.00, 
1912.00, 
1913.00, 
1914.00, 
1915.00, 
1916.00, 
1917.00, 
1918.00, 
1919.00, 
1920.00, 
1921.00, 
1922.00, 
1923.00, 
1924.00, 
1925.00, 
1926.00, 
1927.00, 
1928.00, 
1929.00, 
1930.00, 
1931.00, 
1932.00, 
1933.00, 
1934.00, 
1935.00, 
1936.00, 
1937.00, 
1938.00, 
1939.00, 
1940.00, 
1941.00, 
1942.00, 
1943.00, 
1944.00, 
1945.00, 
1946.00, 
1947.00, 
1948.00, 
1949.00, 
1950.00, 
1951.00, 
1952.00, 
1953.00, 
1954.00, 
1955.00, 
1956.00, 
1957.00, 
1958.00, 
1959.00, 
1960.00, 
1961.00, 
1962.00, 
1963.00, 
1964.00, 
1965.00, 
1966.00, 
1967.00, 
1968.00, 
1969.00, 
1970.00, 
1971.00, 
1972.00, 
1973.00, 
1974.00, 
1975.00, 
1976.00, 
1977.00, 
1978.00, 
1979.00, 
1980.00, 
1981.00, 
1982.00, 
1983.00, 
1984.00, 
1985.00, 
1986.00, 
1987.00, 
1988.00, 
1989.00, 
1990.00, 
1991.00, 
1992.00, 
1993.00, 
1994.00, 
1995.00, 
1996.00, 
1997.00, 
1998.00, 
1999.00, 
2000.00, 
2001.00, 
2002.00, 
2003.00, 
2004.00, 
2005.00, 
2006.00, 
2007.00, 
2008.00, 
2009.00, 
2010.00, 
2011.00, 
2012.00, 
2013.00, 
2014.00, 
2015.00, 
2016.00, 
2017.00, 
2018.00, 
2019.00, 
2020.00, 
2021.00, 
2022.00, 
2023.00, 
2024.00, 
2025.00, 
2026.00, 
2027.00, 
2028.00, 
2029.00, 
2030.00, 
2031.00, 
2032.00, 
2033.00, 
2034.00, 
2035.00, 
2036.00, 
2037.00, 
2038.00, 
2039.00, 
2040.00, 
2041.00, 
2042.00, 
2043.00, 
2044.00, 
2045.00, 
2046.00, 
2047.00, 
2048.00, 
2049.00, 
2050.00, 
2051.00, 
2052.00, 
2053.00, 
2054.00, 
2055.00, 
2056.00, 
2057.00, 
2058.00, 
2059.00, 
2060.00, 
2061.00, 
2062.00, 
2063.00, 
2064.00, 
2065.00, 
2066.00, 
2067.00, 
2068.00, 
2069.00, 
2070.00, 
2071.00, 
2072.00, 
2073.00, 
2074.00, 
2075.00, 
2076.00, 
2077.00, 
2078.00, 
2079.00, 
2080.00, 
2081.00, 
2082.00, 
2083.00, 
2084.00, 
2085.00, 
2086.00, 
2087.00, 
2088.00, 
2089.00, 
2090.00, 
2091.00, 
2092.00, 
2093.00, 
2094.00, 
2095.00, 
2096.00, 
2097.00, 
2098.00, 
2099.00, 
2100.00, 
2101.00, 
2102.00, 
2103.00, 
2104.00, 
2105.00, 
2106.00, 
2107.00, 
2108.00, 
2109.00, 
2110.00, 
2111.00, 
2112.00, 
2113.00, 
2114.00, 
2115.00, 
2116.00, 
2117.00, 
2118.00, 
2119.00, 
2120.00, 
2121.00, 
2122.00, 
2123.00, 
2124.00, 
2125.00, 
2126.00, 
2127.00, 
2128.00, 
2129.00, 
2130.00, 
2131.00, 
2132.00, 
2133.00, 
2134.00, 
2135.00, 
2136.00, 
2137.00, 
2138.00, 
2139.00, 
2140.00, 
2141.00, 
2142.00, 
2143.00, 
2144.00, 
2145.00, 
2146.00, 
2147.00, 
2148.00, 
2149.00, 
2150.00, 
2151.00, 
2152.00, 
2153.00, 
2154.00, 
2155.00, 
2156.00, 
2157.00, 
2158.00, 
2159.00, 
2160.00, 
2161.00, 
2162.00, 
2163.00, 
2164.00, 
2165.00, 
2166.00, 
2167.00, 
2168.00, 
2169.00, 
2170.00, 
2171.00, 
2172.00, 
2173.00, 
2174.00, 
2175.00, 
2176.00, 
2177.00, 
2178.00, 
2179.00, 
2180.00, 
2181.00, 
2182.00, 
2183.00, 
2184.00, 
2185.00, 
2186.00, 
2187.00, 
2188.00, 
2189.00, 
2190.00, 
2191.00, 
2192.00, 
2193.00, 
2194.00, 
2195.00, 
2196.00, 
2197.00, 
2198.00, 
2199.00, 
2200.00, 
2201.00, 
2202.00, 
2203.00, 
2204.00, 
2205.00, 
2206.00, 
2207.00, 
2208.00, 
2209.00, 
2210.00, 
2211.00, 
2212.00, 
2213.00, 
2214.00, 
2215.00, 
2216.00, 
2217.00, 
2218.00, 
2219.00, 
2220.00, 
2221.00, 
2222.00, 
2223.00, 
2224.00, 
2225.00, 
2226.00, 
2227.00, 
2228.00, 
2229.00, 
2230.00, 
2231.00, 
2232.00, 
2233.00, 
2234.00, 
2235.00, 
2236.00, 
2237.00, 
2238.00, 
2239.00, 
2240.00, 
2241.00, 
2242.00, 
2243.00, 
2244.00, 
2245.00, 
2246.00, 
2247.00, 
2248.00, 
2249.00, 
2250.00, 
2251.00, 
2252.00, 
2253.00, 
2254.00, 
2255.00, 
2256.00, 
2257.00, 
2258.00, 
2259.00, 
2260.00, 
2261.00, 
2262.00, 
2263.00, 
2264.00, 
2265.00, 
2266.00, 
2267.00, 
2268.00, 
2269.00, 
2270.00, 
2271.00, 
2272.00, 
2273.00, 
2274.00, 
2275.00, 
2276.00, 
2277.00, 
2278.00, 
2279.00, 
2280.00, 
2281.00, 
2282.00, 
2283.00, 
2284.00, 
2285.00, 
2286.00, 
2287.00, 
2288.00, 
2289.00, 
2290.00, 
2291.00, 
2292.00, 
2293.00, 
2294.00, 
2295.00, 
2296.00, 
2297.00, 
2298.00, 
2299.00, 
2300.00, 
2301.00, 
2302.00, 
2303.00, 
2304.00, 
2305.00, 
2306.00, 
2307.00, 
2308.00, 
2309.00, 
2310.00, 
2311.00, 
2312.00, 
2313.00, 
2314.00, 
2315.00, 
2316.00, 
2317.00, 
2318.00, 
2319.00, 
2320.00, 
2321.00, 
2322.00, 
2323.00, 
2324.00, 
2325.00, 
2326.00, 
2327.00, 
2328.00, 
2329.00, 
2330.00, 
2331.00, 
2332.00, 
2333.00, 
2334.00, 
2335.00, 
2336.00, 
2337.00, 
2338.00, 
2339.00, 
2340.00, 
2341.00, 
2342.00, 
2343.00, 
2344.00, 
2345.00, 
2346.00, 
2347.00, 
2348.00, 
2349.00, 
2350.00, 
2351.00, 
2352.00, 
2353.00, 
2354.00, 
2355.00, 
2356.00, 
2357.00, 
2358.00, 
2359.00, 
2360.00, 
2361.00, 
2362.00, 
2363.00, 
2364.00, 
2365.00, 
2366.00, 
2367.00, 
2368.00, 
2369.00, 
2370.00, 
2371.00, 
2372.00, 
2373.00, 
2374.00, 
2375.00, 
2376.00, 
2377.00, 
2378.00, 
2379.00, 
2380.00, 
2381.00, 
2382.00, 
2383.00, 
2384.00, 
2385.00, 
2386.00, 
2387.00, 
2388.00, 
2389.00, 
2390.00, 
2391.00, 
2392.00, 
2393.00, 
2394.00, 
2395.00, 
2396.00, 
2397.00, 
2398.00, 
2399.00, 
2400.00, 
2401.00, 
2402.00, 
2403.00, 
2404.00, 
2405.00, 
2406.00, 
2407.00, 
2408.00, 
2409.00, 
2410.00, 
2411.00, 
2412.00, 
2413.00, 
2414.00, 
2415.00, 
2416.00, 
2417.00, 
2418.00, 
2419.00, 
2420.00, 
2421.00, 
2422.00, 
2423.00, 
2424.00, 
2425.00, 
2426.00, 
2427.00, 
2428.00, 
2429.00, 
2430.00, 
2431.00, 
2432.00, 
2433.00, 
2434.00, 
2435.00, 
2436.00, 
2437.00, 
2438.00, 
2439.00, 
2440.00, 
2441.00, 
2442.00, 
2443.00, 
2444.00, 
2445.00, 
2446.00, 
2447.00, 
2448.00, 
2449.00, 
2450.00, 
2451.00, 
2452.00, 
2453.00, 
2454.00, 
2455.00, 
2456.00, 
2457.00, 
2458.00, 
2459.00, 
2460.00, 
2461.00, 
2462.00, 
2463.00, 
2464.00, 
2465.00, 
2466.00, 
2467.00, 
2468.00, 
2469.00, 
2470.00, 
2471.00, 
2472.00, 
2473.00, 
2474.00, 
2475.00, 
2476.00, 
2477.00, 
2478.00, 
2479.00, 
2480.00, 
2481.00, 
2482.00, 
2483.00, 
2484.00, 
2485.00, 
2486.00, 
2487.00, 
2488.00, 
2489.00, 
2490.00, 
2491.00, 
2492.00, 
2493.00, 
2494.00, 
2495.00, 
2496.00, 
2497.00, 
2498.00, 
2499.00, 
2500.00, 
2501.00, 
2502.00, 
2503.00, 
2504.00, 
2505.00, 
2506.00, 
2507.00, 
2508.00, 
2509.00, 
2510.00, 
2511.00, 
2512.00, 
2513.00, 
2514.00, 
2515.00, 
2516.00, 
2517.00, 
2518.00, 
2519.00, 
2520.00, 
2521.00, 
2522.00, 
2523.00, 
2524.00, 
2525.00, 
2526.00, 
2527.00, 
2528.00, 
2529.00, 
2530.00, 
2531.00, 
2532.00, 
2533.00, 
2534.00, 
2535.00, 
2536.00, 
2537.00, 
2538.00, 
2539.00, 
2540.00, 
2541.00, 
2542.00, 
2543.00, 
2544.00, 
2545.00, 
2546.00, 
2547.00, 
2548.00, 
2549.00, 
2550.00, 
2551.00, 
2552.00, 
2553.00, 
2554.00, 
2555.00, 
2556.00, 
2557.00, 
2558.00, 
2559.00, 
2560.00, 
2561.00, 
2562.00, 
2563.00, 
2564.00, 
2565.00, 
2566.00, 
2567.00, 
2568.00, 
2569.00, 
2570.00, 
2571.00, 
2572.00, 
2573.00, 
2574.00, 
2575.00, 
2576.00, 
2577.00, 
2578.00, 
2579.00, 
2580.00, 
2581.00, 
2582.00, 
2583.00, 
2584.00, 
2585.00, 
2586.00, 
2587.00, 
2588.00, 
2589.00, 
2590.00, 
2591.00, 
2592.00, 
2593.00, 
2594.00, 
2595.00, 
2596.00, 
2597.00, 
2598.00, 
2599.00, 
2600.00, 
