"1cP3 - RawData"
"Wavelength nm.","T%"
200.00,0.005
201.00,0.001
202.00,0.002
203.00,0.000
204.00,0.000
205.00,-0.000
206.00,0.002
207.00,0.001
208.00,0.001
209.00,0.003
210.00,0.002
211.00,-0.001
212.00,-0.001
213.00,0.001
214.00,0.003
215.00,0.000
216.00,0.000
217.00,0.001
218.00,-0.002
219.00,0.002
220.00,0.002
221.00,-0.000
222.00,0.001
223.00,0.001
224.00,0.000
225.00,0.001
226.00,-0.001
227.00,0.001
228.00,0.000
229.00,-0.002
230.00,-0.001
231.00,-0.000
232.00,0.001
233.00,0.001
234.00,-0.000
235.00,-0.000
236.00,0.002
237.00,0.001
238.00,0.001
239.00,0.000
240.00,0.000
241.00,-0.000
242.00,-0.001
243.00,0.000
244.00,-0.001
245.00,0.001
246.00,-0.000
247.00,-0.001
248.00,-0.002
249.00,0.001
250.00,0.001
251.00,0.001
252.00,0.001
253.00,0.001
254.00,-0.001
255.00,0.001
256.00,0.000
257.00,0.001
258.00,0.002
259.00,-0.000
260.00,-0.001
261.00,-0.000
262.00,-0.002
263.00,0.000
264.00,-0.003
265.00,0.001
266.00,0.000
267.00,-0.001
268.00,0.000
269.00,0.000
270.00,-0.001
271.00,-0.000
272.00,-0.000
273.00,-0.001
274.00,0.001
275.00,-0.000
276.00,-0.000
277.00,0.000
278.00,0.003
279.00,0.001
280.00,0.000
281.00,0.000
282.00,-0.001
283.00,0.002
284.00,0.001
285.00,-0.001
286.00,0.000
287.00,0.003
288.00,-0.000
289.00,-0.001
290.00,-0.000
291.00,-0.000
292.00,0.001
293.00,-0.001
294.00,0.000
295.00,-0.001
296.00,0.001
297.00,0.001
298.00,-0.000
299.00,0.000
300.00,-0.000
301.00,-0.000
302.00,0.001
303.00,-0.001
304.00,0.000
305.00,0.002
306.00,0.002
307.00,0.003
308.00,0.008
309.00,0.013
310.00,0.019
311.00,0.033
312.00,0.053
313.00,0.079
314.00,0.116
315.00,0.169
316.00,0.240
317.00,0.339
318.00,0.468
319.00,0.632
320.00,0.842
321.00,1.099
322.00,1.395
323.00,1.770
324.00,2.183
325.00,2.625
326.00,3.131
327.00,3.724
328.00,4.361
329.00,5.040
330.00,5.764
331.00,6.520
332.00,7.340
333.00,8.203
334.00,9.060
335.00,9.967
336.00,10.870
337.00,11.835
338.00,12.764
339.00,13.623
340.00,14.596
341.00,15.457
342.00,16.302
343.00,17.144
344.00,17.939
345.00,18.780
346.00,19.526
347.00,20.236
348.00,20.946
349.00,21.558
350.00,22.151
351.00,22.743
352.00,23.223
353.00,23.760
354.00,24.243
355.00,24.705
356.00,25.163
357.00,25.510
358.00,25.938
359.00,26.347
360.00,26.686
361.00,26.971
362.00,27.270
363.00,27.541
364.00,27.663
365.00,27.909
366.00,28.053
367.00,28.200
368.00,28.377
369.00,28.477
370.00,28.562
371.00,28.583
372.00,28.645
373.00,28.616
374.00,28.672
375.00,28.651
376.00,28.580
377.00,28.500
378.00,28.421
379.00,28.313
380.00,28.303
381.00,28.337
382.00,28.322
383.00,28.455
384.00,28.480
385.00,28.633
386.00,28.669
387.00,28.855
388.00,28.982
389.00,29.047
390.00,29.152
391.00,29.245
392.00,29.334
393.00,29.336
394.00,29.424
395.00,29.544
396.00,29.475
397.00,29.527
398.00,29.557
399.00,29.592
400.00,29.638
401.00,29.641
402.00,29.664
403.00,29.642
404.00,29.660
405.00,29.635
406.00,29.634
407.00,29.578
408.00,29.618
409.00,29.522
410.00,29.473
411.00,29.474
412.00,29.407
413.00,29.408
414.00,29.359
415.00,29.393
416.00,29.420
417.00,29.355
418.00,29.428
419.00,29.504
420.00,29.571
421.00,29.528
422.00,29.555
423.00,29.618
424.00,29.637
425.00,29.689
426.00,29.644
427.00,29.698
428.00,29.747
429.00,29.712
430.00,29.834
431.00,29.869
432.00,29.878
433.00,29.927
434.00,30.010
435.00,30.066
436.00,30.111
437.00,30.178
438.00,30.220
439.00,30.271
440.00,30.345
441.00,30.365
442.00,30.496
443.00,30.520
444.00,30.622
445.00,30.704
446.00,30.767
447.00,30.859
448.00,30.970
449.00,31.028
450.00,31.111
451.00,31.207
452.00,31.306
453.00,31.426
454.00,31.488
455.00,31.615
456.00,31.732
457.00,31.823
458.00,31.929
459.00,32.023
460.00,32.194
461.00,32.252
462.00,32.314
463.00,32.504
464.00,32.609
465.00,32.669
466.00,32.825
467.00,32.937
468.00,33.034
469.00,33.041
470.00,33.159
471.00,33.223
472.00,33.346
473.00,33.396
474.00,33.486
475.00,33.603
476.00,33.672
477.00,33.771
478.00,33.882
479.00,34.062
480.00,34.148
481.00,34.230
482.00,34.371
483.00,34.509
484.00,34.669
485.00,34.785
486.00,34.935
487.00,35.069
488.00,35.149
489.00,35.299
490.00,35.435
491.00,35.552
492.00,35.798
493.00,35.866
494.00,35.843
495.00,35.966
496.00,36.085
497.00,36.173
498.00,36.381
499.00,36.483
500.00,36.615
501.00,36.708
502.00,36.785
503.00,36.890
504.00,36.849
505.00,37.009
506.00,37.176
507.00,37.196
508.00,37.345
509.00,37.543
510.00,37.564
511.00,37.660
512.00,37.832
513.00,37.893
514.00,38.003
515.00,38.212
516.00,38.257
517.00,38.336
518.00,38.520
519.00,38.531
520.00,38.559
521.00,38.639
522.00,38.740
523.00,38.795
524.00,38.866
525.00,38.948
526.00,39.095
527.00,39.117
528.00,39.136
529.00,39.314
530.00,39.486
531.00,39.635
532.00,39.689
533.00,39.781
534.00,39.859
535.00,39.954
536.00,40.000
537.00,40.084
538.00,40.152
539.00,40.201
540.00,40.283
541.00,40.291
542.00,40.375
543.00,40.397
544.00,40.496
545.00,40.597
546.00,40.603
547.00,40.742
548.00,40.841
549.00,40.874
550.00,40.939
551.00,41.108
552.00,41.067
553.00,41.133
554.00,41.214
555.00,41.164
556.00,41.285
557.00,41.320
558.00,41.394
559.00,41.419
560.00,41.558
561.00,41.606
562.00,41.709
563.00,41.750
564.00,41.783
565.00,41.839
566.00,41.819
567.00,41.811
568.00,41.892
569.00,41.977
570.00,41.942
571.00,42.052
572.00,42.099
573.00,41.938
574.00,41.991
575.00,42.134
576.00,42.033
577.00,42.178
578.00,42.278
579.00,42.312
580.00,42.370
581.00,42.556
582.00,42.589
583.00,42.584
584.00,42.742
585.00,42.720
586.00,42.791
587.00,42.876
588.00,42.807
589.00,42.761
590.00,42.914
591.00,42.983
592.00,42.909
593.00,42.994
594.00,43.100
595.00,43.168
596.00,43.257
597.00,43.309
598.00,43.377
599.00,43.330
600.00,43.384
601.00,43.387
602.00,43.356
603.00,43.409
604.00,43.479
605.00,43.590
606.00,43.517
607.00,43.552
608.00,43.737
609.00,43.804
610.00,43.572
611.00,43.720
612.00,43.704
613.00,43.791
614.00,43.849
615.00,43.760
616.00,43.870
617.00,43.986
618.00,44.053
619.00,44.023
620.00,44.061
621.00,44.098
622.00,44.222
623.00,44.273
624.00,44.241
625.00,44.306
626.00,44.399
627.00,44.341
628.00,44.480
629.00,44.515
630.00,44.466
631.00,44.411
632.00,44.565
633.00,44.700
634.00,44.803
635.00,44.808
636.00,44.876
637.00,44.869
638.00,44.887
639.00,44.992
640.00,45.030
641.00,45.015
642.00,45.086
643.00,45.103
644.00,45.207
645.00,45.236
646.00,45.367
647.00,45.394
648.00,45.446
649.00,45.356
650.00,45.367
651.00,45.594
652.00,45.627
653.00,45.602
654.00,45.629
655.00,45.786
656.00,46.050
657.00,45.897
658.00,46.013
659.00,46.001
660.00,45.944
661.00,46.071
662.00,46.088
663.00,46.144
664.00,46.367
665.00,46.531
666.00,46.474
667.00,46.471
668.00,46.375
669.00,46.710
670.00,46.922
671.00,46.766
672.00,46.861
673.00,46.908
674.00,46.897
675.00,47.007
676.00,47.065
677.00,47.258
678.00,47.032
679.00,47.258
680.00,47.291
681.00,47.450
682.00,47.333
683.00,47.335
684.00,47.498
685.00,47.580
686.00,47.417
687.00,47.557
688.00,47.570
689.00,47.609
690.00,47.798
691.00,48.032
692.00,47.796
693.00,47.778
694.00,47.956
695.00,48.045
696.00,48.062
697.00,48.018
698.00,48.049
699.00,48.273
700.00,48.263
701.00,48.249
702.00,48.356
703.00,48.488
704.00,48.396
705.00,48.446
706.00,48.432
707.00,48.495
708.00,48.346
709.00,48.707
710.00,49.171
711.00,48.539
712.00,48.580
713.00,48.687
714.00,48.837
715.00,48.780
716.00,48.709
717.00,48.929
718.00,49.031
719.00,48.921
720.00,49.043
721.00,53.539
722.00,53.559
723.00,53.474
724.00,53.521
725.00,53.390
726.00,53.396
727.00,53.397
728.00,53.349
729.00,53.465
730.00,53.333
731.00,53.404
732.00,53.433
733.00,53.429
734.00,53.400
735.00,53.432
736.00,53.456
737.00,53.408
738.00,53.499
739.00,53.437
740.00,53.432
741.00,53.494
742.00,53.469
743.00,53.445
744.00,53.394
745.00,53.400
746.00,53.383
747.00,53.306
748.00,53.394
749.00,53.346
750.00,53.391
751.00,53.297
752.00,53.268
753.00,53.286
754.00,53.236
755.00,53.126
756.00,53.236
757.00,53.197
758.00,53.223
759.00,53.101
760.00,53.150
761.00,53.108
762.00,53.143
763.00,53.153
764.00,53.095
765.00,53.159
766.00,53.161
767.00,53.122
768.00,53.108
769.00,53.029
770.00,53.072
771.00,53.070
772.00,53.021
773.00,53.096
774.00,53.078
775.00,53.052
776.00,53.045
777.00,53.100
778.00,52.997
779.00,52.951
780.00,53.003
781.00,52.919
782.00,52.970
783.00,53.048
784.00,52.854
785.00,52.852
786.00,52.905
787.00,52.889
788.00,52.863
789.00,52.845
790.00,52.744
791.00,52.823
792.00,52.757
793.00,52.668
794.00,52.711
795.00,52.712
796.00,52.643
797.00,52.613
798.00,52.690
799.00,52.540
800.00,52.504
801.00,52.630
802.00,52.507
803.00,52.553
804.00,52.398
805.00,52.464
806.00,52.478
807.00,52.363
808.00,52.463
809.00,52.385
810.00,52.344
811.00,52.312
812.00,52.359
813.00,52.293
814.00,52.230
815.00,52.250
816.00,52.224
817.00,52.204
818.00,52.116
819.00,52.143
820.00,51.998
821.00,52.065
822.00,52.014
823.00,52.006
824.00,52.154
825.00,51.678
826.00,51.947
827.00,52.064
828.00,51.972
829.00,52.002
830.00,51.978
831.00,54.312
832.00,54.294
833.00,54.208
834.00,54.216
835.00,54.173
836.00,54.157
837.00,54.146
838.00,54.154
839.00,54.105
840.00,54.042
841.00,54.027
842.00,54.018
843.00,53.971
844.00,53.974
845.00,53.940
846.00,53.951
847.00,53.885
848.00,53.923
849.00,53.798
850.00,53.769
851.00,53.753
852.00,53.754
853.00,53.671
854.00,53.660
855.00,53.617
856.00,53.586
857.00,53.576
858.00,53.538
859.00,53.518
860.00,53.506
861.00,53.517
862.00,53.453
863.00,53.461
864.00,53.427
865.00,53.441
866.00,53.414
867.00,53.388
868.00,53.398
869.00,53.376
870.00,53.353
871.00,53.331
872.00,53.347
873.00,53.303
874.00,53.318
875.00,53.269
876.00,53.254
877.00,53.245
878.00,53.224
879.00,53.201
880.00,53.188
881.00,53.173
882.00,53.177
883.00,53.125
884.00,53.092
885.00,53.104
886.00,53.066
887.00,53.072
888.00,53.025
889.00,53.005
890.00,52.962
891.00,52.958
892.00,52.909
893.00,52.902
894.00,52.924
895.00,52.883
896.00,52.856
897.00,52.835
898.00,52.804
899.00,52.812
900.00,52.786
901.00,52.771
902.00,52.779
903.00,52.737
904.00,52.717
905.00,52.712
906.00,52.706
907.00,52.679
908.00,52.619
909.00,52.618
910.00,52.579
911.00,52.557
912.00,52.573
913.00,52.512
914.00,52.485
915.00,52.477
916.00,52.482
917.00,52.426
918.00,52.367
919.00,52.466
920.00,52.351
921.00,52.357
922.00,52.355
923.00,52.310
924.00,52.279
925.00,52.265
926.00,52.270
927.00,52.242
928.00,52.206
929.00,52.188
930.00,52.167
931.00,52.138
932.00,52.097
933.00,52.101
934.00,52.209
935.00,52.081
936.00,52.047
937.00,52.028
938.00,52.045
939.00,52.013
940.00,51.983
941.00,51.972
942.00,51.950
943.00,51.940
944.00,51.896
945.00,51.901
946.00,51.881
947.00,51.838
948.00,51.815
949.00,51.825
950.00,51.791
951.00,51.763
952.00,51.732
953.00,51.708
954.00,51.678
955.00,51.631
956.00,51.617
957.00,51.595
958.00,51.582
959.00,51.533
960.00,51.520
961.00,51.512
962.00,51.508
963.00,51.446
964.00,51.452
965.00,51.461
966.00,51.433
967.00,51.422
968.00,51.408
969.00,51.427
970.00,51.408
971.00,51.420
972.00,51.366
973.00,51.424
974.00,51.431
975.00,51.401
976.00,51.424
977.00,51.396
978.00,51.419
979.00,51.382
980.00,51.402
981.00,51.406
982.00,51.379
983.00,51.365
984.00,51.356
985.00,51.371
986.00,51.314
987.00,51.350
988.00,51.309
989.00,51.297
990.00,51.295
991.00,51.265
992.00,51.272
993.00,51.241
994.00,51.231
995.00,51.222
996.00,51.236
997.00,51.211
998.00,51.205
999.00,51.222
1000.00,51.172
1001.00,51.162
1002.00,51.143
1003.00,51.151
1004.00,51.125
1005.00,51.096
1006.00,51.136
1007.00,51.093
1008.00,51.078
1009.00,51.058
1010.00,51.049
1011.00,51.030
1012.00,51.020
1013.00,51.015
1014.00,51.000
1015.00,51.012
1016.00,50.948
1017.00,50.939
1018.00,50.933
1019.00,50.878
1020.00,50.892
1021.00,50.854
1022.00,50.852
1023.00,50.811
1024.00,50.808
1025.00,50.794
1026.00,50.778
1027.00,50.753
1028.00,50.762
1029.00,50.748
1030.00,50.710
1031.00,50.735
1032.00,50.694
1033.00,50.700
1034.00,50.692
1035.00,50.633
1036.00,50.611
1037.00,50.599
1038.00,50.575
1039.00,50.550
1040.00,50.552
1041.00,50.513
1042.00,50.534
1043.00,50.512
1044.00,50.547
1045.00,50.529
1046.00,50.503
1047.00,50.525
1048.00,50.538
1049.00,50.532
1050.00,50.538
1051.00,50.576
1052.00,50.554
1053.00,50.569
1054.00,50.556
1055.00,50.571
1056.00,50.595
1057.00,50.589
1058.00,50.577
1059.00,50.581
1060.00,50.580
1061.00,50.573
1062.00,50.556
1063.00,50.554
1064.00,50.555
1065.00,50.519
1066.00,50.520
1067.00,50.547
1068.00,50.552
1069.00,50.531
1070.00,50.516
1071.00,50.493
1072.00,50.508
1073.00,50.488
1074.00,50.478
1075.00,50.470
1076.00,50.467
1077.00,50.454
1078.00,50.446
1079.00,50.437
1080.00,50.444
1081.00,50.442
1082.00,50.405
1083.00,50.407
1084.00,50.426
1085.00,50.412
1086.00,50.416
1087.00,50.432
1088.00,50.393
1089.00,50.381
1090.00,50.357
1091.00,50.364
1092.00,50.342
1093.00,50.316
1094.00,50.315
1095.00,50.322
1096.00,50.309
1097.00,50.310
1098.00,50.299
1099.00,50.289
1100.00,50.295
1101.00,50.290
1102.00,50.296
1103.00,50.267
1104.00,50.248
1105.00,50.251
1106.00,50.240
1107.00,50.223
1108.00,50.216
1109.00,50.213
1110.00,50.188
1111.00,50.193
1112.00,50.164
1113.00,50.159
1114.00,50.159
1115.00,50.158
1116.00,50.164
1117.00,50.162
1118.00,50.133
1119.00,50.141
1120.00,50.128
1121.00,50.119
1122.00,50.114
1123.00,50.093
1124.00,50.078
1125.00,50.080
1126.00,50.072
1127.00,50.074
1128.00,50.075
1129.00,50.044
1130.00,50.049
1131.00,50.047
1132.00,50.029
1133.00,50.045
1134.00,50.030
1135.00,50.029
1136.00,50.030
1137.00,50.026
1138.00,50.019
1139.00,50.036
1140.00,50.013
1141.00,50.017
1142.00,49.992
1143.00,50.006
1144.00,50.009
1145.00,50.003
1146.00,50.011
1147.00,50.001
1148.00,49.982
1149.00,49.992
1150.00,50.000
1151.00,49.994
1152.00,49.992
1153.00,49.985
1154.00,49.958
1155.00,49.970
1156.00,49.950
1157.00,49.952
1158.00,49.958
1159.00,49.948
1160.00,49.950
1161.00,49.965
1162.00,49.941
1163.00,49.956
1164.00,49.945
1165.00,49.951
1166.00,49.962
1167.00,49.933
1168.00,49.952
1169.00,49.939
1170.00,49.938
1171.00,49.923
1172.00,49.935
1173.00,49.934
1174.00,49.948
1175.00,49.936
1176.00,49.937
1177.00,49.938
1178.00,49.920
1179.00,49.939
1180.00,49.933
1181.00,49.937
1182.00,49.929
1183.00,49.941
1184.00,49.918
1185.00,49.936
1186.00,49.909
1187.00,49.914
1188.00,49.926
1189.00,49.909
1190.00,49.926
1191.00,49.943
1192.00,49.927
1193.00,49.917
1194.00,49.929
1195.00,49.888
1196.00,49.918
1197.00,49.914
1198.00,49.907
1199.00,49.908
1200.00,49.909
1201.00,49.922
1202.00,49.902
1203.00,49.903
1204.00,49.906
1205.00,49.952
1206.00,49.927
1207.00,49.929
1208.00,49.900
1209.00,49.904
1210.00,49.911
1211.00,49.891
1212.00,49.922
1213.00,49.900
1214.00,49.916
1215.00,49.903
1216.00,49.912
1217.00,49.910
1218.00,49.925
1219.00,49.944
1220.00,49.921
1221.00,49.957
1222.00,49.913
1223.00,49.933
1224.00,49.942
1225.00,49.920
1226.00,49.928
1227.00,49.931
1228.00,49.947
1229.00,49.952
1230.00,49.974
1231.00,49.968
1232.00,49.997
1233.00,49.991
1234.00,50.000
1235.00,49.994
1236.00,49.982
1237.00,49.996
1238.00,49.998
1239.00,49.980
1240.00,49.972
1241.00,49.985
1242.00,49.994
1243.00,49.999
1244.00,49.979
1245.00,50.032
1246.00,50.044
1247.00,50.021
1248.00,50.025
1249.00,50.062
1250.00,50.048
1251.00,50.043
1252.00,50.068
1253.00,50.032
1254.00,50.069
1255.00,50.044
1256.00,50.034
1257.00,50.032
1258.00,50.078
1259.00,50.077
1260.00,50.101
1261.00,50.085
1262.00,50.089
1263.00,50.073
1264.00,50.088
1265.00,50.104
1266.00,50.106
1267.00,50.139
1268.00,50.139
1269.00,50.132
1270.00,50.149
1271.00,50.158
1272.00,50.148
1273.00,50.172
1274.00,50.161
1275.00,50.165
1276.00,50.179
1277.00,50.165
1278.00,50.179
1279.00,50.193
1280.00,50.181
1281.00,50.217
1282.00,50.235
1283.00,50.218
1284.00,50.221
1285.00,50.219
1286.00,50.229
1287.00,50.229
1288.00,50.223
1289.00,50.231
1290.00,50.283
1291.00,50.265
1292.00,50.267
1293.00,50.280
1294.00,50.280
1295.00,50.303
1296.00,50.296
1297.00,50.293
1298.00,50.337
1299.00,50.301
1300.00,50.316
1301.00,50.315
1302.00,50.333
1303.00,50.330
1304.00,50.312
1305.00,50.347
1306.00,50.368
1307.00,50.359
1308.00,50.359
1309.00,50.389
1310.00,50.381
1311.00,50.372
1312.00,50.399
1313.00,50.384
1314.00,50.430
1315.00,50.445
1316.00,50.436
1317.00,50.457
1318.00,50.453
1319.00,50.463
1320.00,50.485
1321.00,50.639
1322.00,50.637
1323.00,50.628
1324.00,50.616
1325.00,50.633
1326.00,50.638
1327.00,50.604
1328.00,50.647
1329.00,50.622
1330.00,50.636
1331.00,50.644
1332.00,50.646
1333.00,50.633
1334.00,50.676
1335.00,50.697
1336.00,50.724
1337.00,50.765
1338.00,50.792
1339.00,50.877
1340.00,50.937
1341.00,50.987
1342.00,51.053
1343.00,51.090
1344.00,51.142
1345.00,51.211
1346.00,51.218
1347.00,51.276
1348.00,51.286
1349.00,51.309
1350.00,51.326
1351.00,51.350
1352.00,51.352
1353.00,51.347
1354.00,51.366
1355.00,51.332
1356.00,51.419
1357.00,51.321
1358.00,51.430
1359.00,51.409
1360.00,51.386
1361.00,51.467
1362.00,51.363
1363.00,51.470
1364.00,51.492
1365.00,51.430
1366.00,51.527
1367.00,51.468
1368.00,51.386
1369.00,51.459
1370.00,51.435
1371.00,51.410
1372.00,51.404
1373.00,51.432
1374.00,51.440
1375.00,51.411
1376.00,51.419
1377.00,51.398
1378.00,51.403
1379.00,51.434
1380.00,51.442
1381.00,51.543
1382.00,51.467
1383.00,51.466
1384.00,51.429
1385.00,51.412
1386.00,51.469
1387.00,51.434
1388.00,51.404
1389.00,51.369
1390.00,51.401
1391.00,51.437
1392.00,51.407
1393.00,51.442
1394.00,51.457
1395.00,51.410
1396.00,51.394
1397.00,51.427
1398.00,51.450
1399.00,51.464
1400.00,51.408
1401.00,51.402
1402.00,51.482
1403.00,51.502
1404.00,51.464
1405.00,51.482
1406.00,51.506
1407.00,51.475
1408.00,51.525
1409.00,51.481
1410.00,51.500
1411.00,51.522
1412.00,51.544
1413.00,51.504
1414.00,51.506
1415.00,51.551
1416.00,51.611
1417.00,51.598
1418.00,51.593
1419.00,51.613
1420.00,51.616
1421.00,51.656
1422.00,51.664
1423.00,51.674
1424.00,51.698
1425.00,51.714
1426.00,51.713
1427.00,51.755
1428.00,51.744
1429.00,51.742
1430.00,51.774
1431.00,51.821
1432.00,51.813
1433.00,51.833
1434.00,51.808
1435.00,51.885
1436.00,51.903
1437.00,51.885
1438.00,51.926
1439.00,51.954
1440.00,51.972
1441.00,52.000
1442.00,51.996
1443.00,52.015
1444.00,52.076
1445.00,52.025
1446.00,52.060
1447.00,52.094
1448.00,52.127
1449.00,52.114
1450.00,52.133
1451.00,52.150
1452.00,52.190
1453.00,52.196
1454.00,52.213
1455.00,52.248
1456.00,52.252
1457.00,52.269
1458.00,52.293
1459.00,52.295
1460.00,52.332
1461.00,52.325
1462.00,52.363
1463.00,52.379
1464.00,52.398
1465.00,52.412
1466.00,52.412
1467.00,52.429
1468.00,52.483
1469.00,52.485
1470.00,52.498
1471.00,52.550
1472.00,52.560
1473.00,52.548
1474.00,52.583
1475.00,52.582
1476.00,52.607
1477.00,52.607
1478.00,52.617
1479.00,52.638
1480.00,52.649
1481.00,52.653
1482.00,52.705
1483.00,52.708
1484.00,52.717
1485.00,52.755
1486.00,52.755
1487.00,52.785
1488.00,52.783
1489.00,52.755
1490.00,52.796
1491.00,52.792
1492.00,52.817
1493.00,52.819
1494.00,52.862
1495.00,52.851
1496.00,52.881
1497.00,52.865
1498.00,52.874
1499.00,52.910
1500.00,52.913
1501.00, 
1502.00, 
1503.00, 
1504.00, 
1505.00, 
1506.00, 
1507.00, 
1508.00, 
1509.00, 
1510.00, 
1511.00, 
1512.00, 
1513.00, 
1514.00, 
1515.00, 
1516.00, 
1517.00, 
1518.00, 
1519.00, 
1520.00, 
1521.00, 
1522.00, 
1523.00, 
1524.00, 
1525.00, 
1526.00, 
1527.00, 
1528.00, 
1529.00, 
1530.00, 
1531.00, 
1532.00, 
1533.00, 
1534.00, 
1535.00, 
1536.00, 
1537.00, 
1538.00, 
1539.00, 
1540.00, 
1541.00, 
1542.00, 
1543.00, 
1544.00, 
1545.00, 
1546.00, 
1547.00, 
1548.00, 
1549.00, 
1550.00, 
1551.00, 
1552.00, 
1553.00, 
1554.00, 
1555.00, 
1556.00, 
1557.00, 
1558.00, 
1559.00, 
1560.00, 
1561.00, 
1562.00, 
1563.00, 
1564.00, 
1565.00, 
1566.00, 
1567.00, 
1568.00, 
1569.00, 
1570.00, 
1571.00, 
1572.00, 
1573.00, 
1574.00, 
1575.00, 
1576.00, 
1577.00, 
1578.00, 
1579.00, 
1580.00, 
1581.00, 
1582.00, 
1583.00, 
1584.00, 
1585.00, 
1586.00, 
1587.00, 
1588.00, 
1589.00, 
1590.00, 
1591.00, 
1592.00, 
1593.00, 
1594.00, 
1595.00, 
1596.00, 
1597.00, 
1598.00, 
1599.00, 
1600.00, 
1601.00, 
1602.00, 
1603.00, 
1604.00, 
1605.00, 
1606.00, 
1607.00, 
1608.00, 
1609.00, 
1610.00, 
1611.00, 
1612.00, 
1613.00, 
1614.00, 
1615.00, 
1616.00, 
1617.00, 
1618.00, 
1619.00, 
1620.00, 
1621.00, 
1622.00, 
1623.00, 
1624.00, 
1625.00, 
1626.00, 
1627.00, 
1628.00, 
1629.00, 
1630.00, 
1631.00, 
1632.00, 
1633.00, 
1634.00, 
1635.00, 
1636.00, 
1637.00, 
1638.00, 
1639.00, 
1640.00, 
1641.00, 
1642.00, 
1643.00, 
1644.00, 
1645.00, 
1646.00, 
1647.00, 
1648.00, 
1649.00, 
1650.00, 
1651.00, 
1652.00, 
1653.00, 
1654.00, 
1655.00, 
1656.00, 
1657.00, 
1658.00, 
1659.00, 
1660.00, 
1661.00, 
1662.00, 
1663.00, 
1664.00, 
1665.00, 
1666.00, 
1667.00, 
1668.00, 
1669.00, 
1670.00, 
1671.00, 
1672.00, 
1673.00, 
1674.00, 
1675.00, 
1676.00, 
1677.00, 
1678.00, 
1679.00, 
1680.00, 
1681.00, 
1682.00, 
1683.00, 
1684.00, 
1685.00, 
1686.00, 
1687.00, 
1688.00, 
1689.00, 
1690.00, 
1691.00, 
1692.00, 
1693.00, 
1694.00, 
1695.00, 
1696.00, 
1697.00, 
1698.00, 
1699.00, 
1700.00, 
1701.00, 
1702.00, 
1703.00, 
1704.00, 
1705.00, 
1706.00, 
1707.00, 
1708.00, 
1709.00, 
1710.00, 
1711.00, 
1712.00, 
1713.00, 
1714.00, 
1715.00, 
1716.00, 
1717.00, 
1718.00, 
1719.00, 
1720.00, 
1721.00, 
1722.00, 
1723.00, 
1724.00, 
1725.00, 
1726.00, 
1727.00, 
1728.00, 
1729.00, 
1730.00, 
1731.00, 
1732.00, 
1733.00, 
1734.00, 
1735.00, 
1736.00, 
1737.00, 
1738.00, 
1739.00, 
1740.00, 
1741.00, 
1742.00, 
1743.00, 
1744.00, 
1745.00, 
1746.00, 
1747.00, 
1748.00, 
1749.00, 
1750.00, 
1751.00, 
1752.00, 
1753.00, 
1754.00, 
1755.00, 
1756.00, 
1757.00, 
1758.00, 
1759.00, 
1760.00, 
1761.00, 
1762.00, 
1763.00, 
1764.00, 
1765.00, 
1766.00, 
1767.00, 
1768.00, 
1769.00, 
1770.00, 
1771.00, 
1772.00, 
1773.00, 
1774.00, 
1775.00, 
1776.00, 
1777.00, 
1778.00, 
1779.00, 
1780.00, 
1781.00, 
1782.00, 
1783.00, 
1784.00, 
1785.00, 
1786.00, 
1787.00, 
1788.00, 
1789.00, 
1790.00, 
1791.00, 
1792.00, 
1793.00, 
1794.00, 
1795.00, 
1796.00, 
1797.00, 
1798.00, 
1799.00, 
1800.00, 
1801.00, 
1802.00, 
1803.00, 
1804.00, 
1805.00, 
1806.00, 
1807.00, 
1808.00, 
1809.00, 
1810.00, 
1811.00, 
1812.00, 
1813.00, 
1814.00, 
1815.00, 
1816.00, 
1817.00, 
1818.00, 
1819.00, 
1820.00, 
1821.00, 
1822.00, 
1823.00, 
1824.00, 
1825.00, 
1826.00, 
1827.00, 
1828.00, 
1829.00, 
1830.00, 
1831.00, 
1832.00, 
1833.00, 
1834.00, 
1835.00, 
1836.00, 
1837.00, 
1838.00, 
1839.00, 
1840.00, 
1841.00, 
1842.00, 
1843.00, 
1844.00, 
1845.00, 
1846.00, 
1847.00, 
1848.00, 
1849.00, 
1850.00, 
1851.00, 
1852.00, 
1853.00, 
1854.00, 
1855.00, 
1856.00, 
1857.00, 
1858.00, 
1859.00, 
1860.00, 
1861.00, 
1862.00, 
1863.00, 
1864.00, 
1865.00, 
1866.00, 
1867.00, 
1868.00, 
1869.00, 
1870.00, 
1871.00, 
1872.00, 
1873.00, 
1874.00, 
1875.00, 
1876.00, 
1877.00, 
1878.00, 
1879.00, 
1880.00, 
1881.00, 
1882.00, 
1883.00, 
1884.00, 
1885.00, 
1886.00, 
1887.00, 
1888.00, 
1889.00, 
1890.00, 
1891.00, 
1892.00, 
1893.00, 
1894.00, 
1895.00, 
1896.00, 
1897.00, 
1898.00, 
1899.00, 
1900.00, 
1901.00, 
1902.00, 
1903.00, 
1904.00, 
1905.00, 
1906.00, 
1907.00, 
1908.00, 
1909.00, 
1910.00, 
1911.00, 
1912.00, 
1913.00, 
1914.00, 
1915.00, 
1916.00, 
1917.00, 
1918.00, 
1919.00, 
1920.00, 
1921.00, 
1922.00, 
1923.00, 
1924.00, 
1925.00, 
1926.00, 
1927.00, 
1928.00, 
1929.00, 
1930.00, 
1931.00, 
1932.00, 
1933.00, 
1934.00, 
1935.00, 
1936.00, 
1937.00, 
1938.00, 
1939.00, 
1940.00, 
1941.00, 
1942.00, 
1943.00, 
1944.00, 
1945.00, 
1946.00, 
1947.00, 
1948.00, 
1949.00, 
1950.00, 
1951.00, 
1952.00, 
1953.00, 
1954.00, 
1955.00, 
1956.00, 
1957.00, 
1958.00, 
1959.00, 
1960.00, 
1961.00, 
1962.00, 
1963.00, 
1964.00, 
1965.00, 
1966.00, 
1967.00, 
1968.00, 
1969.00, 
1970.00, 
1971.00, 
1972.00, 
1973.00, 
1974.00, 
1975.00, 
1976.00, 
1977.00, 
1978.00, 
1979.00, 
1980.00, 
1981.00, 
1982.00, 
1983.00, 
1984.00, 
1985.00, 
1986.00, 
1987.00, 
1988.00, 
1989.00, 
1990.00, 
1991.00, 
1992.00, 
1993.00, 
1994.00, 
1995.00, 
1996.00, 
1997.00, 
1998.00, 
1999.00, 
2000.00, 
2001.00, 
2002.00, 
2003.00, 
2004.00, 
2005.00, 
2006.00, 
2007.00, 
2008.00, 
2009.00, 
2010.00, 
2011.00, 
2012.00, 
2013.00, 
2014.00, 
2015.00, 
2016.00, 
2017.00, 
2018.00, 
2019.00, 
2020.00, 
2021.00, 
2022.00, 
2023.00, 
2024.00, 
2025.00, 
2026.00, 
2027.00, 
2028.00, 
2029.00, 
2030.00, 
2031.00, 
2032.00, 
2033.00, 
2034.00, 
2035.00, 
2036.00, 
2037.00, 
2038.00, 
2039.00, 
2040.00, 
2041.00, 
2042.00, 
2043.00, 
2044.00, 
2045.00, 
2046.00, 
2047.00, 
2048.00, 
2049.00, 
2050.00, 
2051.00, 
2052.00, 
2053.00, 
2054.00, 
2055.00, 
2056.00, 
2057.00, 
2058.00, 
2059.00, 
2060.00, 
2061.00, 
2062.00, 
2063.00, 
2064.00, 
2065.00, 
2066.00, 
2067.00, 
2068.00, 
2069.00, 
2070.00, 
2071.00, 
2072.00, 
2073.00, 
2074.00, 
2075.00, 
2076.00, 
2077.00, 
2078.00, 
2079.00, 
2080.00, 
2081.00, 
2082.00, 
2083.00, 
2084.00, 
2085.00, 
2086.00, 
2087.00, 
2088.00, 
2089.00, 
2090.00, 
2091.00, 
2092.00, 
2093.00, 
2094.00, 
2095.00, 
2096.00, 
2097.00, 
2098.00, 
2099.00, 
2100.00, 
2101.00, 
2102.00, 
2103.00, 
2104.00, 
2105.00, 
2106.00, 
2107.00, 
2108.00, 
2109.00, 
2110.00, 
2111.00, 
2112.00, 
2113.00, 
2114.00, 
2115.00, 
2116.00, 
2117.00, 
2118.00, 
2119.00, 
2120.00, 
2121.00, 
2122.00, 
2123.00, 
2124.00, 
2125.00, 
2126.00, 
2127.00, 
2128.00, 
2129.00, 
2130.00, 
2131.00, 
2132.00, 
2133.00, 
2134.00, 
2135.00, 
2136.00, 
2137.00, 
2138.00, 
2139.00, 
2140.00, 
2141.00, 
2142.00, 
2143.00, 
2144.00, 
2145.00, 
2146.00, 
2147.00, 
2148.00, 
2149.00, 
2150.00, 
2151.00, 
2152.00, 
2153.00, 
2154.00, 
2155.00, 
2156.00, 
2157.00, 
2158.00, 
2159.00, 
2160.00, 
2161.00, 
2162.00, 
2163.00, 
2164.00, 
2165.00, 
2166.00, 
2167.00, 
2168.00, 
2169.00, 
2170.00, 
2171.00, 
2172.00, 
2173.00, 
2174.00, 
2175.00, 
2176.00, 
2177.00, 
2178.00, 
2179.00, 
2180.00, 
2181.00, 
2182.00, 
2183.00, 
2184.00, 
2185.00, 
2186.00, 
2187.00, 
2188.00, 
2189.00, 
2190.00, 
2191.00, 
2192.00, 
2193.00, 
2194.00, 
2195.00, 
2196.00, 
2197.00, 
2198.00, 
2199.00, 
2200.00, 
2201.00, 
2202.00, 
2203.00, 
2204.00, 
2205.00, 
2206.00, 
2207.00, 
2208.00, 
2209.00, 
2210.00, 
2211.00, 
2212.00, 
2213.00, 
2214.00, 
2215.00, 
2216.00, 
2217.00, 
2218.00, 
2219.00, 
2220.00, 
2221.00, 
2222.00, 
2223.00, 
2224.00, 
2225.00, 
2226.00, 
2227.00, 
2228.00, 
2229.00, 
2230.00, 
2231.00, 
2232.00, 
2233.00, 
2234.00, 
2235.00, 
2236.00, 
2237.00, 
2238.00, 
2239.00, 
2240.00, 
2241.00, 
2242.00, 
2243.00, 
2244.00, 
2245.00, 
2246.00, 
2247.00, 
2248.00, 
2249.00, 
2250.00, 
2251.00, 
2252.00, 
2253.00, 
2254.00, 
2255.00, 
2256.00, 
2257.00, 
2258.00, 
2259.00, 
2260.00, 
2261.00, 
2262.00, 
2263.00, 
2264.00, 
2265.00, 
2266.00, 
2267.00, 
2268.00, 
2269.00, 
2270.00, 
2271.00, 
2272.00, 
2273.00, 
2274.00, 
2275.00, 
2276.00, 
2277.00, 
2278.00, 
2279.00, 
2280.00, 
2281.00, 
2282.00, 
2283.00, 
2284.00, 
2285.00, 
2286.00, 
2287.00, 
2288.00, 
2289.00, 
2290.00, 
2291.00, 
2292.00, 
2293.00, 
2294.00, 
2295.00, 
2296.00, 
2297.00, 
2298.00, 
2299.00, 
2300.00, 
2301.00, 
2302.00, 
2303.00, 
2304.00, 
2305.00, 
2306.00, 
2307.00, 
2308.00, 
2309.00, 
2310.00, 
2311.00, 
2312.00, 
2313.00, 
2314.00, 
2315.00, 
2316.00, 
2317.00, 
2318.00, 
2319.00, 
2320.00, 
2321.00, 
2322.00, 
2323.00, 
2324.00, 
2325.00, 
2326.00, 
2327.00, 
2328.00, 
2329.00, 
2330.00, 
2331.00, 
2332.00, 
2333.00, 
2334.00, 
2335.00, 
2336.00, 
2337.00, 
2338.00, 
2339.00, 
2340.00, 
2341.00, 
2342.00, 
2343.00, 
2344.00, 
2345.00, 
2346.00, 
2347.00, 
2348.00, 
2349.00, 
2350.00, 
2351.00, 
2352.00, 
2353.00, 
2354.00, 
2355.00, 
2356.00, 
2357.00, 
2358.00, 
2359.00, 
2360.00, 
2361.00, 
2362.00, 
2363.00, 
2364.00, 
2365.00, 
2366.00, 
2367.00, 
2368.00, 
2369.00, 
2370.00, 
2371.00, 
2372.00, 
2373.00, 
2374.00, 
2375.00, 
2376.00, 
2377.00, 
2378.00, 
2379.00, 
2380.00, 
2381.00, 
2382.00, 
2383.00, 
2384.00, 
2385.00, 
2386.00, 
2387.00, 
2388.00, 
2389.00, 
2390.00, 
2391.00, 
2392.00, 
2393.00, 
2394.00, 
2395.00, 
2396.00, 
2397.00, 
2398.00, 
2399.00, 
2400.00, 
2401.00, 
2402.00, 
2403.00, 
2404.00, 
2405.00, 
2406.00, 
2407.00, 
2408.00, 
2409.00, 
2410.00, 
2411.00, 
2412.00, 
2413.00, 
2414.00, 
2415.00, 
2416.00, 
2417.00, 
2418.00, 
2419.00, 
2420.00, 
2421.00, 
2422.00, 
2423.00, 
2424.00, 
2425.00, 
2426.00, 
2427.00, 
2428.00, 
2429.00, 
2430.00, 
2431.00, 
2432.00, 
2433.00, 
2434.00, 
2435.00, 
2436.00, 
2437.00, 
2438.00, 
2439.00, 
2440.00, 
2441.00, 
2442.00, 
2443.00, 
2444.00, 
2445.00, 
2446.00, 
2447.00, 
2448.00, 
2449.00, 
2450.00, 
2451.00, 
2452.00, 
2453.00, 
2454.00, 
2455.00, 
2456.00, 
2457.00, 
2458.00, 
2459.00, 
2460.00, 
2461.00, 
2462.00, 
2463.00, 
2464.00, 
2465.00, 
2466.00, 
2467.00, 
2468.00, 
2469.00, 
2470.00, 
2471.00, 
2472.00, 
2473.00, 
2474.00, 
2475.00, 
2476.00, 
2477.00, 
2478.00, 
2479.00, 
2480.00, 
2481.00, 
2482.00, 
2483.00, 
2484.00, 
2485.00, 
2486.00, 
2487.00, 
2488.00, 
2489.00, 
2490.00, 
2491.00, 
2492.00, 
2493.00, 
2494.00, 
2495.00, 
2496.00, 
2497.00, 
2498.00, 
2499.00, 
2500.00, 
2501.00, 
2502.00, 
2503.00, 
2504.00, 
2505.00, 
2506.00, 
2507.00, 
2508.00, 
2509.00, 
2510.00, 
2511.00, 
2512.00, 
2513.00, 
2514.00, 
2515.00, 
2516.00, 
2517.00, 
2518.00, 
2519.00, 
2520.00, 
2521.00, 
2522.00, 
2523.00, 
2524.00, 
2525.00, 
2526.00, 
2527.00, 
2528.00, 
2529.00, 
2530.00, 
2531.00, 
2532.00, 
2533.00, 
2534.00, 
2535.00, 
2536.00, 
2537.00, 
2538.00, 
2539.00, 
2540.00, 
2541.00, 
2542.00, 
2543.00, 
2544.00, 
2545.00, 
2546.00, 
2547.00, 
2548.00, 
2549.00, 
2550.00, 
2551.00, 
2552.00, 
2553.00, 
2554.00, 
2555.00, 
2556.00, 
2557.00, 
2558.00, 
2559.00, 
2560.00, 
2561.00, 
2562.00, 
2563.00, 
2564.00, 
2565.00, 
2566.00, 
2567.00, 
2568.00, 
2569.00, 
2570.00, 
2571.00, 
2572.00, 
2573.00, 
2574.00, 
2575.00, 
2576.00, 
2577.00, 
2578.00, 
2579.00, 
2580.00, 
2581.00, 
2582.00, 
2583.00, 
2584.00, 
2585.00, 
2586.00, 
2587.00, 
2588.00, 
2589.00, 
2590.00, 
2591.00, 
2592.00, 
2593.00, 
2594.00, 
2595.00, 
2596.00, 
2597.00, 
2598.00, 
2599.00, 
2600.00, 
