"1cP4 - RawData"
"Wavelength nm.","T%"
200.00,0.000
201.00,0.001
202.00,0.001
203.00,0.001
204.00,-0.001
205.00,0.000
206.00,0.002
207.00,-0.002
208.00,0.001
209.00,0.002
210.00,-0.001
211.00,-0.003
212.00,0.000
213.00,0.002
214.00,0.002
215.00,0.000
216.00,0.001
217.00,0.003
218.00,-0.001
219.00,0.001
220.00,-0.001
221.00,0.001
222.00,-0.001
223.00,-0.000
224.00,0.002
225.00,-0.000
226.00,0.001
227.00,0.002
228.00,0.001
229.00,0.003
230.00,0.001
231.00,0.002
232.00,0.002
233.00,-0.000
234.00,0.001
235.00,0.002
236.00,0.000
237.00,0.001
238.00,-0.001
239.00,-0.000
240.00,-0.000
241.00,0.001
242.00,0.002
243.00,0.001
244.00,-0.001
245.00,0.001
246.00,0.002
247.00,-0.001
248.00,0.002
249.00,0.004
250.00,0.001
251.00,-0.002
252.00,-0.000
253.00,0.001
254.00,0.001
255.00,-0.001
256.00,0.002
257.00,0.001
258.00,-0.001
259.00,-0.001
260.00,0.000
261.00,-0.001
262.00,0.001
263.00,0.001
264.00,-0.001
265.00,0.000
266.00,0.000
267.00,-0.000
268.00,-0.001
269.00,0.000
270.00,0.001
271.00,0.000
272.00,0.002
273.00,-0.001
274.00,0.001
275.00,0.001
276.00,-0.001
277.00,-0.000
278.00,-0.000
279.00,0.000
280.00,0.001
281.00,0.002
282.00,0.002
283.00,0.001
284.00,0.001
285.00,0.001
286.00,-0.001
287.00,0.001
288.00,0.001
289.00,0.001
290.00,0.001
291.00,-0.003
292.00,0.000
293.00,0.001
294.00,0.001
295.00,0.001
296.00,0.001
297.00,-0.001
298.00,0.000
299.00,0.001
300.00,0.001
301.00,0.002
302.00,0.000
303.00,0.000
304.00,0.002
305.00,0.002
306.00,0.002
307.00,0.005
308.00,0.007
309.00,0.011
310.00,0.020
311.00,0.028
312.00,0.041
313.00,0.065
314.00,0.098
315.00,0.144
316.00,0.207
317.00,0.295
318.00,0.395
319.00,0.530
320.00,0.716
321.00,0.928
322.00,1.172
323.00,1.488
324.00,1.839
325.00,2.213
326.00,2.627
327.00,3.119
328.00,3.652
329.00,4.207
330.00,4.807
331.00,5.414
332.00,6.091
333.00,6.840
334.00,7.502
335.00,8.263
336.00,9.015
337.00,9.782
338.00,10.534
339.00,11.256
340.00,12.009
341.00,12.709
342.00,13.422
343.00,14.095
344.00,14.713
345.00,15.405
346.00,15.989
347.00,16.536
348.00,17.110
349.00,17.563
350.00,18.047
351.00,18.524
352.00,18.910
353.00,19.311
354.00,19.707
355.00,20.069
356.00,20.384
357.00,20.678
358.00,20.983
359.00,21.236
360.00,21.508
361.00,21.694
362.00,21.846
363.00,22.092
364.00,22.220
365.00,22.341
366.00,22.477
367.00,22.567
368.00,22.654
369.00,22.693
370.00,22.758
371.00,22.789
372.00,22.762
373.00,22.762
374.00,22.736
375.00,22.681
376.00,22.660
377.00,22.569
378.00,22.460
379.00,22.351
380.00,22.342
381.00,22.353
382.00,22.344
383.00,22.396
384.00,22.430
385.00,22.526
386.00,22.550
387.00,22.661
388.00,22.717
389.00,22.783
390.00,22.827
391.00,22.868
392.00,22.942
393.00,22.924
394.00,22.971
395.00,23.056
396.00,23.013
397.00,23.002
398.00,23.047
399.00,23.038
400.00,23.044
401.00,23.030
402.00,23.064
403.00,23.060
404.00,23.026
405.00,22.989
406.00,22.989
407.00,22.957
408.00,22.959
409.00,22.914
410.00,22.827
411.00,22.884
412.00,22.834
413.00,22.855
414.00,22.784
415.00,22.818
416.00,22.869
417.00,22.830
418.00,22.879
419.00,22.963
420.00,22.999
421.00,23.005
422.00,23.018
423.00,23.072
424.00,23.092
425.00,23.156
426.00,23.144
427.00,23.209
428.00,23.282
429.00,23.281
430.00,23.337
431.00,23.416
432.00,23.430
433.00,23.470
434.00,23.546
435.00,23.642
436.00,23.697
437.00,23.731
438.00,23.805
439.00,23.882
440.00,23.941
441.00,24.003
442.00,24.090
443.00,24.171
444.00,24.295
445.00,24.374
446.00,24.481
447.00,24.572
448.00,24.675
449.00,24.775
450.00,24.865
451.00,24.978
452.00,25.071
453.00,25.234
454.00,25.307
455.00,25.408
456.00,25.519
457.00,25.645
458.00,25.713
459.00,25.893
460.00,26.038
461.00,26.163
462.00,26.259
463.00,26.409
464.00,26.548
465.00,26.648
466.00,26.813
467.00,26.922
468.00,27.010
469.00,27.135
470.00,27.232
471.00,27.336
472.00,27.482
473.00,27.568
474.00,27.683
475.00,27.816
476.00,27.904
477.00,27.955
478.00,28.175
479.00,28.325
480.00,28.458
481.00,28.578
482.00,28.721
483.00,28.899
484.00,29.054
485.00,29.226
486.00,29.376
487.00,29.534
488.00,29.643
489.00,29.798
490.00,29.920
491.00,30.055
492.00,30.300
493.00,30.404
494.00,30.458
495.00,30.565
496.00,30.676
497.00,30.780
498.00,30.992
499.00,31.057
500.00,31.227
501.00,31.374
502.00,31.436
503.00,31.522
504.00,31.631
505.00,31.813
506.00,31.945
507.00,32.008
508.00,32.166
509.00,32.322
510.00,32.456
511.00,32.514
512.00,32.692
513.00,32.831
514.00,32.955
515.00,33.079
516.00,33.139
517.00,33.236
518.00,33.382
519.00,33.448
520.00,33.479
521.00,33.564
522.00,33.676
523.00,33.720
524.00,33.810
525.00,33.906
526.00,34.064
527.00,34.093
528.00,34.154
529.00,34.326
530.00,34.501
531.00,34.610
532.00,34.688
533.00,34.802
534.00,34.874
535.00,34.951
536.00,35.019
537.00,35.134
538.00,35.188
539.00,35.212
540.00,35.316
541.00,35.300
542.00,35.392
543.00,35.458
544.00,35.534
545.00,35.570
546.00,35.583
547.00,35.813
548.00,35.897
549.00,35.918
550.00,36.003
551.00,36.111
552.00,36.130
553.00,36.152
554.00,36.230
555.00,36.249
556.00,36.304
557.00,36.374
558.00,36.497
559.00,36.572
560.00,36.622
561.00,36.731
562.00,36.766
563.00,36.754
564.00,36.784
565.00,36.804
566.00,36.875
567.00,36.890
568.00,36.954
569.00,37.003
570.00,37.017
571.00,37.080
572.00,37.135
573.00,37.060
574.00,37.122
575.00,37.137
576.00,37.125
577.00,37.190
578.00,37.315
579.00,37.356
580.00,37.401
581.00,37.544
582.00,37.599
583.00,37.595
584.00,37.670
585.00,37.733
586.00,37.790
587.00,37.869
588.00,37.857
589.00,37.874
590.00,37.865
591.00,37.894
592.00,37.893
593.00,37.981
594.00,38.142
595.00,38.185
596.00,38.209
597.00,38.317
598.00,38.319
599.00,38.334
600.00,38.391
601.00,38.401
602.00,38.490
603.00,38.485
604.00,38.469
605.00,38.581
606.00,38.527
607.00,38.608
608.00,38.775
609.00,38.866
610.00,38.689
611.00,38.802
612.00,38.864
613.00,38.890
614.00,38.971
615.00,39.036
616.00,39.153
617.00,39.146
618.00,39.093
619.00,39.214
620.00,39.289
621.00,39.336
622.00,39.376
623.00,39.448
624.00,39.473
625.00,39.519
626.00,39.589
627.00,39.672
628.00,39.779
629.00,39.730
630.00,39.761
631.00,39.834
632.00,39.897
633.00,39.993
634.00,40.139
635.00,40.233
636.00,40.301
637.00,40.285
638.00,40.342
639.00,40.470
640.00,40.473
641.00,40.518
642.00,40.660
643.00,40.631
644.00,40.736
645.00,40.817
646.00,40.915
647.00,40.985
648.00,41.065
649.00,41.106
650.00,41.112
651.00,41.263
652.00,41.321
653.00,41.379
654.00,41.400
655.00,41.584
656.00,41.852
657.00,41.762
658.00,41.837
659.00,41.952
660.00,42.012
661.00,42.011
662.00,42.100
663.00,42.152
664.00,42.406
665.00,42.643
666.00,42.313
667.00,42.506
668.00,43.007
669.00,42.976
670.00,43.115
671.00,42.920
672.00,43.094
673.00,43.214
674.00,43.251
675.00,43.406
676.00,43.541
677.00,43.694
678.00,43.485
679.00,43.672
680.00,43.827
681.00,44.017
682.00,43.962
683.00,43.985
684.00,44.258
685.00,44.217
686.00,44.030
687.00,44.296
688.00,44.457
689.00,44.445
690.00,44.698
691.00,44.929
692.00,44.729
693.00,44.726
694.00,44.850
695.00,44.997
696.00,45.148
697.00,45.139
698.00,45.105
699.00,45.439
700.00,45.483
701.00,45.500
702.00,45.561
703.00,45.724
704.00,45.736
705.00,45.651
706.00,45.776
707.00,45.896
708.00,45.754
709.00,46.101
710.00,46.589
711.00,46.109
712.00,46.102
713.00,46.231
714.00,46.443
715.00,46.427
716.00,46.300
717.00,46.522
718.00,46.684
719.00,46.665
720.00,46.822
721.00,51.097
722.00,51.190
723.00,51.170
724.00,51.201
725.00,51.166
726.00,51.153
727.00,51.275
728.00,51.271
729.00,51.296
730.00,51.293
731.00,51.302
732.00,51.317
733.00,51.442
734.00,51.477
735.00,51.496
736.00,51.466
737.00,51.508
738.00,51.631
739.00,51.574
740.00,51.592
741.00,51.551
742.00,51.708
743.00,51.578
744.00,51.623
745.00,51.657
746.00,51.661
747.00,51.629
748.00,51.687
749.00,51.665
750.00,51.697
751.00,51.618
752.00,51.660
753.00,51.657
754.00,51.657
755.00,51.599
756.00,51.705
757.00,51.696
758.00,51.733
759.00,51.668
760.00,51.729
761.00,51.705
762.00,51.690
763.00,51.727
764.00,51.732
765.00,51.731
766.00,51.778
767.00,51.878
768.00,51.773
769.00,51.709
770.00,51.718
771.00,51.785
772.00,51.750
773.00,51.805
774.00,51.821
775.00,51.865
776.00,51.846
777.00,51.848
778.00,51.777
779.00,51.862
780.00,51.759
781.00,51.775
782.00,51.766
783.00,51.815
784.00,51.739
785.00,51.727
786.00,51.843
787.00,51.771
788.00,51.821
789.00,51.776
790.00,51.668
791.00,51.800
792.00,51.750
793.00,51.667
794.00,51.708
795.00,51.665
796.00,51.612
797.00,51.637
798.00,51.635
799.00,51.521
800.00,51.558
801.00,51.648
802.00,51.556
803.00,51.575
804.00,51.523
805.00,51.527
806.00,51.484
807.00,51.569
808.00,51.558
809.00,51.481
810.00,51.503
811.00,51.455
812.00,51.491
813.00,51.409
814.00,51.412
815.00,51.366
816.00,51.405
817.00,51.344
818.00,51.330
819.00,51.346
820.00,51.219
821.00,51.365
822.00,51.202
823.00,51.152
824.00,51.297
825.00,51.114
826.00,51.152
827.00,51.200
828.00,51.262
829.00,51.217
830.00,51.240
831.00,53.498
832.00,53.488
833.00,53.400
834.00,53.443
835.00,53.417
836.00,53.405
837.00,53.362
838.00,53.351
839.00,53.335
840.00,53.287
841.00,53.279
842.00,53.241
843.00,53.242
844.00,53.219
845.00,53.191
846.00,53.231
847.00,53.139
848.00,53.160
849.00,53.100
850.00,53.069
851.00,53.038
852.00,53.034
853.00,52.980
854.00,52.963
855.00,52.930
856.00,52.913
857.00,52.908
858.00,52.850
859.00,52.793
860.00,52.869
861.00,52.833
862.00,52.778
863.00,52.790
864.00,52.731
865.00,52.736
866.00,52.720
867.00,52.718
868.00,52.709
869.00,52.715
870.00,52.721
871.00,52.687
872.00,52.715
873.00,52.628
874.00,52.641
875.00,52.596
876.00,52.584
877.00,52.600
878.00,52.571
879.00,52.580
880.00,52.548
881.00,52.562
882.00,52.587
883.00,52.545
884.00,52.483
885.00,52.493
886.00,52.478
887.00,52.492
888.00,52.441
889.00,52.428
890.00,52.418
891.00,52.396
892.00,52.317
893.00,52.330
894.00,52.339
895.00,52.305
896.00,52.278
897.00,52.281
898.00,52.242
899.00,52.248
900.00,52.212
901.00,52.193
902.00,52.222
903.00,52.179
904.00,52.147
905.00,52.146
906.00,52.137
907.00,52.077
908.00,52.028
909.00,52.022
910.00,51.999
911.00,51.977
912.00,51.988
913.00,51.962
914.00,51.956
915.00,51.915
916.00,51.897
917.00,51.881
918.00,51.881
919.00,51.827
920.00,51.812
921.00,51.818
922.00,51.833
923.00,51.769
924.00,51.723
925.00,51.718
926.00,51.715
927.00,51.690
928.00,51.695
929.00,51.689
930.00,51.609
931.00,51.704
932.00,51.609
933.00,51.615
934.00,51.581
935.00,51.556
936.00,51.543
937.00,51.500
938.00,51.503
939.00,51.482
940.00,51.456
941.00,51.443
942.00,51.437
943.00,51.440
944.00,51.381
945.00,51.364
946.00,51.494
947.00,51.344
948.00,51.335
949.00,51.297
950.00,51.286
951.00,51.263
952.00,51.229
953.00,51.204
954.00,51.201
955.00,51.146
956.00,51.113
957.00,51.113
958.00,51.109
959.00,51.062
960.00,51.061
961.00,51.101
962.00,51.044
963.00,50.986
964.00,50.983
965.00,51.000
966.00,50.973
967.00,50.963
968.00,50.941
969.00,50.966
970.00,50.948
971.00,50.960
972.00,50.912
973.00,50.967
974.00,50.961
975.00,50.934
976.00,50.957
977.00,50.940
978.00,50.963
979.00,50.928
980.00,50.940
981.00,50.955
982.00,50.917
983.00,50.919
984.00,50.914
985.00,50.915
986.00,50.862
987.00,50.894
988.00,50.869
989.00,50.860
990.00,50.866
991.00,50.849
992.00,50.872
993.00,50.822
994.00,50.807
995.00,50.795
996.00,50.795
997.00,50.776
998.00,50.766
999.00,50.777
1000.00,50.727
1001.00,50.730
1002.00,50.714
1003.00,50.713
1004.00,50.683
1005.00,50.656
1006.00,50.695
1007.00,50.654
1008.00,50.644
1009.00,50.619
1010.00,50.619
1011.00,50.603
1012.00,50.581
1013.00,50.572
1014.00,50.562
1015.00,50.572
1016.00,50.539
1017.00,50.525
1018.00,50.507
1019.00,50.467
1020.00,50.465
1021.00,50.433
1022.00,50.458
1023.00,50.412
1024.00,50.424
1025.00,50.397
1026.00,50.386
1027.00,50.368
1028.00,50.365
1029.00,50.347
1030.00,50.310
1031.00,50.321
1032.00,50.279
1033.00,50.275
1034.00,50.274
1035.00,50.225
1036.00,50.204
1037.00,50.208
1038.00,50.159
1039.00,50.134
1040.00,50.124
1041.00,50.091
1042.00,50.101
1043.00,50.073
1044.00,50.102
1045.00,50.100
1046.00,50.088
1047.00,50.107
1048.00,50.122
1049.00,50.116
1050.00,50.129
1051.00,50.140
1052.00,50.139
1053.00,50.175
1054.00,50.150
1055.00,50.165
1056.00,50.194
1057.00,50.187
1058.00,50.174
1059.00,50.179
1060.00,50.188
1061.00,50.177
1062.00,50.148
1063.00,50.148
1064.00,50.152
1065.00,50.138
1066.00,50.122
1067.00,50.134
1068.00,50.135
1069.00,50.114
1070.00,50.088
1071.00,50.069
1072.00,50.095
1073.00,50.073
1074.00,50.082
1075.00,50.070
1076.00,50.071
1077.00,50.063
1078.00,50.058
1079.00,50.052
1080.00,50.057
1081.00,50.038
1082.00,50.023
1083.00,50.018
1084.00,50.006
1085.00,50.001
1086.00,50.007
1087.00,50.005
1088.00,49.988
1089.00,49.974
1090.00,49.966
1091.00,49.980
1092.00,49.956
1093.00,49.929
1094.00,49.910
1095.00,49.902
1096.00,49.892
1097.00,49.893
1098.00,49.880
1099.00,49.872
1100.00,49.873
1101.00,49.855
1102.00,49.851
1103.00,49.853
1104.00,49.849
1105.00,49.856
1106.00,49.833
1107.00,49.832
1108.00,49.824
1109.00,49.811
1110.00,49.800
1111.00,49.798
1112.00,49.769
1113.00,49.777
1114.00,49.772
1115.00,49.769
1116.00,49.765
1117.00,49.735
1118.00,49.724
1119.00,49.730
1120.00,49.716
1121.00,49.714
1122.00,49.711
1123.00,49.705
1124.00,49.695
1125.00,49.681
1126.00,49.676
1127.00,49.678
1128.00,49.668
1129.00,49.655
1130.00,49.658
1131.00,49.647
1132.00,49.633
1133.00,49.646
1134.00,49.623
1135.00,49.619
1136.00,49.621
1137.00,49.621
1138.00,49.630
1139.00,49.627
1140.00,49.617
1141.00,49.616
1142.00,49.592
1143.00,49.611
1144.00,49.603
1145.00,49.594
1146.00,49.601
1147.00,49.593
1148.00,49.578
1149.00,49.599
1150.00,49.599
1151.00,49.589
1152.00,49.593
1153.00,49.582
1154.00,49.572
1155.00,49.576
1156.00,49.541
1157.00,49.561
1158.00,49.564
1159.00,49.580
1160.00,49.578
1161.00,49.580
1162.00,49.568
1163.00,49.569
1164.00,49.567
1165.00,49.563
1166.00,49.571
1167.00,49.548
1168.00,49.580
1169.00,49.559
1170.00,49.552
1171.00,49.537
1172.00,49.544
1173.00,49.540
1174.00,49.560
1175.00,49.567
1176.00,49.561
1177.00,49.550
1178.00,49.548
1179.00,49.564
1180.00,49.553
1181.00,49.556
1182.00,49.542
1183.00,49.538
1184.00,49.533
1185.00,49.550
1186.00,49.529
1187.00,49.530
1188.00,49.539
1189.00,49.537
1190.00,49.536
1191.00,49.532
1192.00,49.548
1193.00,49.534
1194.00,49.536
1195.00,49.508
1196.00,49.549
1197.00,49.549
1198.00,49.522
1199.00,49.527
1200.00,49.529
1201.00,49.560
1202.00,49.533
1203.00,49.531
1204.00,49.532
1205.00,49.563
1206.00,49.549
1207.00,49.557
1208.00,49.537
1209.00,49.538
1210.00,49.538
1211.00,49.539
1212.00,49.569
1213.00,49.523
1214.00,49.551
1215.00,49.529
1216.00,49.532
1217.00,49.535
1218.00,49.547
1219.00,49.556
1220.00,49.541
1221.00,49.588
1222.00,49.551
1223.00,49.574
1224.00,49.573
1225.00,49.547
1226.00,49.555
1227.00,49.553
1228.00,49.565
1229.00,49.572
1230.00,49.597
1231.00,49.586
1232.00,49.615
1233.00,49.615
1234.00,49.623
1235.00,49.614
1236.00,49.626
1237.00,49.628
1238.00,49.628
1239.00,49.632
1240.00,49.629
1241.00,49.636
1242.00,49.635
1243.00,49.654
1244.00,49.624
1245.00,49.662
1246.00,49.659
1247.00,49.640
1248.00,49.653
1249.00,49.659
1250.00,49.671
1251.00,49.665
1252.00,49.679
1253.00,49.674
1254.00,49.702
1255.00,49.683
1256.00,49.669
1257.00,49.655
1258.00,49.708
1259.00,49.697
1260.00,49.699
1261.00,49.689
1262.00,49.709
1263.00,49.715
1264.00,49.715
1265.00,49.738
1266.00,49.734
1267.00,49.758
1268.00,49.750
1269.00,49.753
1270.00,49.766
1271.00,49.753
1272.00,49.753
1273.00,49.780
1274.00,49.774
1275.00,49.785
1276.00,49.800
1277.00,49.794
1278.00,49.801
1279.00,49.804
1280.00,49.795
1281.00,49.819
1282.00,49.825
1283.00,49.834
1284.00,49.845
1285.00,49.822
1286.00,49.861
1287.00,49.856
1288.00,49.856
1289.00,49.855
1290.00,49.877
1291.00,49.872
1292.00,49.868
1293.00,49.880
1294.00,49.875
1295.00,49.915
1296.00,49.934
1297.00,49.925
1298.00,49.956
1299.00,49.929
1300.00,49.938
1301.00,49.924
1302.00,49.948
1303.00,49.942
1304.00,49.921
1305.00,49.949
1306.00,49.963
1307.00,49.968
1308.00,49.959
1309.00,49.979
1310.00,49.979
1311.00,49.977
1312.00,49.990
1313.00,50.001
1314.00,50.032
1315.00,50.040
1316.00,50.041
1317.00,50.076
1318.00,50.066
1319.00,50.071
1320.00,50.092
1321.00,50.241
1322.00,50.260
1323.00,50.267
1324.00,50.239
1325.00,50.236
1326.00,50.245
1327.00,50.224
1328.00,50.253
1329.00,50.228
1330.00,50.230
1331.00,50.243
1332.00,50.230
1333.00,50.244
1334.00,50.287
1335.00,50.298
1336.00,50.342
1337.00,50.352
1338.00,50.412
1339.00,50.467
1340.00,50.510
1341.00,50.575
1342.00,50.651
1343.00,50.687
1344.00,50.741
1345.00,50.807
1346.00,50.820
1347.00,50.873
1348.00,50.880
1349.00,50.904
1350.00,50.924
1351.00,50.940
1352.00,50.935
1353.00,50.962
1354.00,50.956
1355.00,50.917
1356.00,50.966
1357.00,50.953
1358.00,51.011
1359.00,50.948
1360.00,50.990
1361.00,51.036
1362.00,50.925
1363.00,51.048
1364.00,51.064
1365.00,51.016
1366.00,51.120
1367.00,51.059
1368.00,50.971
1369.00,51.035
1370.00,51.000
1371.00,51.011
1372.00,50.989
1373.00,50.996
1374.00,51.022
1375.00,50.983
1376.00,50.984
1377.00,51.008
1378.00,51.056
1379.00,51.105
1380.00,51.095
1381.00,51.089
1382.00,51.043
1383.00,51.031
1384.00,50.972
1385.00,50.973
1386.00,51.046
1387.00,51.001
1388.00,50.967
1389.00,50.926
1390.00,50.998
1391.00,50.988
1392.00,50.967
1393.00,51.014
1394.00,51.084
1395.00,50.826
1396.00,51.092
1397.00,50.988
1398.00,51.026
1399.00,51.065
1400.00,51.014
1401.00,50.986
1402.00,51.059
1403.00,51.086
1404.00,51.059
1405.00,51.069
1406.00,51.073
1407.00,51.041
1408.00,51.089
1409.00,51.070
1410.00,51.112
1411.00,51.091
1412.00,51.151
1413.00,51.132
1414.00,51.109
1415.00,51.133
1416.00,51.149
1417.00,51.149
1418.00,51.168
1419.00,51.183
1420.00,51.192
1421.00,51.226
1422.00,51.233
1423.00,51.252
1424.00,51.274
1425.00,51.277
1426.00,51.275
1427.00,51.328
1428.00,51.308
1429.00,51.316
1430.00,51.341
1431.00,51.365
1432.00,51.412
1433.00,51.411
1434.00,51.399
1435.00,51.487
1436.00,51.459
1437.00,51.442
1438.00,51.481
1439.00,51.498
1440.00,51.506
1441.00,51.542
1442.00,51.539
1443.00,51.565
1444.00,51.639
1445.00,51.585
1446.00,51.621
1447.00,51.638
1448.00,51.688
1449.00,51.685
1450.00,51.680
1451.00,51.706
1452.00,51.732
1453.00,51.729
1454.00,51.750
1455.00,51.796
1456.00,51.801
1457.00,51.825
1458.00,51.847
1459.00,51.848
1460.00,51.893
1461.00,51.873
1462.00,51.919
1463.00,51.932
1464.00,51.939
1465.00,51.960
1466.00,51.973
1467.00,51.987
1468.00,52.048
1469.00,52.012
1470.00,52.052
1471.00,52.092
1472.00,52.057
1473.00,52.079
1474.00,52.116
1475.00,52.126
1476.00,52.146
1477.00,52.144
1478.00,52.151
1479.00,52.181
1480.00,52.169
1481.00,52.181
1482.00,52.232
1483.00,52.224
1484.00,52.237
1485.00,52.256
1486.00,52.258
1487.00,52.299
1488.00,52.329
1489.00,52.293
1490.00,52.342
1491.00,52.333
1492.00,52.351
1493.00,52.342
1494.00,52.357
1495.00,52.363
1496.00,52.384
1497.00,52.370
1498.00,52.390
1499.00,52.408
1500.00,52.419
1501.00, 
1502.00, 
1503.00, 
1504.00, 
1505.00, 
1506.00, 
1507.00, 
1508.00, 
1509.00, 
1510.00, 
1511.00, 
1512.00, 
1513.00, 
1514.00, 
1515.00, 
1516.00, 
1517.00, 
1518.00, 
1519.00, 
1520.00, 
1521.00, 
1522.00, 
1523.00, 
1524.00, 
1525.00, 
1526.00, 
1527.00, 
1528.00, 
1529.00, 
1530.00, 
1531.00, 
1532.00, 
1533.00, 
1534.00, 
1535.00, 
1536.00, 
1537.00, 
1538.00, 
1539.00, 
1540.00, 
1541.00, 
1542.00, 
1543.00, 
1544.00, 
1545.00, 
1546.00, 
1547.00, 
1548.00, 
1549.00, 
1550.00, 
1551.00, 
1552.00, 
1553.00, 
1554.00, 
1555.00, 
1556.00, 
1557.00, 
1558.00, 
1559.00, 
1560.00, 
1561.00, 
1562.00, 
1563.00, 
1564.00, 
1565.00, 
1566.00, 
1567.00, 
1568.00, 
1569.00, 
1570.00, 
1571.00, 
1572.00, 
1573.00, 
1574.00, 
1575.00, 
1576.00, 
1577.00, 
1578.00, 
1579.00, 
1580.00, 
1581.00, 
1582.00, 
1583.00, 
1584.00, 
1585.00, 
1586.00, 
1587.00, 
1588.00, 
1589.00, 
1590.00, 
1591.00, 
1592.00, 
1593.00, 
1594.00, 
1595.00, 
1596.00, 
1597.00, 
1598.00, 
1599.00, 
1600.00, 
1601.00, 
1602.00, 
1603.00, 
1604.00, 
1605.00, 
1606.00, 
1607.00, 
1608.00, 
1609.00, 
1610.00, 
1611.00, 
1612.00, 
1613.00, 
1614.00, 
1615.00, 
1616.00, 
1617.00, 
1618.00, 
1619.00, 
1620.00, 
1621.00, 
1622.00, 
1623.00, 
1624.00, 
1625.00, 
1626.00, 
1627.00, 
1628.00, 
1629.00, 
1630.00, 
1631.00, 
1632.00, 
1633.00, 
1634.00, 
1635.00, 
1636.00, 
1637.00, 
1638.00, 
1639.00, 
1640.00, 
1641.00, 
1642.00, 
1643.00, 
1644.00, 
1645.00, 
1646.00, 
1647.00, 
1648.00, 
1649.00, 
1650.00, 
1651.00, 
1652.00, 
1653.00, 
1654.00, 
1655.00, 
1656.00, 
1657.00, 
1658.00, 
1659.00, 
1660.00, 
1661.00, 
1662.00, 
1663.00, 
1664.00, 
1665.00, 
1666.00, 
1667.00, 
1668.00, 
1669.00, 
1670.00, 
1671.00, 
1672.00, 
1673.00, 
1674.00, 
1675.00, 
1676.00, 
1677.00, 
1678.00, 
1679.00, 
1680.00, 
1681.00, 
1682.00, 
1683.00, 
1684.00, 
1685.00, 
1686.00, 
1687.00, 
1688.00, 
1689.00, 
1690.00, 
1691.00, 
1692.00, 
1693.00, 
1694.00, 
1695.00, 
1696.00, 
1697.00, 
1698.00, 
1699.00, 
1700.00, 
1701.00, 
1702.00, 
1703.00, 
1704.00, 
1705.00, 
1706.00, 
1707.00, 
1708.00, 
1709.00, 
1710.00, 
1711.00, 
1712.00, 
1713.00, 
1714.00, 
1715.00, 
1716.00, 
1717.00, 
1718.00, 
1719.00, 
1720.00, 
1721.00, 
1722.00, 
1723.00, 
1724.00, 
1725.00, 
1726.00, 
1727.00, 
1728.00, 
1729.00, 
1730.00, 
1731.00, 
1732.00, 
1733.00, 
1734.00, 
1735.00, 
1736.00, 
1737.00, 
1738.00, 
1739.00, 
1740.00, 
1741.00, 
1742.00, 
1743.00, 
1744.00, 
1745.00, 
1746.00, 
1747.00, 
1748.00, 
1749.00, 
1750.00, 
1751.00, 
1752.00, 
1753.00, 
1754.00, 
1755.00, 
1756.00, 
1757.00, 
1758.00, 
1759.00, 
1760.00, 
1761.00, 
1762.00, 
1763.00, 
1764.00, 
1765.00, 
1766.00, 
1767.00, 
1768.00, 
1769.00, 
1770.00, 
1771.00, 
1772.00, 
1773.00, 
1774.00, 
1775.00, 
1776.00, 
1777.00, 
1778.00, 
1779.00, 
1780.00, 
1781.00, 
1782.00, 
1783.00, 
1784.00, 
1785.00, 
1786.00, 
1787.00, 
1788.00, 
1789.00, 
1790.00, 
1791.00, 
1792.00, 
1793.00, 
1794.00, 
1795.00, 
1796.00, 
1797.00, 
1798.00, 
1799.00, 
1800.00, 
1801.00, 
1802.00, 
1803.00, 
1804.00, 
1805.00, 
1806.00, 
1807.00, 
1808.00, 
1809.00, 
1810.00, 
1811.00, 
1812.00, 
1813.00, 
1814.00, 
1815.00, 
1816.00, 
1817.00, 
1818.00, 
1819.00, 
1820.00, 
1821.00, 
1822.00, 
1823.00, 
1824.00, 
1825.00, 
1826.00, 
1827.00, 
1828.00, 
1829.00, 
1830.00, 
1831.00, 
1832.00, 
1833.00, 
1834.00, 
1835.00, 
1836.00, 
1837.00, 
1838.00, 
1839.00, 
1840.00, 
1841.00, 
1842.00, 
1843.00, 
1844.00, 
1845.00, 
1846.00, 
1847.00, 
1848.00, 
1849.00, 
1850.00, 
1851.00, 
1852.00, 
1853.00, 
1854.00, 
1855.00, 
1856.00, 
1857.00, 
1858.00, 
1859.00, 
1860.00, 
1861.00, 
1862.00, 
1863.00, 
1864.00, 
1865.00, 
1866.00, 
1867.00, 
1868.00, 
1869.00, 
1870.00, 
1871.00, 
1872.00, 
1873.00, 
1874.00, 
1875.00, 
1876.00, 
1877.00, 
1878.00, 
1879.00, 
1880.00, 
1881.00, 
1882.00, 
1883.00, 
1884.00, 
1885.00, 
1886.00, 
1887.00, 
1888.00, 
1889.00, 
1890.00, 
1891.00, 
1892.00, 
1893.00, 
1894.00, 
1895.00, 
1896.00, 
1897.00, 
1898.00, 
1899.00, 
1900.00, 
1901.00, 
1902.00, 
1903.00, 
1904.00, 
1905.00, 
1906.00, 
1907.00, 
1908.00, 
1909.00, 
1910.00, 
1911.00, 
1912.00, 
1913.00, 
1914.00, 
1915.00, 
1916.00, 
1917.00, 
1918.00, 
1919.00, 
1920.00, 
1921.00, 
1922.00, 
1923.00, 
1924.00, 
1925.00, 
1926.00, 
1927.00, 
1928.00, 
1929.00, 
1930.00, 
1931.00, 
1932.00, 
1933.00, 
1934.00, 
1935.00, 
1936.00, 
1937.00, 
1938.00, 
1939.00, 
1940.00, 
1941.00, 
1942.00, 
1943.00, 
1944.00, 
1945.00, 
1946.00, 
1947.00, 
1948.00, 
1949.00, 
1950.00, 
1951.00, 
1952.00, 
1953.00, 
1954.00, 
1955.00, 
1956.00, 
1957.00, 
1958.00, 
1959.00, 
1960.00, 
1961.00, 
1962.00, 
1963.00, 
1964.00, 
1965.00, 
1966.00, 
1967.00, 
1968.00, 
1969.00, 
1970.00, 
1971.00, 
1972.00, 
1973.00, 
1974.00, 
1975.00, 
1976.00, 
1977.00, 
1978.00, 
1979.00, 
1980.00, 
1981.00, 
1982.00, 
1983.00, 
1984.00, 
1985.00, 
1986.00, 
1987.00, 
1988.00, 
1989.00, 
1990.00, 
1991.00, 
1992.00, 
1993.00, 
1994.00, 
1995.00, 
1996.00, 
1997.00, 
1998.00, 
1999.00, 
2000.00, 
2001.00, 
2002.00, 
2003.00, 
2004.00, 
2005.00, 
2006.00, 
2007.00, 
2008.00, 
2009.00, 
2010.00, 
2011.00, 
2012.00, 
2013.00, 
2014.00, 
2015.00, 
2016.00, 
2017.00, 
2018.00, 
2019.00, 
2020.00, 
2021.00, 
2022.00, 
2023.00, 
2024.00, 
2025.00, 
2026.00, 
2027.00, 
2028.00, 
2029.00, 
2030.00, 
2031.00, 
2032.00, 
2033.00, 
2034.00, 
2035.00, 
2036.00, 
2037.00, 
2038.00, 
2039.00, 
2040.00, 
2041.00, 
2042.00, 
2043.00, 
2044.00, 
2045.00, 
2046.00, 
2047.00, 
2048.00, 
2049.00, 
2050.00, 
2051.00, 
2052.00, 
2053.00, 
2054.00, 
2055.00, 
2056.00, 
2057.00, 
2058.00, 
2059.00, 
2060.00, 
2061.00, 
2062.00, 
2063.00, 
2064.00, 
2065.00, 
2066.00, 
2067.00, 
2068.00, 
2069.00, 
2070.00, 
2071.00, 
2072.00, 
2073.00, 
2074.00, 
2075.00, 
2076.00, 
2077.00, 
2078.00, 
2079.00, 
2080.00, 
2081.00, 
2082.00, 
2083.00, 
2084.00, 
2085.00, 
2086.00, 
2087.00, 
2088.00, 
2089.00, 
2090.00, 
2091.00, 
2092.00, 
2093.00, 
2094.00, 
2095.00, 
2096.00, 
2097.00, 
2098.00, 
2099.00, 
2100.00, 
2101.00, 
2102.00, 
2103.00, 
2104.00, 
2105.00, 
2106.00, 
2107.00, 
2108.00, 
2109.00, 
2110.00, 
2111.00, 
2112.00, 
2113.00, 
2114.00, 
2115.00, 
2116.00, 
2117.00, 
2118.00, 
2119.00, 
2120.00, 
2121.00, 
2122.00, 
2123.00, 
2124.00, 
2125.00, 
2126.00, 
2127.00, 
2128.00, 
2129.00, 
2130.00, 
2131.00, 
2132.00, 
2133.00, 
2134.00, 
2135.00, 
2136.00, 
2137.00, 
2138.00, 
2139.00, 
2140.00, 
2141.00, 
2142.00, 
2143.00, 
2144.00, 
2145.00, 
2146.00, 
2147.00, 
2148.00, 
2149.00, 
2150.00, 
2151.00, 
2152.00, 
2153.00, 
2154.00, 
2155.00, 
2156.00, 
2157.00, 
2158.00, 
2159.00, 
2160.00, 
2161.00, 
2162.00, 
2163.00, 
2164.00, 
2165.00, 
2166.00, 
2167.00, 
2168.00, 
2169.00, 
2170.00, 
2171.00, 
2172.00, 
2173.00, 
2174.00, 
2175.00, 
2176.00, 
2177.00, 
2178.00, 
2179.00, 
2180.00, 
2181.00, 
2182.00, 
2183.00, 
2184.00, 
2185.00, 
2186.00, 
2187.00, 
2188.00, 
2189.00, 
2190.00, 
2191.00, 
2192.00, 
2193.00, 
2194.00, 
2195.00, 
2196.00, 
2197.00, 
2198.00, 
2199.00, 
2200.00, 
2201.00, 
2202.00, 
2203.00, 
2204.00, 
2205.00, 
2206.00, 
2207.00, 
2208.00, 
2209.00, 
2210.00, 
2211.00, 
2212.00, 
2213.00, 
2214.00, 
2215.00, 
2216.00, 
2217.00, 
2218.00, 
2219.00, 
2220.00, 
2221.00, 
2222.00, 
2223.00, 
2224.00, 
2225.00, 
2226.00, 
2227.00, 
2228.00, 
2229.00, 
2230.00, 
2231.00, 
2232.00, 
2233.00, 
2234.00, 
2235.00, 
2236.00, 
2237.00, 
2238.00, 
2239.00, 
2240.00, 
2241.00, 
2242.00, 
2243.00, 
2244.00, 
2245.00, 
2246.00, 
2247.00, 
2248.00, 
2249.00, 
2250.00, 
2251.00, 
2252.00, 
2253.00, 
2254.00, 
2255.00, 
2256.00, 
2257.00, 
2258.00, 
2259.00, 
2260.00, 
2261.00, 
2262.00, 
2263.00, 
2264.00, 
2265.00, 
2266.00, 
2267.00, 
2268.00, 
2269.00, 
2270.00, 
2271.00, 
2272.00, 
2273.00, 
2274.00, 
2275.00, 
2276.00, 
2277.00, 
2278.00, 
2279.00, 
2280.00, 
2281.00, 
2282.00, 
2283.00, 
2284.00, 
2285.00, 
2286.00, 
2287.00, 
2288.00, 
2289.00, 
2290.00, 
2291.00, 
2292.00, 
2293.00, 
2294.00, 
2295.00, 
2296.00, 
2297.00, 
2298.00, 
2299.00, 
2300.00, 
2301.00, 
2302.00, 
2303.00, 
2304.00, 
2305.00, 
2306.00, 
2307.00, 
2308.00, 
2309.00, 
2310.00, 
2311.00, 
2312.00, 
2313.00, 
2314.00, 
2315.00, 
2316.00, 
2317.00, 
2318.00, 
2319.00, 
2320.00, 
2321.00, 
2322.00, 
2323.00, 
2324.00, 
2325.00, 
2326.00, 
2327.00, 
2328.00, 
2329.00, 
2330.00, 
2331.00, 
2332.00, 
2333.00, 
2334.00, 
2335.00, 
2336.00, 
2337.00, 
2338.00, 
2339.00, 
2340.00, 
2341.00, 
2342.00, 
2343.00, 
2344.00, 
2345.00, 
2346.00, 
2347.00, 
2348.00, 
2349.00, 
2350.00, 
2351.00, 
2352.00, 
2353.00, 
2354.00, 
2355.00, 
2356.00, 
2357.00, 
2358.00, 
2359.00, 
2360.00, 
2361.00, 
2362.00, 
2363.00, 
2364.00, 
2365.00, 
2366.00, 
2367.00, 
2368.00, 
2369.00, 
2370.00, 
2371.00, 
2372.00, 
2373.00, 
2374.00, 
2375.00, 
2376.00, 
2377.00, 
2378.00, 
2379.00, 
2380.00, 
2381.00, 
2382.00, 
2383.00, 
2384.00, 
2385.00, 
2386.00, 
2387.00, 
2388.00, 
2389.00, 
2390.00, 
2391.00, 
2392.00, 
2393.00, 
2394.00, 
2395.00, 
2396.00, 
2397.00, 
2398.00, 
2399.00, 
2400.00, 
2401.00, 
2402.00, 
2403.00, 
2404.00, 
2405.00, 
2406.00, 
2407.00, 
2408.00, 
2409.00, 
2410.00, 
2411.00, 
2412.00, 
2413.00, 
2414.00, 
2415.00, 
2416.00, 
2417.00, 
2418.00, 
2419.00, 
2420.00, 
2421.00, 
2422.00, 
2423.00, 
2424.00, 
2425.00, 
2426.00, 
2427.00, 
2428.00, 
2429.00, 
2430.00, 
2431.00, 
2432.00, 
2433.00, 
2434.00, 
2435.00, 
2436.00, 
2437.00, 
2438.00, 
2439.00, 
2440.00, 
2441.00, 
2442.00, 
2443.00, 
2444.00, 
2445.00, 
2446.00, 
2447.00, 
2448.00, 
2449.00, 
2450.00, 
2451.00, 
2452.00, 
2453.00, 
2454.00, 
2455.00, 
2456.00, 
2457.00, 
2458.00, 
2459.00, 
2460.00, 
2461.00, 
2462.00, 
2463.00, 
2464.00, 
2465.00, 
2466.00, 
2467.00, 
2468.00, 
2469.00, 
2470.00, 
2471.00, 
2472.00, 
2473.00, 
2474.00, 
2475.00, 
2476.00, 
2477.00, 
2478.00, 
2479.00, 
2480.00, 
2481.00, 
2482.00, 
2483.00, 
2484.00, 
2485.00, 
2486.00, 
2487.00, 
2488.00, 
2489.00, 
2490.00, 
2491.00, 
2492.00, 
2493.00, 
2494.00, 
2495.00, 
2496.00, 
2497.00, 
2498.00, 
2499.00, 
2500.00, 
2501.00, 
2502.00, 
2503.00, 
2504.00, 
2505.00, 
2506.00, 
2507.00, 
2508.00, 
2509.00, 
2510.00, 
2511.00, 
2512.00, 
2513.00, 
2514.00, 
2515.00, 
2516.00, 
2517.00, 
2518.00, 
2519.00, 
2520.00, 
2521.00, 
2522.00, 
2523.00, 
2524.00, 
2525.00, 
2526.00, 
2527.00, 
2528.00, 
2529.00, 
2530.00, 
2531.00, 
2532.00, 
2533.00, 
2534.00, 
2535.00, 
2536.00, 
2537.00, 
2538.00, 
2539.00, 
2540.00, 
2541.00, 
2542.00, 
2543.00, 
2544.00, 
2545.00, 
2546.00, 
2547.00, 
2548.00, 
2549.00, 
2550.00, 
2551.00, 
2552.00, 
2553.00, 
2554.00, 
2555.00, 
2556.00, 
2557.00, 
2558.00, 
2559.00, 
2560.00, 
2561.00, 
2562.00, 
2563.00, 
2564.00, 
2565.00, 
2566.00, 
2567.00, 
2568.00, 
2569.00, 
2570.00, 
2571.00, 
2572.00, 
2573.00, 
2574.00, 
2575.00, 
2576.00, 
2577.00, 
2578.00, 
2579.00, 
2580.00, 
2581.00, 
2582.00, 
2583.00, 
2584.00, 
2585.00, 
2586.00, 
2587.00, 
2588.00, 
2589.00, 
2590.00, 
2591.00, 
2592.00, 
2593.00, 
2594.00, 
2595.00, 
2596.00, 
2597.00, 
2598.00, 
2599.00, 
2600.00, 
