"2cP1 - RawData"
"Wavelength nm.","T%"
200.00,-0.001
201.00,0.003
202.00,0.001
203.00,0.002
204.00,0.001
205.00,-0.001
206.00,0.001
207.00,0.001
208.00,0.001
209.00,0.003
210.00,0.001
211.00,0.001
212.00,0.002
213.00,0.001
214.00,0.002
215.00,0.000
216.00,0.003
217.00,0.001
218.00,-0.001
219.00,-0.001
220.00,0.000
221.00,0.001
222.00,0.000
223.00,0.001
224.00,0.000
225.00,-0.000
226.00,-0.001
227.00,0.002
228.00,0.002
229.00,-0.000
230.00,0.001
231.00,0.001
232.00,0.000
233.00,0.001
234.00,-0.000
235.00,0.001
236.00,0.000
237.00,0.001
238.00,0.001
239.00,0.001
240.00,0.002
241.00,0.001
242.00,0.001
243.00,0.001
244.00,0.001
245.00,0.001
246.00,0.000
247.00,-0.000
248.00,0.001
249.00,0.000
250.00,0.000
251.00,0.000
252.00,-0.000
253.00,-0.001
254.00,0.001
255.00,0.000
256.00,0.000
257.00,-0.000
258.00,-0.000
259.00,-0.000
260.00,0.000
261.00,0.001
262.00,0.000
263.00,-0.001
264.00,0.001
265.00,-0.001
266.00,0.003
267.00,0.000
268.00,-0.001
269.00,0.001
270.00,0.001
271.00,0.002
272.00,-0.000
273.00,0.001
274.00,-0.000
275.00,-0.001
276.00,0.000
277.00,0.000
278.00,-0.002
279.00,0.000
280.00,-0.000
281.00,0.002
282.00,0.002
283.00,-0.000
284.00,-0.000
285.00,0.001
286.00,0.001
287.00,0.002
288.00,-0.001
289.00,-0.000
290.00,-0.001
291.00,-0.004
292.00,0.002
293.00,0.001
294.00,-0.001
295.00,0.001
296.00,0.001
297.00,-0.000
298.00,0.001
299.00,0.002
300.00,0.002
301.00,0.005
302.00,0.006
303.00,0.008
304.00,0.010
305.00,0.020
306.00,0.029
307.00,0.043
308.00,0.068
309.00,0.107
310.00,0.144
311.00,0.197
312.00,0.272
313.00,0.371
314.00,0.490
315.00,0.633
316.00,0.809
317.00,1.040
318.00,1.272
319.00,1.557
320.00,1.898
321.00,2.275
322.00,2.678
323.00,3.098
324.00,3.681
325.00,4.180
326.00,4.723
327.00,5.340
328.00,5.985
329.00,6.616
330.00,7.264
331.00,7.935
332.00,8.636
333.00,9.371
334.00,10.045
335.00,10.813
336.00,11.502
337.00,12.206
338.00,12.904
339.00,13.558
340.00,14.250
341.00,14.852
342.00,15.450
343.00,16.096
344.00,16.639
345.00,17.146
346.00,17.635
347.00,18.190
348.00,18.614
349.00,19.071
350.00,19.451
351.00,19.857
352.00,20.199
353.00,20.565
354.00,20.904
355.00,21.192
356.00,21.499
357.00,21.749
358.00,21.970
359.00,22.175
360.00,22.402
361.00,22.586
362.00,22.740
363.00,23.001
364.00,23.119
365.00,23.286
366.00,23.405
367.00,23.462
368.00,23.578
369.00,23.652
370.00,23.674
371.00,23.731
372.00,23.756
373.00,23.765
374.00,23.745
375.00,23.740
376.00,23.778
377.00,23.717
378.00,23.675
379.00,23.614
380.00,23.617
381.00,23.634
382.00,23.599
383.00,23.632
384.00,23.661
385.00,23.721
386.00,23.753
387.00,23.812
388.00,23.832
389.00,23.862
390.00,23.936
391.00,23.973
392.00,24.008
393.00,23.991
394.00,24.038
395.00,24.068
396.00,24.025
397.00,24.043
398.00,24.058
399.00,24.084
400.00,24.105
401.00,24.092
402.00,24.127
403.00,24.106
404.00,24.053
405.00,24.065
406.00,24.069
407.00,24.060
408.00,24.050
409.00,24.014
410.00,23.950
411.00,23.974
412.00,23.928
413.00,23.962
414.00,23.946
415.00,23.936
416.00,23.977
417.00,23.963
418.00,23.994
419.00,24.033
420.00,24.048
421.00,24.137
422.00,24.138
423.00,24.176
424.00,24.210
425.00,24.258
426.00,24.248
427.00,24.289
428.00,24.367
429.00,24.391
430.00,24.433
431.00,24.458
432.00,24.525
433.00,24.570
434.00,24.627
435.00,24.683
436.00,24.730
437.00,24.817
438.00,24.870
439.00,24.927
440.00,24.992
441.00,25.083
442.00,25.158
443.00,25.223
444.00,25.291
445.00,25.375
446.00,25.462
447.00,25.558
448.00,25.671
449.00,25.768
450.00,25.822
451.00,25.925
452.00,25.995
453.00,26.106
454.00,26.264
455.00,26.381
456.00,26.473
457.00,26.575
458.00,26.688
459.00,26.764
460.00,26.909
461.00,27.005
462.00,27.107
463.00,27.267
464.00,27.367
465.00,27.453
466.00,27.586
467.00,27.729
468.00,27.725
469.00,27.922
470.00,28.033
471.00,28.133
472.00,28.244
473.00,28.339
474.00,28.425
475.00,28.563
476.00,28.653
477.00,28.769
478.00,28.874
479.00,29.022
480.00,29.164
481.00,29.288
482.00,29.422
483.00,29.490
484.00,29.706
485.00,29.894
486.00,30.007
487.00,30.148
488.00,30.265
489.00,30.408
490.00,30.571
491.00,30.673
492.00,30.870
493.00,30.938
494.00,30.973
495.00,31.140
496.00,31.259
497.00,31.359
498.00,31.547
499.00,31.663
500.00,31.781
501.00,31.848
502.00,32.007
503.00,32.143
504.00,32.186
505.00,32.372
506.00,32.495
507.00,32.628
508.00,32.649
509.00,32.782
510.00,32.877
511.00,33.078
512.00,33.190
513.00,33.268
514.00,33.447
515.00,33.539
516.00,33.618
517.00,33.752
518.00,33.846
519.00,33.938
520.00,34.063
521.00,34.077
522.00,34.180
523.00,34.295
524.00,34.382
525.00,34.446
526.00,34.567
527.00,34.622
528.00,34.699
529.00,34.765
530.00,34.883
531.00,35.077
532.00,35.137
533.00,35.227
534.00,35.352
535.00,35.390
536.00,35.493
537.00,35.541
538.00,35.618
539.00,35.752
540.00,35.824
541.00,35.857
542.00,35.915
543.00,36.008
544.00,36.064
545.00,36.147
546.00,36.191
547.00,36.313
548.00,36.380
549.00,36.414
550.00,36.537
551.00,36.611
552.00,36.685
553.00,36.743
554.00,36.827
555.00,36.859
556.00,36.881
557.00,36.955
558.00,37.034
559.00,37.127
560.00,37.175
561.00,37.271
562.00,37.283
563.00,37.324
564.00,37.378
565.00,37.370
566.00,37.452
567.00,37.495
568.00,37.516
569.00,37.583
570.00,37.584
571.00,37.670
572.00,37.725
573.00,37.737
574.00,37.822
575.00,37.831
576.00,37.829
577.00,37.910
578.00,37.978
579.00,38.025
580.00,38.153
581.00,38.233
582.00,38.312
583.00,38.370
584.00,38.461
585.00,38.509
586.00,38.559
587.00,38.625
588.00,38.636
589.00,38.730
590.00,38.750
591.00,38.756
592.00,38.808
593.00,38.822
594.00,38.945
595.00,38.975
596.00,39.014
597.00,39.106
598.00,39.152
599.00,39.168
600.00,39.239
601.00,39.251
602.00,39.330
603.00,39.381
604.00,39.378
605.00,39.509
606.00,39.486
607.00,39.521
608.00,39.592
609.00,39.610
610.00,39.642
611.00,39.688
612.00,39.825
613.00,39.755
614.00,39.830
615.00,39.864
616.00,40.000
617.00,39.986
618.00,40.037
619.00,40.152
620.00,40.140
621.00,40.181
622.00,40.207
623.00,40.352
624.00,40.308
625.00,40.409
626.00,40.506
627.00,40.495
628.00,40.681
629.00,40.694
630.00,40.726
631.00,40.760
632.00,40.792
633.00,40.832
634.00,40.952
635.00,41.012
636.00,41.105
637.00,41.173
638.00,41.203
639.00,41.303
640.00,41.322
641.00,41.333
642.00,41.428
643.00,41.460
644.00,41.552
645.00,41.602
646.00,41.641
647.00,41.703
648.00,41.861
649.00,41.958
650.00,41.977
651.00,42.025
652.00,42.157
653.00,42.252
654.00,42.213
655.00,42.258
656.00,42.438
657.00,42.604
658.00,42.616
659.00,42.681
660.00,42.804
661.00,42.802
662.00,42.943
663.00,42.981
664.00,43.108
665.00,43.132
666.00,43.245
667.00,43.265
668.00,43.401
669.00,43.655
670.00,43.583
671.00,43.660
672.00,43.700
673.00,43.734
674.00,43.883
675.00,43.981
676.00,44.034
677.00,44.080
678.00,44.176
679.00,44.224
680.00,44.261
681.00,44.441
682.00,44.429
683.00,44.527
684.00,44.790
685.00,44.811
686.00,44.614
687.00,44.799
688.00,44.951
689.00,44.952
690.00,45.114
691.00,45.211
692.00,45.246
693.00,45.328
694.00,45.274
695.00,45.438
696.00,45.602
697.00,45.542
698.00,45.672
699.00,45.915
700.00,45.726
701.00,45.850
702.00,45.994
703.00,46.041
704.00,45.915
705.00,45.999
706.00,46.399
707.00,46.402
708.00,46.308
709.00,46.431
710.00,46.721
711.00,46.575
712.00,46.537
713.00,46.626
714.00,46.732
715.00,46.796
716.00,46.803
717.00,46.906
718.00,46.880
719.00,47.002
720.00,47.098
721.00,51.114
722.00,51.154
723.00,51.174
724.00,51.137
725.00,51.121
726.00,51.102
727.00,51.113
728.00,51.151
729.00,51.182
730.00,51.107
731.00,51.199
732.00,51.288
733.00,51.287
734.00,51.312
735.00,51.335
736.00,51.371
737.00,51.417
738.00,51.478
739.00,51.513
740.00,51.463
741.00,51.439
742.00,51.509
743.00,51.462
744.00,51.453
745.00,51.470
746.00,51.457
747.00,51.478
748.00,51.486
749.00,51.464
750.00,51.546
751.00,51.430
752.00,51.455
753.00,51.450
754.00,51.520
755.00,51.423
756.00,51.566
757.00,51.485
758.00,51.467
759.00,51.508
760.00,51.439
761.00,51.407
762.00,51.484
763.00,51.461
764.00,51.480
765.00,51.534
766.00,51.549
767.00,51.583
768.00,51.520
769.00,51.461
770.00,51.482
771.00,51.511
772.00,51.577
773.00,51.606
774.00,51.569
775.00,51.635
776.00,51.571
777.00,51.589
778.00,51.554
779.00,51.574
780.00,51.566
781.00,51.572
782.00,51.525
783.00,51.635
784.00,51.533
785.00,51.484
786.00,51.562
787.00,51.510
788.00,51.519
789.00,51.508
790.00,51.436
791.00,51.481
792.00,51.546
793.00,51.436
794.00,51.450
795.00,51.394
796.00,51.409
797.00,51.389
798.00,51.408
799.00,51.383
800.00,51.378
801.00,51.409
802.00,51.304
803.00,51.408
804.00,51.318
805.00,51.252
806.00,51.325
807.00,51.288
808.00,51.266
809.00,51.261
810.00,51.267
811.00,51.248
812.00,51.200
813.00,51.248
814.00,51.206
815.00,51.133
816.00,51.135
817.00,51.099
818.00,50.986
819.00,51.087
820.00,51.073
821.00,51.057
822.00,50.985
823.00,50.985
824.00,50.988
825.00,50.922
826.00,51.032
827.00,51.026
828.00,50.955
829.00,50.913
830.00,50.910
831.00,53.492
832.00,53.445
833.00,53.402
834.00,53.413
835.00,53.341
836.00,53.391
837.00,53.308
838.00,53.330
839.00,53.301
840.00,53.251
841.00,53.250
842.00,53.251
843.00,53.229
844.00,53.209
845.00,53.190
846.00,53.175
847.00,53.154
848.00,53.129
849.00,53.078
850.00,53.016
851.00,53.027
852.00,52.999
853.00,52.940
854.00,52.939
855.00,52.853
856.00,52.876
857.00,52.860
858.00,52.817
859.00,52.790
860.00,52.797
861.00,52.778
862.00,52.704
863.00,52.746
864.00,52.684
865.00,52.733
866.00,52.698
867.00,52.676
868.00,52.669
869.00,52.643
870.00,52.643
871.00,52.639
872.00,52.641
873.00,52.574
874.00,52.582
875.00,52.585
876.00,52.545
877.00,52.501
878.00,52.634
879.00,52.512
880.00,52.508
881.00,52.495
882.00,52.495
883.00,52.479
884.00,52.450
885.00,52.422
886.00,52.392
887.00,52.410
888.00,52.372
889.00,52.341
890.00,52.340
891.00,52.311
892.00,52.248
893.00,52.250
894.00,52.255
895.00,52.227
896.00,52.183
897.00,52.174
898.00,52.146
899.00,52.157
900.00,52.139
901.00,52.123
902.00,52.127
903.00,52.080
904.00,52.089
905.00,52.052
906.00,52.030
907.00,52.016
908.00,51.993
909.00,51.983
910.00,51.964
911.00,51.922
912.00,51.967
913.00,51.894
914.00,51.874
915.00,51.862
916.00,51.839
917.00,51.819
918.00,51.792
919.00,51.769
920.00,51.744
921.00,51.739
922.00,51.745
923.00,51.712
924.00,51.687
925.00,51.647
926.00,51.649
927.00,51.631
928.00,51.595
929.00,51.595
930.00,51.556
931.00,51.554
932.00,51.512
933.00,51.534
934.00,51.502
935.00,51.498
936.00,51.485
937.00,51.453
938.00,51.436
939.00,51.425
940.00,51.384
941.00,51.378
942.00,51.343
943.00,51.365
944.00,51.312
945.00,51.315
946.00,51.287
947.00,51.262
948.00,51.284
949.00,51.228
950.00,51.207
951.00,51.176
952.00,51.133
953.00,51.117
954.00,51.092
955.00,51.051
956.00,51.043
957.00,51.017
958.00,51.038
959.00,50.991
960.00,50.982
961.00,50.958
962.00,50.968
963.00,50.914
964.00,50.905
965.00,50.895
966.00,50.897
967.00,50.892
968.00,50.856
969.00,50.883
970.00,50.864
971.00,50.858
972.00,50.831
973.00,50.853
974.00,50.867
975.00,50.844
976.00,50.875
977.00,50.849
978.00,50.894
979.00,50.972
980.00,50.868
981.00,50.868
982.00,50.855
983.00,50.848
984.00,50.842
985.00,50.850
986.00,50.805
987.00,50.826
988.00,50.816
989.00,50.784
990.00,50.796
991.00,50.770
992.00,50.781
993.00,50.739
994.00,50.708
995.00,50.708
996.00,50.703
997.00,50.694
998.00,50.666
999.00,50.692
1000.00,50.645
1001.00,50.651
1002.00,50.634
1003.00,50.632
1004.00,50.622
1005.00,50.585
1006.00,50.615
1007.00,50.608
1008.00,50.557
1009.00,50.554
1010.00,50.542
1011.00,50.523
1012.00,50.482
1013.00,50.486
1014.00,50.466
1015.00,50.495
1016.00,50.451
1017.00,50.437
1018.00,50.436
1019.00,50.386
1020.00,50.387
1021.00,50.372
1022.00,50.355
1023.00,50.319
1024.00,50.329
1025.00,50.306
1026.00,50.301
1027.00,50.264
1028.00,50.252
1029.00,50.254
1030.00,50.213
1031.00,50.223
1032.00,50.194
1033.00,50.190
1034.00,50.167
1035.00,50.130
1036.00,50.105
1037.00,50.086
1038.00,50.073
1039.00,50.046
1040.00,50.040
1041.00,49.995
1042.00,49.997
1043.00,49.992
1044.00,50.011
1045.00,49.988
1046.00,49.985
1047.00,49.986
1048.00,50.011
1049.00,50.013
1050.00,50.011
1051.00,50.029
1052.00,50.038
1053.00,50.058
1054.00,50.042
1055.00,50.049
1056.00,50.063
1057.00,50.071
1058.00,50.061
1059.00,50.060
1060.00,50.057
1061.00,50.054
1062.00,50.037
1063.00,50.041
1064.00,50.028
1065.00,50.020
1066.00,49.999
1067.00,50.000
1068.00,50.002
1069.00,49.971
1070.00,49.958
1071.00,49.944
1072.00,49.955
1073.00,49.937
1074.00,49.933
1075.00,49.921
1076.00,49.919
1077.00,49.907
1078.00,49.897
1079.00,49.878
1080.00,49.871
1081.00,49.860
1082.00,49.856
1083.00,49.840
1084.00,49.836
1085.00,49.836
1086.00,49.862
1087.00,49.817
1088.00,49.803
1089.00,49.788
1090.00,49.788
1091.00,49.790
1092.00,49.776
1093.00,49.757
1094.00,49.733
1095.00,49.731
1096.00,49.735
1097.00,49.726
1098.00,49.718
1099.00,49.694
1100.00,49.697
1101.00,49.702
1102.00,49.678
1103.00,49.662
1104.00,49.646
1105.00,49.639
1106.00,49.631
1107.00,49.622
1108.00,49.609
1109.00,49.600
1110.00,49.603
1111.00,49.586
1112.00,49.586
1113.00,49.578
1114.00,49.582
1115.00,49.572
1116.00,49.550
1117.00,49.540
1118.00,49.538
1119.00,49.529
1120.00,49.539
1121.00,49.522
1122.00,49.516
1123.00,49.507
1124.00,49.494
1125.00,49.482
1126.00,49.485
1127.00,49.469
1128.00,49.468
1129.00,49.440
1130.00,49.442
1131.00,49.433
1132.00,49.426
1133.00,49.422
1134.00,49.420
1135.00,49.404
1136.00,49.407
1137.00,49.398
1138.00,49.387
1139.00,49.400
1140.00,49.381
1141.00,49.375
1142.00,49.382
1143.00,49.376
1144.00,49.367
1145.00,49.361
1146.00,49.368
1147.00,49.367
1148.00,49.345
1149.00,49.340
1150.00,49.346
1151.00,49.334
1152.00,49.325
1153.00,49.326
1154.00,49.319
1155.00,49.321
1156.00,49.310
1157.00,49.311
1158.00,49.312
1159.00,49.291
1160.00,49.286
1161.00,49.303
1162.00,49.279
1163.00,49.289
1164.00,49.290
1165.00,49.279
1166.00,49.282
1167.00,49.284
1168.00,49.282
1169.00,49.277
1170.00,49.286
1171.00,49.258
1172.00,49.272
1173.00,49.253
1174.00,49.251
1175.00,49.266
1176.00,49.267
1177.00,49.257
1178.00,49.257
1179.00,49.265
1180.00,49.252
1181.00,49.262
1182.00,49.258
1183.00,49.242
1184.00,49.229
1185.00,49.246
1186.00,49.238
1187.00,49.233
1188.00,49.215
1189.00,49.225
1190.00,49.216
1191.00,49.226
1192.00,49.242
1193.00,49.233
1194.00,49.232
1195.00,49.197
1196.00,49.226
1197.00,49.219
1198.00,49.210
1199.00,49.199
1200.00,49.206
1201.00,49.210
1202.00,49.195
1203.00,49.199
1204.00,49.180
1205.00,49.213
1206.00,49.192
1207.00,49.213
1208.00,49.215
1209.00,49.176
1210.00,49.186
1211.00,49.187
1212.00,49.197
1213.00,49.163
1214.00,49.191
1215.00,49.179
1216.00,49.184
1217.00,49.177
1218.00,49.176
1219.00,49.190
1220.00,49.189
1221.00,49.191
1222.00,49.179
1223.00,49.207
1224.00,49.202
1225.00,49.176
1226.00,49.183
1227.00,49.167
1228.00,49.175
1229.00,49.184
1230.00,49.224
1231.00,49.201
1232.00,49.210
1233.00,49.217
1234.00,49.223
1235.00,49.217
1236.00,49.221
1237.00,49.209
1238.00,49.222
1239.00,49.215
1240.00,49.211
1241.00,49.223
1242.00,49.214
1243.00,49.237
1244.00,49.216
1245.00,49.226
1246.00,49.238
1247.00,49.239
1248.00,49.248
1249.00,49.241
1250.00,49.243
1251.00,49.251
1252.00,49.263
1253.00,49.250
1254.00,49.289
1255.00,49.262
1256.00,49.233
1257.00,49.217
1258.00,49.272
1259.00,49.264
1260.00,49.285
1261.00,49.282
1262.00,49.271
1263.00,49.271
1264.00,49.280
1265.00,49.276
1266.00,49.300
1267.00,49.292
1268.00,49.317
1269.00,49.318
1270.00,49.296
1271.00,49.310
1272.00,49.311
1273.00,49.320
1274.00,49.321
1275.00,49.320
1276.00,49.322
1277.00,49.321
1278.00,49.334
1279.00,49.333
1280.00,49.345
1281.00,49.349
1282.00,49.358
1283.00,49.347
1284.00,49.348
1285.00,49.336
1286.00,49.349
1287.00,49.336
1288.00,49.347
1289.00,49.351
1290.00,49.374
1291.00,49.371
1292.00,49.377
1293.00,49.373
1294.00,49.384
1295.00,49.396
1296.00,49.401
1297.00,49.403
1298.00,49.410
1299.00,49.413
1300.00,49.410
1301.00,49.416
1302.00,49.415
1303.00,49.428
1304.00,49.418
1305.00,49.432
1306.00,49.438
1307.00,49.453
1308.00,49.446
1309.00,49.456
1310.00,49.475
1311.00,49.458
1312.00,49.459
1313.00,49.454
1314.00,49.473
1315.00,49.482
1316.00,49.481
1317.00,49.485
1318.00,49.476
1319.00,49.492
1320.00,49.523
1321.00,49.665
1322.00,49.696
1323.00,49.670
1324.00,49.678
1325.00,49.661
1326.00,49.679
1327.00,49.666
1328.00,49.676
1329.00,49.667
1330.00,49.662
1331.00,49.662
1332.00,49.664
1333.00,49.674
1334.00,49.705
1335.00,49.720
1336.00,49.747
1337.00,49.780
1338.00,49.837
1339.00,49.881
1340.00,49.938
1341.00,49.989
1342.00,50.072
1343.00,50.113
1344.00,50.146
1345.00,50.211
1346.00,50.248
1347.00,50.281
1348.00,50.300
1349.00,50.310
1350.00,50.326
1351.00,50.350
1352.00,50.349
1353.00,50.387
1354.00,50.373
1355.00,50.362
1356.00,50.376
1357.00,50.378
1358.00,50.391
1359.00,50.387
1360.00,50.383
1361.00,50.354
1362.00,50.350
1363.00,50.428
1364.00,50.401
1365.00,50.381
1366.00,50.429
1367.00,50.356
1368.00,50.364
1369.00,50.388
1370.00,50.353
1371.00,50.366
1372.00,50.359
1373.00,50.366
1374.00,50.364
1375.00,50.335
1376.00,50.344
1377.00,50.329
1378.00,50.378
1379.00,50.362
1380.00,50.357
1381.00,50.391
1382.00,50.343
1383.00,50.336
1384.00,50.297
1385.00,50.293
1386.00,50.368
1387.00,50.303
1388.00,50.244
1389.00,50.168
1390.00,50.371
1391.00,50.326
1392.00,50.314
1393.00,50.328
1394.00,50.319
1395.00,50.279
1396.00,50.253
1397.00,50.314
1398.00,50.337
1399.00,50.318
1400.00,50.269
1401.00,50.310
1402.00,50.370
1403.00,50.355
1404.00,50.345
1405.00,50.350
1406.00,50.345
1407.00,50.364
1408.00,50.361
1409.00,50.340
1410.00,50.376
1411.00,50.388
1412.00,50.396
1413.00,50.360
1414.00,50.370
1415.00,50.411
1416.00,50.431
1417.00,50.441
1418.00,50.447
1419.00,50.437
1420.00,50.472
1421.00,50.485
1422.00,50.486
1423.00,50.484
1424.00,50.505
1425.00,50.503
1426.00,50.513
1427.00,50.536
1428.00,50.547
1429.00,50.550
1430.00,50.579
1431.00,50.572
1432.00,50.612
1433.00,50.629
1434.00,50.625
1435.00,50.664
1436.00,50.672
1437.00,50.666
1438.00,50.678
1439.00,50.707
1440.00,50.713
1441.00,50.732
1442.00,50.728
1443.00,50.763
1444.00,50.780
1445.00,50.760
1446.00,50.790
1447.00,50.825
1448.00,50.848
1449.00,50.851
1450.00,50.848
1451.00,50.857
1452.00,50.882
1453.00,50.897
1454.00,50.898
1455.00,50.929
1456.00,50.936
1457.00,50.970
1458.00,50.957
1459.00,50.989
1460.00,51.001
1461.00,51.001
1462.00,51.022
1463.00,51.043
1464.00,51.054
1465.00,51.065
1466.00,51.076
1467.00,51.102
1468.00,51.130
1469.00,51.109
1470.00,51.134
1471.00,51.161
1472.00,51.161
1473.00,51.162
1474.00,51.193
1475.00,51.201
1476.00,51.209
1477.00,51.212
1478.00,51.223
1479.00,51.244
1480.00,51.252
1481.00,51.261
1482.00,51.292
1483.00,51.288
1484.00,51.290
1485.00,51.318
1486.00,51.320
1487.00,51.332
1488.00,51.338
1489.00,51.332
1490.00,51.367
1491.00,51.361
1492.00,51.376
1493.00,51.380
1494.00,51.392
1495.00,51.416
1496.00,51.405
1497.00,51.433
1498.00,51.417
1499.00,51.449
1500.00,51.476
1501.00, 
1502.00, 
1503.00, 
1504.00, 
1505.00, 
1506.00, 
1507.00, 
1508.00, 
1509.00, 
1510.00, 
1511.00, 
1512.00, 
1513.00, 
1514.00, 
1515.00, 
1516.00, 
1517.00, 
1518.00, 
1519.00, 
1520.00, 
1521.00, 
1522.00, 
1523.00, 
1524.00, 
1525.00, 
1526.00, 
1527.00, 
1528.00, 
1529.00, 
1530.00, 
1531.00, 
1532.00, 
1533.00, 
1534.00, 
1535.00, 
1536.00, 
1537.00, 
1538.00, 
1539.00, 
1540.00, 
1541.00, 
1542.00, 
1543.00, 
1544.00, 
1545.00, 
1546.00, 
1547.00, 
1548.00, 
1549.00, 
1550.00, 
1551.00, 
1552.00, 
1553.00, 
1554.00, 
1555.00, 
1556.00, 
1557.00, 
1558.00, 
1559.00, 
1560.00, 
1561.00, 
1562.00, 
1563.00, 
1564.00, 
1565.00, 
1566.00, 
1567.00, 
1568.00, 
1569.00, 
1570.00, 
1571.00, 
1572.00, 
1573.00, 
1574.00, 
1575.00, 
1576.00, 
1577.00, 
1578.00, 
1579.00, 
1580.00, 
1581.00, 
1582.00, 
1583.00, 
1584.00, 
1585.00, 
1586.00, 
1587.00, 
1588.00, 
1589.00, 
1590.00, 
1591.00, 
1592.00, 
1593.00, 
1594.00, 
1595.00, 
1596.00, 
1597.00, 
1598.00, 
1599.00, 
1600.00, 
1601.00, 
1602.00, 
1603.00, 
1604.00, 
1605.00, 
1606.00, 
1607.00, 
1608.00, 
1609.00, 
1610.00, 
1611.00, 
1612.00, 
1613.00, 
1614.00, 
1615.00, 
1616.00, 
1617.00, 
1618.00, 
1619.00, 
1620.00, 
1621.00, 
1622.00, 
1623.00, 
1624.00, 
1625.00, 
1626.00, 
1627.00, 
1628.00, 
1629.00, 
1630.00, 
1631.00, 
1632.00, 
1633.00, 
1634.00, 
1635.00, 
1636.00, 
1637.00, 
1638.00, 
1639.00, 
1640.00, 
1641.00, 
1642.00, 
1643.00, 
1644.00, 
1645.00, 
1646.00, 
1647.00, 
1648.00, 
1649.00, 
1650.00, 
1651.00, 
1652.00, 
1653.00, 
1654.00, 
1655.00, 
1656.00, 
1657.00, 
1658.00, 
1659.00, 
1660.00, 
1661.00, 
1662.00, 
1663.00, 
1664.00, 
1665.00, 
1666.00, 
1667.00, 
1668.00, 
1669.00, 
1670.00, 
1671.00, 
1672.00, 
1673.00, 
1674.00, 
1675.00, 
1676.00, 
1677.00, 
1678.00, 
1679.00, 
1680.00, 
1681.00, 
1682.00, 
1683.00, 
1684.00, 
1685.00, 
1686.00, 
1687.00, 
1688.00, 
1689.00, 
1690.00, 
1691.00, 
1692.00, 
1693.00, 
1694.00, 
1695.00, 
1696.00, 
1697.00, 
1698.00, 
1699.00, 
1700.00, 
1701.00, 
1702.00, 
1703.00, 
1704.00, 
1705.00, 
1706.00, 
1707.00, 
1708.00, 
1709.00, 
1710.00, 
1711.00, 
1712.00, 
1713.00, 
1714.00, 
1715.00, 
1716.00, 
1717.00, 
1718.00, 
1719.00, 
1720.00, 
1721.00, 
1722.00, 
1723.00, 
1724.00, 
1725.00, 
1726.00, 
1727.00, 
1728.00, 
1729.00, 
1730.00, 
1731.00, 
1732.00, 
1733.00, 
1734.00, 
1735.00, 
1736.00, 
1737.00, 
1738.00, 
1739.00, 
1740.00, 
1741.00, 
1742.00, 
1743.00, 
1744.00, 
1745.00, 
1746.00, 
1747.00, 
1748.00, 
1749.00, 
1750.00, 
1751.00, 
1752.00, 
1753.00, 
1754.00, 
1755.00, 
1756.00, 
1757.00, 
1758.00, 
1759.00, 
1760.00, 
1761.00, 
1762.00, 
1763.00, 
1764.00, 
1765.00, 
1766.00, 
1767.00, 
1768.00, 
1769.00, 
1770.00, 
1771.00, 
1772.00, 
1773.00, 
1774.00, 
1775.00, 
1776.00, 
1777.00, 
1778.00, 
1779.00, 
1780.00, 
1781.00, 
1782.00, 
1783.00, 
1784.00, 
1785.00, 
1786.00, 
1787.00, 
1788.00, 
1789.00, 
1790.00, 
1791.00, 
1792.00, 
1793.00, 
1794.00, 
1795.00, 
1796.00, 
1797.00, 
1798.00, 
1799.00, 
1800.00, 
1801.00, 
1802.00, 
1803.00, 
1804.00, 
1805.00, 
1806.00, 
1807.00, 
1808.00, 
1809.00, 
1810.00, 
1811.00, 
1812.00, 
1813.00, 
1814.00, 
1815.00, 
1816.00, 
1817.00, 
1818.00, 
1819.00, 
1820.00, 
1821.00, 
1822.00, 
1823.00, 
1824.00, 
1825.00, 
1826.00, 
1827.00, 
1828.00, 
1829.00, 
1830.00, 
1831.00, 
1832.00, 
1833.00, 
1834.00, 
1835.00, 
1836.00, 
1837.00, 
1838.00, 
1839.00, 
1840.00, 
1841.00, 
1842.00, 
1843.00, 
1844.00, 
1845.00, 
1846.00, 
1847.00, 
1848.00, 
1849.00, 
1850.00, 
1851.00, 
1852.00, 
1853.00, 
1854.00, 
1855.00, 
1856.00, 
1857.00, 
1858.00, 
1859.00, 
1860.00, 
1861.00, 
1862.00, 
1863.00, 
1864.00, 
1865.00, 
1866.00, 
1867.00, 
1868.00, 
1869.00, 
1870.00, 
1871.00, 
1872.00, 
1873.00, 
1874.00, 
1875.00, 
1876.00, 
1877.00, 
1878.00, 
1879.00, 
1880.00, 
1881.00, 
1882.00, 
1883.00, 
1884.00, 
1885.00, 
1886.00, 
1887.00, 
1888.00, 
1889.00, 
1890.00, 
1891.00, 
1892.00, 
1893.00, 
1894.00, 
1895.00, 
1896.00, 
1897.00, 
1898.00, 
1899.00, 
1900.00, 
1901.00, 
1902.00, 
1903.00, 
1904.00, 
1905.00, 
1906.00, 
1907.00, 
1908.00, 
1909.00, 
1910.00, 
1911.00, 
1912.00, 
1913.00, 
1914.00, 
1915.00, 
1916.00, 
1917.00, 
1918.00, 
1919.00, 
1920.00, 
1921.00, 
1922.00, 
1923.00, 
1924.00, 
1925.00, 
1926.00, 
1927.00, 
1928.00, 
1929.00, 
1930.00, 
1931.00, 
1932.00, 
1933.00, 
1934.00, 
1935.00, 
1936.00, 
1937.00, 
1938.00, 
1939.00, 
1940.00, 
1941.00, 
1942.00, 
1943.00, 
1944.00, 
1945.00, 
1946.00, 
1947.00, 
1948.00, 
1949.00, 
1950.00, 
1951.00, 
1952.00, 
1953.00, 
1954.00, 
1955.00, 
1956.00, 
1957.00, 
1958.00, 
1959.00, 
1960.00, 
1961.00, 
1962.00, 
1963.00, 
1964.00, 
1965.00, 
1966.00, 
1967.00, 
1968.00, 
1969.00, 
1970.00, 
1971.00, 
1972.00, 
1973.00, 
1974.00, 
1975.00, 
1976.00, 
1977.00, 
1978.00, 
1979.00, 
1980.00, 
1981.00, 
1982.00, 
1983.00, 
1984.00, 
1985.00, 
1986.00, 
1987.00, 
1988.00, 
1989.00, 
1990.00, 
1991.00, 
1992.00, 
1993.00, 
1994.00, 
1995.00, 
1996.00, 
1997.00, 
1998.00, 
1999.00, 
2000.00, 
2001.00, 
2002.00, 
2003.00, 
2004.00, 
2005.00, 
2006.00, 
2007.00, 
2008.00, 
2009.00, 
2010.00, 
2011.00, 
2012.00, 
2013.00, 
2014.00, 
2015.00, 
2016.00, 
2017.00, 
2018.00, 
2019.00, 
2020.00, 
2021.00, 
2022.00, 
2023.00, 
2024.00, 
2025.00, 
2026.00, 
2027.00, 
2028.00, 
2029.00, 
2030.00, 
2031.00, 
2032.00, 
2033.00, 
2034.00, 
2035.00, 
2036.00, 
2037.00, 
2038.00, 
2039.00, 
2040.00, 
2041.00, 
2042.00, 
2043.00, 
2044.00, 
2045.00, 
2046.00, 
2047.00, 
2048.00, 
2049.00, 
2050.00, 
2051.00, 
2052.00, 
2053.00, 
2054.00, 
2055.00, 
2056.00, 
2057.00, 
2058.00, 
2059.00, 
2060.00, 
2061.00, 
2062.00, 
2063.00, 
2064.00, 
2065.00, 
2066.00, 
2067.00, 
2068.00, 
2069.00, 
2070.00, 
2071.00, 
2072.00, 
2073.00, 
2074.00, 
2075.00, 
2076.00, 
2077.00, 
2078.00, 
2079.00, 
2080.00, 
2081.00, 
2082.00, 
2083.00, 
2084.00, 
2085.00, 
2086.00, 
2087.00, 
2088.00, 
2089.00, 
2090.00, 
2091.00, 
2092.00, 
2093.00, 
2094.00, 
2095.00, 
2096.00, 
2097.00, 
2098.00, 
2099.00, 
2100.00, 
2101.00, 
2102.00, 
2103.00, 
2104.00, 
2105.00, 
2106.00, 
2107.00, 
2108.00, 
2109.00, 
2110.00, 
2111.00, 
2112.00, 
2113.00, 
2114.00, 
2115.00, 
2116.00, 
2117.00, 
2118.00, 
2119.00, 
2120.00, 
2121.00, 
2122.00, 
2123.00, 
2124.00, 
2125.00, 
2126.00, 
2127.00, 
2128.00, 
2129.00, 
2130.00, 
2131.00, 
2132.00, 
2133.00, 
2134.00, 
2135.00, 
2136.00, 
2137.00, 
2138.00, 
2139.00, 
2140.00, 
2141.00, 
2142.00, 
2143.00, 
2144.00, 
2145.00, 
2146.00, 
2147.00, 
2148.00, 
2149.00, 
2150.00, 
2151.00, 
2152.00, 
2153.00, 
2154.00, 
2155.00, 
2156.00, 
2157.00, 
2158.00, 
2159.00, 
2160.00, 
2161.00, 
2162.00, 
2163.00, 
2164.00, 
2165.00, 
2166.00, 
2167.00, 
2168.00, 
2169.00, 
2170.00, 
2171.00, 
2172.00, 
2173.00, 
2174.00, 
2175.00, 
2176.00, 
2177.00, 
2178.00, 
2179.00, 
2180.00, 
2181.00, 
2182.00, 
2183.00, 
2184.00, 
2185.00, 
2186.00, 
2187.00, 
2188.00, 
2189.00, 
2190.00, 
2191.00, 
2192.00, 
2193.00, 
2194.00, 
2195.00, 
2196.00, 
2197.00, 
2198.00, 
2199.00, 
2200.00, 
2201.00, 
2202.00, 
2203.00, 
2204.00, 
2205.00, 
2206.00, 
2207.00, 
2208.00, 
2209.00, 
2210.00, 
2211.00, 
2212.00, 
2213.00, 
2214.00, 
2215.00, 
2216.00, 
2217.00, 
2218.00, 
2219.00, 
2220.00, 
2221.00, 
2222.00, 
2223.00, 
2224.00, 
2225.00, 
2226.00, 
2227.00, 
2228.00, 
2229.00, 
2230.00, 
2231.00, 
2232.00, 
2233.00, 
2234.00, 
2235.00, 
2236.00, 
2237.00, 
2238.00, 
2239.00, 
2240.00, 
2241.00, 
2242.00, 
2243.00, 
2244.00, 
2245.00, 
2246.00, 
2247.00, 
2248.00, 
2249.00, 
2250.00, 
2251.00, 
2252.00, 
2253.00, 
2254.00, 
2255.00, 
2256.00, 
2257.00, 
2258.00, 
2259.00, 
2260.00, 
2261.00, 
2262.00, 
2263.00, 
2264.00, 
2265.00, 
2266.00, 
2267.00, 
2268.00, 
2269.00, 
2270.00, 
2271.00, 
2272.00, 
2273.00, 
2274.00, 
2275.00, 
2276.00, 
2277.00, 
2278.00, 
2279.00, 
2280.00, 
2281.00, 
2282.00, 
2283.00, 
2284.00, 
2285.00, 
2286.00, 
2287.00, 
2288.00, 
2289.00, 
2290.00, 
2291.00, 
2292.00, 
2293.00, 
2294.00, 
2295.00, 
2296.00, 
2297.00, 
2298.00, 
2299.00, 
2300.00, 
2301.00, 
2302.00, 
2303.00, 
2304.00, 
2305.00, 
2306.00, 
2307.00, 
2308.00, 
2309.00, 
2310.00, 
2311.00, 
2312.00, 
2313.00, 
2314.00, 
2315.00, 
2316.00, 
2317.00, 
2318.00, 
2319.00, 
2320.00, 
2321.00, 
2322.00, 
2323.00, 
2324.00, 
2325.00, 
2326.00, 
2327.00, 
2328.00, 
2329.00, 
2330.00, 
2331.00, 
2332.00, 
2333.00, 
2334.00, 
2335.00, 
2336.00, 
2337.00, 
2338.00, 
2339.00, 
2340.00, 
2341.00, 
2342.00, 
2343.00, 
2344.00, 
2345.00, 
2346.00, 
2347.00, 
2348.00, 
2349.00, 
2350.00, 
2351.00, 
2352.00, 
2353.00, 
2354.00, 
2355.00, 
2356.00, 
2357.00, 
2358.00, 
2359.00, 
2360.00, 
2361.00, 
2362.00, 
2363.00, 
2364.00, 
2365.00, 
2366.00, 
2367.00, 
2368.00, 
2369.00, 
2370.00, 
2371.00, 
2372.00, 
2373.00, 
2374.00, 
2375.00, 
2376.00, 
2377.00, 
2378.00, 
2379.00, 
2380.00, 
2381.00, 
2382.00, 
2383.00, 
2384.00, 
2385.00, 
2386.00, 
2387.00, 
2388.00, 
2389.00, 
2390.00, 
2391.00, 
2392.00, 
2393.00, 
2394.00, 
2395.00, 
2396.00, 
2397.00, 
2398.00, 
2399.00, 
2400.00, 
2401.00, 
2402.00, 
2403.00, 
2404.00, 
2405.00, 
2406.00, 
2407.00, 
2408.00, 
2409.00, 
2410.00, 
2411.00, 
2412.00, 
2413.00, 
2414.00, 
2415.00, 
2416.00, 
2417.00, 
2418.00, 
2419.00, 
2420.00, 
2421.00, 
2422.00, 
2423.00, 
2424.00, 
2425.00, 
2426.00, 
2427.00, 
2428.00, 
2429.00, 
2430.00, 
2431.00, 
2432.00, 
2433.00, 
2434.00, 
2435.00, 
2436.00, 
2437.00, 
2438.00, 
2439.00, 
2440.00, 
2441.00, 
2442.00, 
2443.00, 
2444.00, 
2445.00, 
2446.00, 
2447.00, 
2448.00, 
2449.00, 
2450.00, 
2451.00, 
2452.00, 
2453.00, 
2454.00, 
2455.00, 
2456.00, 
2457.00, 
2458.00, 
2459.00, 
2460.00, 
2461.00, 
2462.00, 
2463.00, 
2464.00, 
2465.00, 
2466.00, 
2467.00, 
2468.00, 
2469.00, 
2470.00, 
2471.00, 
2472.00, 
2473.00, 
2474.00, 
2475.00, 
2476.00, 
2477.00, 
2478.00, 
2479.00, 
2480.00, 
2481.00, 
2482.00, 
2483.00, 
2484.00, 
2485.00, 
2486.00, 
2487.00, 
2488.00, 
2489.00, 
2490.00, 
2491.00, 
2492.00, 
2493.00, 
2494.00, 
2495.00, 
2496.00, 
2497.00, 
2498.00, 
2499.00, 
2500.00, 
2501.00, 
2502.00, 
2503.00, 
2504.00, 
2505.00, 
2506.00, 
2507.00, 
2508.00, 
2509.00, 
2510.00, 
2511.00, 
2512.00, 
2513.00, 
2514.00, 
2515.00, 
2516.00, 
2517.00, 
2518.00, 
2519.00, 
2520.00, 
2521.00, 
2522.00, 
2523.00, 
2524.00, 
2525.00, 
2526.00, 
2527.00, 
2528.00, 
2529.00, 
2530.00, 
2531.00, 
2532.00, 
2533.00, 
2534.00, 
2535.00, 
2536.00, 
2537.00, 
2538.00, 
2539.00, 
2540.00, 
2541.00, 
2542.00, 
2543.00, 
2544.00, 
2545.00, 
2546.00, 
2547.00, 
2548.00, 
2549.00, 
2550.00, 
2551.00, 
2552.00, 
2553.00, 
2554.00, 
2555.00, 
2556.00, 
2557.00, 
2558.00, 
2559.00, 
2560.00, 
2561.00, 
2562.00, 
2563.00, 
2564.00, 
2565.00, 
2566.00, 
2567.00, 
2568.00, 
2569.00, 
2570.00, 
2571.00, 
2572.00, 
2573.00, 
2574.00, 
2575.00, 
2576.00, 
2577.00, 
2578.00, 
2579.00, 
2580.00, 
2581.00, 
2582.00, 
2583.00, 
2584.00, 
2585.00, 
2586.00, 
2587.00, 
2588.00, 
2589.00, 
2590.00, 
2591.00, 
2592.00, 
2593.00, 
2594.00, 
2595.00, 
2596.00, 
2597.00, 
2598.00, 
2599.00, 
2600.00, 
