"2cP5 - RawData"
"Wavelength nm.","T%"
200.00,0.001
201.00,0.004
202.00,0.004
203.00,-0.003
204.00,0.001
205.00,-0.001
206.00,0.001
207.00,0.001
208.00,-0.000
209.00,-0.002
210.00,-0.000
211.00,0.002
212.00,-0.000
213.00,0.001
214.00,-0.001
215.00,0.001
216.00,0.002
217.00,-0.000
218.00,0.002
219.00,0.001
220.00,0.001
221.00,0.005
222.00,-0.000
223.00,0.001
224.00,0.002
225.00,0.000
226.00,0.001
227.00,0.000
228.00,-0.001
229.00,-0.000
230.00,0.002
231.00,0.002
232.00,0.002
233.00,0.002
234.00,-0.000
235.00,-0.001
236.00,-0.000
237.00,0.001
238.00,0.002
239.00,-0.001
240.00,-0.000
241.00,0.001
242.00,0.000
243.00,0.001
244.00,0.000
245.00,0.000
246.00,-0.000
247.00,0.001
248.00,0.000
249.00,0.001
250.00,0.000
251.00,0.002
252.00,-0.001
253.00,0.001
254.00,0.001
255.00,0.001
256.00,0.001
257.00,0.001
258.00,-0.000
259.00,0.001
260.00,0.001
261.00,-0.002
262.00,0.001
263.00,-0.000
264.00,0.000
265.00,0.000
266.00,-0.001
267.00,-0.000
268.00,-0.001
269.00,0.000
270.00,-0.001
271.00,-0.001
272.00,0.000
273.00,0.001
274.00,0.001
275.00,-0.001
276.00,-0.000
277.00,-0.001
278.00,-0.000
279.00,0.001
280.00,-0.001
281.00,0.000
282.00,-0.000
283.00,0.000
284.00,-0.001
285.00,0.001
286.00,0.001
287.00,-0.002
288.00,0.001
289.00,0.000
290.00,-0.000
291.00,-0.000
292.00,0.001
293.00,0.000
294.00,-0.000
295.00,0.002
296.00,0.001
297.00,0.000
298.00,0.001
299.00,-0.000
300.00,0.002
301.00,0.002
302.00,0.006
303.00,0.008
304.00,0.012
305.00,0.018
306.00,0.026
307.00,0.037
308.00,0.059
309.00,0.092
310.00,0.131
311.00,0.174
312.00,0.243
313.00,0.323
314.00,0.421
315.00,0.543
316.00,0.691
317.00,0.877
318.00,1.081
319.00,1.339
320.00,1.629
321.00,1.940
322.00,2.281
323.00,2.704
324.00,3.125
325.00,3.554
326.00,4.004
327.00,4.518
328.00,5.068
329.00,5.609
330.00,6.163
331.00,6.723
332.00,7.313
333.00,7.933
334.00,8.529
335.00,9.112
336.00,9.696
337.00,10.307
338.00,10.870
339.00,11.448
340.00,12.011
341.00,12.529
342.00,13.021
343.00,13.522
344.00,13.968
345.00,14.442
346.00,14.846
347.00,15.266
348.00,15.650
349.00,16.005
350.00,16.323
351.00,16.622
352.00,16.901
353.00,17.177
354.00,17.471
355.00,17.688
356.00,17.872
357.00,18.079
358.00,18.271
359.00,18.501
360.00,18.658
361.00,18.791
362.00,18.957
363.00,19.091
364.00,19.161
365.00,19.237
366.00,19.333
367.00,19.368
368.00,19.430
369.00,19.465
370.00,19.525
371.00,19.554
372.00,19.543
373.00,19.561
374.00,19.529
375.00,19.505
376.00,19.494
377.00,19.436
378.00,19.398
379.00,19.314
380.00,19.317
381.00,19.308
382.00,19.275
383.00,19.287
384.00,19.287
385.00,19.347
386.00,19.344
387.00,19.371
388.00,19.416
389.00,19.410
390.00,19.453
391.00,19.471
392.00,19.519
393.00,19.477
394.00,19.491
395.00,19.524
396.00,19.493
397.00,19.504
398.00,19.477
399.00,19.504
400.00,19.526
401.00,19.507
402.00,19.512
403.00,19.500
404.00,19.485
405.00,19.485
406.00,19.486
407.00,19.458
408.00,19.459
409.00,19.393
410.00,19.376
411.00,19.380
412.00,19.342
413.00,19.381
414.00,19.384
415.00,19.358
416.00,19.409
417.00,19.393
418.00,19.408
419.00,19.483
420.00,19.537
421.00,19.590
422.00,19.583
423.00,19.613
424.00,19.659
425.00,19.682
426.00,19.732
427.00,19.777
428.00,19.840
429.00,19.870
430.00,19.921
431.00,19.976
432.00,20.025
433.00,20.073
434.00,20.143
435.00,20.209
436.00,20.272
437.00,20.346
438.00,20.398
439.00,20.501
440.00,20.574
441.00,20.649
442.00,20.743
443.00,20.814
444.00,20.921
445.00,20.975
446.00,21.091
447.00,21.212
448.00,21.300
449.00,21.409
450.00,21.507
451.00,21.604
452.00,21.720
453.00,21.835
454.00,21.930
455.00,22.049
456.00,22.168
457.00,22.267
458.00,22.377
459.00,22.507
460.00,22.638
461.00,22.780
462.00,22.910
463.00,23.031
464.00,23.158
465.00,23.326
466.00,23.355
467.00,23.590
468.00,23.696
469.00,23.775
470.00,23.905
471.00,24.046
472.00,24.096
473.00,24.267
474.00,24.365
475.00,24.498
476.00,24.642
477.00,24.764
478.00,24.891
479.00,25.040
480.00,25.163
481.00,25.304
482.00,25.462
483.00,25.638
484.00,25.805
485.00,25.898
486.00,26.120
487.00,26.242
488.00,26.421
489.00,26.595
490.00,26.733
491.00,26.858
492.00,27.094
493.00,27.225
494.00,27.284
495.00,27.410
496.00,27.548
497.00,27.675
498.00,27.865
499.00,27.999
500.00,28.107
501.00,28.246
502.00,28.406
503.00,28.504
504.00,28.576
505.00,28.750
506.00,28.887
507.00,28.969
508.00,29.100
509.00,29.291
510.00,29.388
511.00,29.414
512.00,29.673
513.00,29.776
514.00,29.935
515.00,30.111
516.00,30.200
517.00,30.309
518.00,30.404
519.00,30.494
520.00,30.548
521.00,30.639
522.00,30.790
523.00,30.795
524.00,30.934
525.00,31.040
526.00,31.125
527.00,31.193
528.00,31.291
529.00,31.444
530.00,31.606
531.00,31.754
532.00,31.822
533.00,31.938
534.00,32.011
535.00,32.104
536.00,32.127
537.00,32.297
538.00,32.367
539.00,32.386
540.00,32.442
541.00,32.481
542.00,32.553
543.00,32.693
544.00,32.759
545.00,32.845
546.00,32.866
547.00,33.017
548.00,33.116
549.00,33.158
550.00,33.230
551.00,33.387
552.00,33.442
553.00,33.443
554.00,33.517
555.00,33.570
556.00,33.622
557.00,33.713
558.00,33.786
559.00,33.859
560.00,33.929
561.00,34.000
562.00,34.088
563.00,34.133
564.00,34.168
565.00,34.200
566.00,34.190
567.00,34.257
568.00,34.315
569.00,34.347
570.00,34.402
571.00,34.458
572.00,34.491
573.00,34.452
574.00,34.498
575.00,34.519
576.00,34.541
577.00,34.610
578.00,34.715
579.00,34.787
580.00,34.767
581.00,34.962
582.00,35.129
583.00,35.022
584.00,35.060
585.00,35.140
586.00,35.247
587.00,35.306
588.00,35.376
589.00,35.368
590.00,35.448
591.00,35.490
592.00,35.510
593.00,35.530
594.00,35.643
595.00,35.739
596.00,35.813
597.00,35.898
598.00,35.956
599.00,35.889
600.00,35.933
601.00,35.959
602.00,35.971
603.00,36.064
604.00,36.100
605.00,36.160
606.00,36.138
607.00,36.190
608.00,36.349
609.00,36.429
610.00,36.330
611.00,36.404
612.00,36.372
613.00,36.514
614.00,36.603
615.00,36.699
616.00,36.788
617.00,36.725
618.00,36.745
619.00,36.871
620.00,36.890
621.00,36.952
622.00,37.004
623.00,37.138
624.00,37.165
625.00,37.222
626.00,37.264
627.00,37.303
628.00,37.483
629.00,37.520
630.00,37.538
631.00,37.659
632.00,37.737
633.00,37.824
634.00,37.907
635.00,38.004
636.00,38.089
637.00,38.092
638.00,38.152
639.00,38.349
640.00,38.318
641.00,38.380
642.00,38.483
643.00,38.516
644.00,38.635
645.00,38.702
646.00,38.853
647.00,38.900
648.00,38.980
649.00,39.013
650.00,39.096
651.00,39.298
652.00,39.371
653.00,39.361
654.00,39.422
655.00,39.656
656.00,39.927
657.00,39.793
658.00,39.882
659.00,39.946
660.00,40.130
661.00,40.165
662.00,40.238
663.00,40.329
664.00,40.514
665.00,40.787
666.00,40.690
667.00,40.690
668.00,40.769
669.00,41.124
670.00,41.291
671.00,41.208
672.00,41.352
673.00,41.458
674.00,41.514
675.00,41.608
676.00,41.821
677.00,42.000
678.00,41.840
679.00,42.050
680.00,42.138
681.00,42.348
682.00,42.332
683.00,42.459
684.00,42.758
685.00,42.719
686.00,42.627
687.00,42.788
688.00,42.877
689.00,42.911
690.00,43.193
691.00,43.502
692.00,43.170
693.00,43.336
694.00,43.471
695.00,43.546
696.00,43.680
697.00,43.627
698.00,43.719
699.00,43.997
700.00,44.439
701.00,44.535
702.00,44.424
703.00,44.555
704.00,44.609
705.00,44.601
706.00,44.711
707.00,44.768
708.00,44.718
709.00,45.074
710.00,45.518
711.00,45.077
712.00,45.110
713.00,45.322
714.00,45.480
715.00,45.448
716.00,45.453
717.00,45.723
718.00,45.878
719.00,45.854
720.00,45.969
721.00,50.427
722.00,50.461
723.00,50.429
724.00,50.526
725.00,50.469
726.00,50.479
727.00,50.571
728.00,50.604
729.00,50.642
730.00,50.626
731.00,50.773
732.00,50.793
733.00,50.885
734.00,50.899
735.00,50.915
736.00,51.040
737.00,51.052
738.00,51.163
739.00,51.200
740.00,51.191
741.00,51.195
742.00,51.318
743.00,51.278
744.00,51.269
745.00,51.340
746.00,51.352
747.00,51.358
748.00,51.420
749.00,51.400
750.00,51.500
751.00,51.415
752.00,51.528
753.00,51.500
754.00,51.556
755.00,51.526
756.00,51.597
757.00,51.628
758.00,51.640
759.00,51.604
760.00,51.630
761.00,51.558
762.00,51.678
763.00,51.735
764.00,51.757
765.00,51.720
766.00,51.768
767.00,51.844
768.00,51.810
769.00,51.770
770.00,51.840
771.00,51.955
772.00,51.877
773.00,51.982
774.00,52.004
775.00,51.976
776.00,51.995
777.00,52.005
778.00,52.033
779.00,52.067
780.00,52.037
781.00,52.081
782.00,52.037
783.00,52.035
784.00,52.112
785.00,52.065
786.00,52.101
787.00,52.084
788.00,52.119
789.00,52.067
790.00,51.993
791.00,52.145
792.00,52.139
793.00,52.008
794.00,52.043
795.00,52.072
796.00,52.045
797.00,52.034
798.00,52.116
799.00,52.029
800.00,51.996
801.00,52.124
802.00,52.014
803.00,52.042
804.00,52.010
805.00,51.969
806.00,52.060
807.00,51.975
808.00,51.996
809.00,51.981
810.00,51.993
811.00,51.977
812.00,52.011
813.00,51.952
814.00,51.956
815.00,51.929
816.00,51.942
817.00,51.893
818.00,51.871
819.00,51.945
820.00,51.777
821.00,51.931
822.00,51.809
823.00,51.861
824.00,51.865
825.00,51.809
826.00,51.873
827.00,51.872
828.00,51.874
829.00,51.706
830.00,51.785
831.00,53.970
832.00,53.951
833.00,53.894
834.00,53.937
835.00,53.886
836.00,53.890
837.00,53.851
838.00,53.864
839.00,53.827
840.00,53.783
841.00,53.791
842.00,53.802
843.00,53.771
844.00,53.749
845.00,53.733
846.00,53.744
847.00,53.708
848.00,53.741
849.00,53.640
850.00,53.612
851.00,53.593
852.00,53.601
853.00,53.539
854.00,53.522
855.00,53.466
856.00,53.479
857.00,53.464
858.00,53.426
859.00,53.417
860.00,53.377
861.00,53.399
862.00,53.353
863.00,53.363
864.00,53.359
865.00,53.391
866.00,53.293
867.00,53.289
868.00,53.542
869.00,53.321
870.00,53.324
871.00,53.313
872.00,53.299
873.00,53.252
874.00,53.245
875.00,53.234
876.00,53.225
877.00,53.207
878.00,53.194
879.00,53.202
880.00,53.211
881.00,53.189
882.00,53.162
883.00,53.306
884.00,53.119
885.00,53.113
886.00,53.085
887.00,53.110
888.00,53.079
889.00,53.053
890.00,53.034
891.00,53.015
892.00,52.971
893.00,52.957
894.00,52.971
895.00,52.932
896.00,52.902
897.00,52.907
898.00,52.899
899.00,52.889
900.00,52.868
901.00,52.857
902.00,52.848
903.00,52.807
904.00,52.806
905.00,52.791
906.00,52.781
907.00,52.731
908.00,52.711
909.00,52.716
910.00,52.689
911.00,52.672
912.00,52.707
913.00,52.630
914.00,52.634
915.00,52.592
916.00,52.596
917.00,52.550
918.00,52.559
919.00,52.534
920.00,52.508
921.00,52.520
922.00,52.436
923.00,52.535
924.00,52.422
925.00,52.412
926.00,52.435
927.00,52.427
928.00,52.377
929.00,52.395
930.00,52.346
931.00,52.344
932.00,52.307
933.00,52.312
934.00,52.288
935.00,52.281
936.00,52.247
937.00,52.221
938.00,52.231
939.00,52.211
940.00,52.185
941.00,52.176
942.00,52.141
943.00,52.160
944.00,52.083
945.00,52.081
946.00,52.084
947.00,52.049
948.00,52.020
949.00,52.025
950.00,51.999
951.00,51.951
952.00,51.964
953.00,51.995
954.00,51.905
955.00,51.846
956.00,51.832
957.00,51.795
958.00,51.809
959.00,51.777
960.00,51.774
961.00,51.750
962.00,51.761
963.00,51.705
964.00,51.701
965.00,51.709
966.00,51.692
967.00,51.685
968.00,51.671
969.00,51.692
970.00,51.669
971.00,51.677
972.00,51.619
973.00,51.682
974.00,51.681
975.00,51.641
976.00,51.688
977.00,51.670
978.00,51.694
979.00,51.660
980.00,51.676
981.00,51.677
982.00,51.638
983.00,51.641
984.00,51.690
985.00,51.639
986.00,51.598
987.00,51.629
988.00,51.599
989.00,51.580
990.00,51.584
991.00,51.561
992.00,51.580
993.00,51.542
994.00,51.514
995.00,51.512
996.00,51.525
997.00,51.488
998.00,51.481
999.00,51.555
1000.00,51.464
1001.00,51.472
1002.00,51.444
1003.00,51.442
1004.00,51.422
1005.00,51.381
1006.00,51.425
1007.00,51.389
1008.00,51.371
1009.00,51.354
1010.00,51.347
1011.00,51.339
1012.00,51.309
1013.00,51.318
1014.00,51.291
1015.00,51.304
1016.00,51.254
1017.00,51.250
1018.00,51.243
1019.00,51.192
1020.00,51.199
1021.00,51.169
1022.00,51.170
1023.00,51.132
1024.00,51.143
1025.00,51.117
1026.00,51.109
1027.00,51.087
1028.00,51.078
1029.00,51.061
1030.00,51.021
1031.00,51.042
1032.00,50.991
1033.00,50.993
1034.00,50.984
1035.00,50.929
1036.00,50.909
1037.00,50.900
1038.00,50.882
1039.00,50.859
1040.00,50.841
1041.00,50.801
1042.00,50.811
1043.00,50.805
1044.00,50.828
1045.00,50.806
1046.00,50.775
1047.00,50.789
1048.00,50.814
1049.00,50.816
1050.00,50.826
1051.00,50.863
1052.00,50.853
1053.00,50.873
1054.00,50.870
1055.00,50.888
1056.00,50.905
1057.00,50.916
1058.00,50.902
1059.00,50.896
1060.00,50.931
1061.00,50.881
1062.00,50.877
1063.00,50.862
1064.00,50.865
1065.00,50.837
1066.00,50.823
1067.00,50.828
1068.00,50.844
1069.00,50.807
1070.00,50.795
1071.00,50.779
1072.00,50.805
1073.00,50.781
1074.00,50.767
1075.00,50.764
1076.00,50.771
1077.00,50.737
1078.00,50.726
1079.00,50.716
1080.00,50.713
1081.00,50.706
1082.00,50.674
1083.00,50.685
1084.00,50.680
1085.00,50.664
1086.00,50.671
1087.00,50.664
1088.00,50.640
1089.00,50.627
1090.00,50.617
1091.00,50.619
1092.00,50.604
1093.00,50.575
1094.00,50.570
1095.00,50.573
1096.00,50.556
1097.00,50.559
1098.00,50.548
1099.00,50.529
1100.00,50.531
1101.00,50.511
1102.00,50.515
1103.00,50.519
1104.00,50.492
1105.00,50.515
1106.00,50.520
1107.00,50.471
1108.00,50.460
1109.00,50.454
1110.00,50.429
1111.00,50.440
1112.00,50.417
1113.00,50.407
1114.00,50.415
1115.00,50.410
1116.00,50.407
1117.00,50.387
1118.00,50.379
1119.00,50.390
1120.00,50.378
1121.00,50.370
1122.00,50.354
1123.00,50.356
1124.00,50.327
1125.00,50.336
1126.00,50.323
1127.00,50.322
1128.00,50.308
1129.00,50.282
1130.00,50.292
1131.00,50.287
1132.00,50.269
1133.00,50.284
1134.00,50.261
1135.00,50.259
1136.00,50.287
1137.00,50.253
1138.00,50.245
1139.00,50.256
1140.00,50.228
1141.00,50.240
1142.00,50.223
1143.00,50.225
1144.00,50.214
1145.00,50.205
1146.00,50.205
1147.00,50.197
1148.00,50.179
1149.00,50.202
1150.00,50.212
1151.00,50.207
1152.00,50.221
1153.00,50.177
1154.00,50.158
1155.00,50.163
1156.00,50.149
1157.00,50.149
1158.00,50.150
1159.00,50.137
1160.00,50.141
1161.00,50.158
1162.00,50.137
1163.00,50.147
1164.00,50.141
1165.00,50.139
1166.00,50.149
1167.00,50.130
1168.00,50.156
1169.00,50.147
1170.00,50.139
1171.00,50.125
1172.00,50.137
1173.00,50.113
1174.00,50.127
1175.00,50.139
1176.00,50.125
1177.00,50.119
1178.00,50.106
1179.00,50.122
1180.00,50.107
1181.00,50.112
1182.00,50.114
1183.00,50.102
1184.00,50.082
1185.00,50.105
1186.00,50.085
1187.00,50.071
1188.00,50.070
1189.00,50.078
1190.00,50.081
1191.00,50.076
1192.00,50.088
1193.00,50.080
1194.00,50.091
1195.00,50.050
1196.00,50.112
1197.00,50.109
1198.00,50.071
1199.00,50.073
1200.00,50.079
1201.00,50.097
1202.00,50.076
1203.00,50.058
1204.00,50.048
1205.00,50.070
1206.00,50.050
1207.00,50.062
1208.00,50.045
1209.00,50.048
1210.00,50.054
1211.00,50.039
1212.00,50.060
1213.00,50.028
1214.00,50.049
1215.00,50.044
1216.00,50.050
1217.00,50.026
1218.00,50.025
1219.00,50.034
1220.00,50.012
1221.00,50.030
1222.00,50.024
1223.00,50.051
1224.00,50.056
1225.00,50.035
1226.00,50.045
1227.00,50.029
1228.00,50.033
1229.00,50.040
1230.00,50.071
1231.00,50.060
1232.00,50.090
1233.00,50.087
1234.00,50.093
1235.00,50.082
1236.00,50.071
1237.00,50.089
1238.00,50.099
1239.00,50.083
1240.00,50.092
1241.00,50.096
1242.00,50.096
1243.00,50.113
1244.00,50.077
1245.00,50.107
1246.00,50.112
1247.00,50.093
1248.00,50.111
1249.00,50.117
1250.00,50.112
1251.00,50.114
1252.00,50.125
1253.00,50.100
1254.00,50.122
1255.00,50.117
1256.00,50.072
1257.00,50.076
1258.00,50.145
1259.00,50.126
1260.00,50.155
1261.00,50.142
1262.00,50.150
1263.00,50.147
1264.00,50.136
1265.00,50.153
1266.00,50.144
1267.00,50.160
1268.00,50.173
1269.00,50.159
1270.00,50.176
1271.00,50.185
1272.00,50.178
1273.00,50.224
1274.00,50.195
1275.00,50.196
1276.00,50.213
1277.00,50.203
1278.00,50.214
1279.00,50.209
1280.00,50.196
1281.00,50.228
1282.00,50.230
1283.00,50.221
1284.00,50.231
1285.00,50.212
1286.00,50.224
1287.00,50.229
1288.00,50.225
1289.00,50.217
1290.00,50.260
1291.00,50.255
1292.00,50.252
1293.00,50.256
1294.00,50.246
1295.00,50.270
1296.00,50.257
1297.00,50.260
1298.00,50.291
1299.00,50.270
1300.00,50.281
1301.00,50.284
1302.00,50.302
1303.00,50.316
1304.00,50.302
1305.00,50.322
1306.00,50.353
1307.00,50.356
1308.00,50.328
1309.00,50.338
1310.00,50.334
1311.00,50.313
1312.00,50.325
1313.00,50.322
1314.00,50.355
1315.00,50.359
1316.00,50.349
1317.00,50.381
1318.00,50.363
1319.00,50.368
1320.00,50.404
1321.00,50.547
1322.00,50.554
1323.00,50.548
1324.00,50.526
1325.00,50.540
1326.00,50.562
1327.00,50.536
1328.00,50.562
1329.00,50.542
1330.00,50.539
1331.00,50.551
1332.00,50.536
1333.00,50.550
1334.00,50.572
1335.00,50.587
1336.00,50.606
1337.00,50.643
1338.00,50.694
1339.00,50.751
1340.00,50.797
1341.00,50.848
1342.00,50.936
1343.00,50.960
1344.00,51.008
1345.00,51.080
1346.00,51.099
1347.00,51.155
1348.00,51.152
1349.00,51.166
1350.00,51.187
1351.00,51.194
1352.00,51.200
1353.00,51.248
1354.00,51.249
1355.00,51.202
1356.00,51.248
1357.00,51.230
1358.00,51.260
1359.00,51.263
1360.00,51.265
1361.00,51.282
1362.00,51.216
1363.00,51.304
1364.00,51.335
1365.00,51.253
1366.00,51.291
1367.00,51.271
1368.00,51.218
1369.00,51.252
1370.00,51.253
1371.00,51.196
1372.00,51.219
1373.00,51.229
1374.00,51.224
1375.00,51.218
1376.00,51.204
1377.00,51.198
1378.00,51.216
1379.00,51.253
1380.00,51.247
1381.00,51.302
1382.00,51.252
1383.00,51.214
1384.00,51.179
1385.00,51.176
1386.00,51.234
1387.00,51.174
1388.00,51.125
1389.00,51.096
1390.00,51.211
1391.00,51.192
1392.00,51.170
1393.00,51.170
1394.00,51.239
1395.00,51.189
1396.00,51.133
1397.00,51.160
1398.00,51.218
1399.00,51.236
1400.00,51.165
1401.00,51.158
1402.00,51.247
1403.00,51.233
1404.00,51.214
1405.00,51.250
1406.00,51.269
1407.00,51.249
1408.00,51.283
1409.00,51.241
1410.00,51.272
1411.00,51.262
1412.00,51.289
1413.00,51.252
1414.00,51.281
1415.00,51.302
1416.00,51.326
1417.00,51.331
1418.00,51.314
1419.00,51.335
1420.00,51.342
1421.00,51.364
1422.00,51.373
1423.00,51.385
1424.00,51.398
1425.00,51.411
1426.00,51.405
1427.00,51.443
1428.00,51.438
1429.00,51.427
1430.00,51.457
1431.00,51.466
1432.00,51.479
1433.00,51.505
1434.00,51.497
1435.00,51.591
1436.00,51.565
1437.00,51.541
1438.00,51.581
1439.00,51.608
1440.00,51.593
1441.00,51.606
1442.00,51.604
1443.00,51.636
1444.00,51.664
1445.00,51.619
1446.00,51.672
1447.00,51.712
1448.00,51.768
1449.00,51.744
1450.00,51.751
1451.00,51.740
1452.00,51.779
1453.00,51.789
1454.00,51.796
1455.00,51.823
1456.00,51.828
1457.00,51.841
1458.00,51.859
1459.00,51.856
1460.00,51.897
1461.00,51.888
1462.00,51.911
1463.00,51.927
1464.00,51.930
1465.00,51.939
1466.00,51.948
1467.00,51.982
1468.00,52.026
1469.00,52.016
1470.00,52.025
1471.00,52.055
1472.00,52.056
1473.00,52.050
1474.00,52.086
1475.00,52.087
1476.00,52.095
1477.00,52.104
1478.00,52.109
1479.00,52.125
1480.00,52.124
1481.00,52.129
1482.00,52.170
1483.00,52.184
1484.00,52.217
1485.00,52.225
1486.00,52.211
1487.00,52.231
1488.00,52.248
1489.00,52.223
1490.00,52.264
1491.00,52.272
1492.00,52.276
1493.00,52.272
1494.00,52.303
1495.00,52.316
1496.00,52.351
1497.00,52.337
1498.00,52.335
1499.00,52.357
1500.00,52.367
1501.00, 
1502.00, 
1503.00, 
1504.00, 
1505.00, 
1506.00, 
1507.00, 
1508.00, 
1509.00, 
1510.00, 
1511.00, 
1512.00, 
1513.00, 
1514.00, 
1515.00, 
1516.00, 
1517.00, 
1518.00, 
1519.00, 
1520.00, 
1521.00, 
1522.00, 
1523.00, 
1524.00, 
1525.00, 
1526.00, 
1527.00, 
1528.00, 
1529.00, 
1530.00, 
1531.00, 
1532.00, 
1533.00, 
1534.00, 
1535.00, 
1536.00, 
1537.00, 
1538.00, 
1539.00, 
1540.00, 
1541.00, 
1542.00, 
1543.00, 
1544.00, 
1545.00, 
1546.00, 
1547.00, 
1548.00, 
1549.00, 
1550.00, 
1551.00, 
1552.00, 
1553.00, 
1554.00, 
1555.00, 
1556.00, 
1557.00, 
1558.00, 
1559.00, 
1560.00, 
1561.00, 
1562.00, 
1563.00, 
1564.00, 
1565.00, 
1566.00, 
1567.00, 
1568.00, 
1569.00, 
1570.00, 
1571.00, 
1572.00, 
1573.00, 
1574.00, 
1575.00, 
1576.00, 
1577.00, 
1578.00, 
1579.00, 
1580.00, 
1581.00, 
1582.00, 
1583.00, 
1584.00, 
1585.00, 
1586.00, 
1587.00, 
1588.00, 
1589.00, 
1590.00, 
1591.00, 
1592.00, 
1593.00, 
1594.00, 
1595.00, 
1596.00, 
1597.00, 
1598.00, 
1599.00, 
1600.00, 
1601.00, 
1602.00, 
1603.00, 
1604.00, 
1605.00, 
1606.00, 
1607.00, 
1608.00, 
1609.00, 
1610.00, 
1611.00, 
1612.00, 
1613.00, 
1614.00, 
1615.00, 
1616.00, 
1617.00, 
1618.00, 
1619.00, 
1620.00, 
1621.00, 
1622.00, 
1623.00, 
1624.00, 
1625.00, 
1626.00, 
1627.00, 
1628.00, 
1629.00, 
1630.00, 
1631.00, 
1632.00, 
1633.00, 
1634.00, 
1635.00, 
1636.00, 
1637.00, 
1638.00, 
1639.00, 
1640.00, 
1641.00, 
1642.00, 
1643.00, 
1644.00, 
1645.00, 
1646.00, 
1647.00, 
1648.00, 
1649.00, 
1650.00, 
1651.00, 
1652.00, 
1653.00, 
1654.00, 
1655.00, 
1656.00, 
1657.00, 
1658.00, 
1659.00, 
1660.00, 
1661.00, 
1662.00, 
1663.00, 
1664.00, 
1665.00, 
1666.00, 
1667.00, 
1668.00, 
1669.00, 
1670.00, 
1671.00, 
1672.00, 
1673.00, 
1674.00, 
1675.00, 
1676.00, 
1677.00, 
1678.00, 
1679.00, 
1680.00, 
1681.00, 
1682.00, 
1683.00, 
1684.00, 
1685.00, 
1686.00, 
1687.00, 
1688.00, 
1689.00, 
1690.00, 
1691.00, 
1692.00, 
1693.00, 
1694.00, 
1695.00, 
1696.00, 
1697.00, 
1698.00, 
1699.00, 
1700.00, 
1701.00, 
1702.00, 
1703.00, 
1704.00, 
1705.00, 
1706.00, 
1707.00, 
1708.00, 
1709.00, 
1710.00, 
1711.00, 
1712.00, 
1713.00, 
1714.00, 
1715.00, 
1716.00, 
1717.00, 
1718.00, 
1719.00, 
1720.00, 
1721.00, 
1722.00, 
1723.00, 
1724.00, 
1725.00, 
1726.00, 
1727.00, 
1728.00, 
1729.00, 
1730.00, 
1731.00, 
1732.00, 
1733.00, 
1734.00, 
1735.00, 
1736.00, 
1737.00, 
1738.00, 
1739.00, 
1740.00, 
1741.00, 
1742.00, 
1743.00, 
1744.00, 
1745.00, 
1746.00, 
1747.00, 
1748.00, 
1749.00, 
1750.00, 
1751.00, 
1752.00, 
1753.00, 
1754.00, 
1755.00, 
1756.00, 
1757.00, 
1758.00, 
1759.00, 
1760.00, 
1761.00, 
1762.00, 
1763.00, 
1764.00, 
1765.00, 
1766.00, 
1767.00, 
1768.00, 
1769.00, 
1770.00, 
1771.00, 
1772.00, 
1773.00, 
1774.00, 
1775.00, 
1776.00, 
1777.00, 
1778.00, 
1779.00, 
1780.00, 
1781.00, 
1782.00, 
1783.00, 
1784.00, 
1785.00, 
1786.00, 
1787.00, 
1788.00, 
1789.00, 
1790.00, 
1791.00, 
1792.00, 
1793.00, 
1794.00, 
1795.00, 
1796.00, 
1797.00, 
1798.00, 
1799.00, 
1800.00, 
1801.00, 
1802.00, 
1803.00, 
1804.00, 
1805.00, 
1806.00, 
1807.00, 
1808.00, 
1809.00, 
1810.00, 
1811.00, 
1812.00, 
1813.00, 
1814.00, 
1815.00, 
1816.00, 
1817.00, 
1818.00, 
1819.00, 
1820.00, 
1821.00, 
1822.00, 
1823.00, 
1824.00, 
1825.00, 
1826.00, 
1827.00, 
1828.00, 
1829.00, 
1830.00, 
1831.00, 
1832.00, 
1833.00, 
1834.00, 
1835.00, 
1836.00, 
1837.00, 
1838.00, 
1839.00, 
1840.00, 
1841.00, 
1842.00, 
1843.00, 
1844.00, 
1845.00, 
1846.00, 
1847.00, 
1848.00, 
1849.00, 
1850.00, 
1851.00, 
1852.00, 
1853.00, 
1854.00, 
1855.00, 
1856.00, 
1857.00, 
1858.00, 
1859.00, 
1860.00, 
1861.00, 
1862.00, 
1863.00, 
1864.00, 
1865.00, 
1866.00, 
1867.00, 
1868.00, 
1869.00, 
1870.00, 
1871.00, 
1872.00, 
1873.00, 
1874.00, 
1875.00, 
1876.00, 
1877.00, 
1878.00, 
1879.00, 
1880.00, 
1881.00, 
1882.00, 
1883.00, 
1884.00, 
1885.00, 
1886.00, 
1887.00, 
1888.00, 
1889.00, 
1890.00, 
1891.00, 
1892.00, 
1893.00, 
1894.00, 
1895.00, 
1896.00, 
1897.00, 
1898.00, 
1899.00, 
1900.00, 
1901.00, 
1902.00, 
1903.00, 
1904.00, 
1905.00, 
1906.00, 
1907.00, 
1908.00, 
1909.00, 
1910.00, 
1911.00, 
1912.00, 
1913.00, 
1914.00, 
1915.00, 
1916.00, 
1917.00, 
1918.00, 
1919.00, 
1920.00, 
1921.00, 
1922.00, 
1923.00, 
1924.00, 
1925.00, 
1926.00, 
1927.00, 
1928.00, 
1929.00, 
1930.00, 
1931.00, 
1932.00, 
1933.00, 
1934.00, 
1935.00, 
1936.00, 
1937.00, 
1938.00, 
1939.00, 
1940.00, 
1941.00, 
1942.00, 
1943.00, 
1944.00, 
1945.00, 
1946.00, 
1947.00, 
1948.00, 
1949.00, 
1950.00, 
1951.00, 
1952.00, 
1953.00, 
1954.00, 
1955.00, 
1956.00, 
1957.00, 
1958.00, 
1959.00, 
1960.00, 
1961.00, 
1962.00, 
1963.00, 
1964.00, 
1965.00, 
1966.00, 
1967.00, 
1968.00, 
1969.00, 
1970.00, 
1971.00, 
1972.00, 
1973.00, 
1974.00, 
1975.00, 
1976.00, 
1977.00, 
1978.00, 
1979.00, 
1980.00, 
1981.00, 
1982.00, 
1983.00, 
1984.00, 
1985.00, 
1986.00, 
1987.00, 
1988.00, 
1989.00, 
1990.00, 
1991.00, 
1992.00, 
1993.00, 
1994.00, 
1995.00, 
1996.00, 
1997.00, 
1998.00, 
1999.00, 
2000.00, 
2001.00, 
2002.00, 
2003.00, 
2004.00, 
2005.00, 
2006.00, 
2007.00, 
2008.00, 
2009.00, 
2010.00, 
2011.00, 
2012.00, 
2013.00, 
2014.00, 
2015.00, 
2016.00, 
2017.00, 
2018.00, 
2019.00, 
2020.00, 
2021.00, 
2022.00, 
2023.00, 
2024.00, 
2025.00, 
2026.00, 
2027.00, 
2028.00, 
2029.00, 
2030.00, 
2031.00, 
2032.00, 
2033.00, 
2034.00, 
2035.00, 
2036.00, 
2037.00, 
2038.00, 
2039.00, 
2040.00, 
2041.00, 
2042.00, 
2043.00, 
2044.00, 
2045.00, 
2046.00, 
2047.00, 
2048.00, 
2049.00, 
2050.00, 
2051.00, 
2052.00, 
2053.00, 
2054.00, 
2055.00, 
2056.00, 
2057.00, 
2058.00, 
2059.00, 
2060.00, 
2061.00, 
2062.00, 
2063.00, 
2064.00, 
2065.00, 
2066.00, 
2067.00, 
2068.00, 
2069.00, 
2070.00, 
2071.00, 
2072.00, 
2073.00, 
2074.00, 
2075.00, 
2076.00, 
2077.00, 
2078.00, 
2079.00, 
2080.00, 
2081.00, 
2082.00, 
2083.00, 
2084.00, 
2085.00, 
2086.00, 
2087.00, 
2088.00, 
2089.00, 
2090.00, 
2091.00, 
2092.00, 
2093.00, 
2094.00, 
2095.00, 
2096.00, 
2097.00, 
2098.00, 
2099.00, 
2100.00, 
2101.00, 
2102.00, 
2103.00, 
2104.00, 
2105.00, 
2106.00, 
2107.00, 
2108.00, 
2109.00, 
2110.00, 
2111.00, 
2112.00, 
2113.00, 
2114.00, 
2115.00, 
2116.00, 
2117.00, 
2118.00, 
2119.00, 
2120.00, 
2121.00, 
2122.00, 
2123.00, 
2124.00, 
2125.00, 
2126.00, 
2127.00, 
2128.00, 
2129.00, 
2130.00, 
2131.00, 
2132.00, 
2133.00, 
2134.00, 
2135.00, 
2136.00, 
2137.00, 
2138.00, 
2139.00, 
2140.00, 
2141.00, 
2142.00, 
2143.00, 
2144.00, 
2145.00, 
2146.00, 
2147.00, 
2148.00, 
2149.00, 
2150.00, 
2151.00, 
2152.00, 
2153.00, 
2154.00, 
2155.00, 
2156.00, 
2157.00, 
2158.00, 
2159.00, 
2160.00, 
2161.00, 
2162.00, 
2163.00, 
2164.00, 
2165.00, 
2166.00, 
2167.00, 
2168.00, 
2169.00, 
2170.00, 
2171.00, 
2172.00, 
2173.00, 
2174.00, 
2175.00, 
2176.00, 
2177.00, 
2178.00, 
2179.00, 
2180.00, 
2181.00, 
2182.00, 
2183.00, 
2184.00, 
2185.00, 
2186.00, 
2187.00, 
2188.00, 
2189.00, 
2190.00, 
2191.00, 
2192.00, 
2193.00, 
2194.00, 
2195.00, 
2196.00, 
2197.00, 
2198.00, 
2199.00, 
2200.00, 
2201.00, 
2202.00, 
2203.00, 
2204.00, 
2205.00, 
2206.00, 
2207.00, 
2208.00, 
2209.00, 
2210.00, 
2211.00, 
2212.00, 
2213.00, 
2214.00, 
2215.00, 
2216.00, 
2217.00, 
2218.00, 
2219.00, 
2220.00, 
2221.00, 
2222.00, 
2223.00, 
2224.00, 
2225.00, 
2226.00, 
2227.00, 
2228.00, 
2229.00, 
2230.00, 
2231.00, 
2232.00, 
2233.00, 
2234.00, 
2235.00, 
2236.00, 
2237.00, 
2238.00, 
2239.00, 
2240.00, 
2241.00, 
2242.00, 
2243.00, 
2244.00, 
2245.00, 
2246.00, 
2247.00, 
2248.00, 
2249.00, 
2250.00, 
2251.00, 
2252.00, 
2253.00, 
2254.00, 
2255.00, 
2256.00, 
2257.00, 
2258.00, 
2259.00, 
2260.00, 
2261.00, 
2262.00, 
2263.00, 
2264.00, 
2265.00, 
2266.00, 
2267.00, 
2268.00, 
2269.00, 
2270.00, 
2271.00, 
2272.00, 
2273.00, 
2274.00, 
2275.00, 
2276.00, 
2277.00, 
2278.00, 
2279.00, 
2280.00, 
2281.00, 
2282.00, 
2283.00, 
2284.00, 
2285.00, 
2286.00, 
2287.00, 
2288.00, 
2289.00, 
2290.00, 
2291.00, 
2292.00, 
2293.00, 
2294.00, 
2295.00, 
2296.00, 
2297.00, 
2298.00, 
2299.00, 
2300.00, 
2301.00, 
2302.00, 
2303.00, 
2304.00, 
2305.00, 
2306.00, 
2307.00, 
2308.00, 
2309.00, 
2310.00, 
2311.00, 
2312.00, 
2313.00, 
2314.00, 
2315.00, 
2316.00, 
2317.00, 
2318.00, 
2319.00, 
2320.00, 
2321.00, 
2322.00, 
2323.00, 
2324.00, 
2325.00, 
2326.00, 
2327.00, 
2328.00, 
2329.00, 
2330.00, 
2331.00, 
2332.00, 
2333.00, 
2334.00, 
2335.00, 
2336.00, 
2337.00, 
2338.00, 
2339.00, 
2340.00, 
2341.00, 
2342.00, 
2343.00, 
2344.00, 
2345.00, 
2346.00, 
2347.00, 
2348.00, 
2349.00, 
2350.00, 
2351.00, 
2352.00, 
2353.00, 
2354.00, 
2355.00, 
2356.00, 
2357.00, 
2358.00, 
2359.00, 
2360.00, 
2361.00, 
2362.00, 
2363.00, 
2364.00, 
2365.00, 
2366.00, 
2367.00, 
2368.00, 
2369.00, 
2370.00, 
2371.00, 
2372.00, 
2373.00, 
2374.00, 
2375.00, 
2376.00, 
2377.00, 
2378.00, 
2379.00, 
2380.00, 
2381.00, 
2382.00, 
2383.00, 
2384.00, 
2385.00, 
2386.00, 
2387.00, 
2388.00, 
2389.00, 
2390.00, 
2391.00, 
2392.00, 
2393.00, 
2394.00, 
2395.00, 
2396.00, 
2397.00, 
2398.00, 
2399.00, 
2400.00, 
2401.00, 
2402.00, 
2403.00, 
2404.00, 
2405.00, 
2406.00, 
2407.00, 
2408.00, 
2409.00, 
2410.00, 
2411.00, 
2412.00, 
2413.00, 
2414.00, 
2415.00, 
2416.00, 
2417.00, 
2418.00, 
2419.00, 
2420.00, 
2421.00, 
2422.00, 
2423.00, 
2424.00, 
2425.00, 
2426.00, 
2427.00, 
2428.00, 
2429.00, 
2430.00, 
2431.00, 
2432.00, 
2433.00, 
2434.00, 
2435.00, 
2436.00, 
2437.00, 
2438.00, 
2439.00, 
2440.00, 
2441.00, 
2442.00, 
2443.00, 
2444.00, 
2445.00, 
2446.00, 
2447.00, 
2448.00, 
2449.00, 
2450.00, 
2451.00, 
2452.00, 
2453.00, 
2454.00, 
2455.00, 
2456.00, 
2457.00, 
2458.00, 
2459.00, 
2460.00, 
2461.00, 
2462.00, 
2463.00, 
2464.00, 
2465.00, 
2466.00, 
2467.00, 
2468.00, 
2469.00, 
2470.00, 
2471.00, 
2472.00, 
2473.00, 
2474.00, 
2475.00, 
2476.00, 
2477.00, 
2478.00, 
2479.00, 
2480.00, 
2481.00, 
2482.00, 
2483.00, 
2484.00, 
2485.00, 
2486.00, 
2487.00, 
2488.00, 
2489.00, 
2490.00, 
2491.00, 
2492.00, 
2493.00, 
2494.00, 
2495.00, 
2496.00, 
2497.00, 
2498.00, 
2499.00, 
2500.00, 
2501.00, 
2502.00, 
2503.00, 
2504.00, 
2505.00, 
2506.00, 
2507.00, 
2508.00, 
2509.00, 
2510.00, 
2511.00, 
2512.00, 
2513.00, 
2514.00, 
2515.00, 
2516.00, 
2517.00, 
2518.00, 
2519.00, 
2520.00, 
2521.00, 
2522.00, 
2523.00, 
2524.00, 
2525.00, 
2526.00, 
2527.00, 
2528.00, 
2529.00, 
2530.00, 
2531.00, 
2532.00, 
2533.00, 
2534.00, 
2535.00, 
2536.00, 
2537.00, 
2538.00, 
2539.00, 
2540.00, 
2541.00, 
2542.00, 
2543.00, 
2544.00, 
2545.00, 
2546.00, 
2547.00, 
2548.00, 
2549.00, 
2550.00, 
2551.00, 
2552.00, 
2553.00, 
2554.00, 
2555.00, 
2556.00, 
2557.00, 
2558.00, 
2559.00, 
2560.00, 
2561.00, 
2562.00, 
2563.00, 
2564.00, 
2565.00, 
2566.00, 
2567.00, 
2568.00, 
2569.00, 
2570.00, 
2571.00, 
2572.00, 
2573.00, 
2574.00, 
2575.00, 
2576.00, 
2577.00, 
2578.00, 
2579.00, 
2580.00, 
2581.00, 
2582.00, 
2583.00, 
2584.00, 
2585.00, 
2586.00, 
2587.00, 
2588.00, 
2589.00, 
2590.00, 
2591.00, 
2592.00, 
2593.00, 
2594.00, 
2595.00, 
2596.00, 
2597.00, 
2598.00, 
2599.00, 
2600.00, 
