"1cP2 - RawData"
"Wavelength nm.","T%"
200.00,0.001
201.00,0.002
202.00,0.003
203.00,0.004
204.00,0.003
205.00,0.002
206.00,0.000
207.00,0.001
208.00,0.003
209.00,0.001
210.00,0.000
211.00,0.004
212.00,0.002
213.00,0.004
214.00,0.001
215.00,0.000
216.00,0.001
217.00,0.002
218.00,0.002
219.00,-0.002
220.00,0.002
221.00,-0.002
222.00,0.002
223.00,0.002
224.00,0.001
225.00,0.001
226.00,0.002
227.00,-0.000
228.00,0.000
229.00,0.003
230.00,0.003
231.00,-0.001
232.00,-0.001
233.00,-0.000
234.00,0.002
235.00,0.001
236.00,0.002
237.00,0.001
238.00,-0.000
239.00,0.001
240.00,0.001
241.00,-0.000
242.00,-0.001
243.00,0.000
244.00,-0.000
245.00,-0.002
246.00,0.000
247.00,0.003
248.00,0.000
249.00,0.000
250.00,-0.000
251.00,-0.001
252.00,0.001
253.00,0.001
254.00,0.002
255.00,0.001
256.00,-0.000
257.00,0.001
258.00,0.001
259.00,-0.000
260.00,0.000
261.00,0.001
262.00,-0.000
263.00,0.001
264.00,0.000
265.00,-0.000
266.00,-0.001
267.00,0.001
268.00,0.001
269.00,0.000
270.00,0.000
271.00,-0.001
272.00,-0.000
273.00,-0.001
274.00,0.001
275.00,-0.001
276.00,0.001
277.00,-0.000
278.00,-0.001
279.00,0.001
280.00,0.001
281.00,0.001
282.00,0.000
283.00,-0.001
284.00,0.001
285.00,0.002
286.00,0.002
287.00,-0.000
288.00,0.001
289.00,-0.000
290.00,0.000
291.00,-0.003
292.00,-0.001
293.00,0.000
294.00,0.000
295.00,0.000
296.00,-0.000
297.00,0.001
298.00,0.000
299.00,0.000
300.00,-0.001
301.00,0.001
302.00,0.000
303.00,0.002
304.00,0.002
305.00,0.001
306.00,0.003
307.00,0.003
308.00,0.007
309.00,0.015
310.00,0.018
311.00,0.029
312.00,0.047
313.00,0.079
314.00,0.117
315.00,0.173
316.00,0.248
317.00,0.346
318.00,0.477
319.00,0.649
320.00,0.854
321.00,1.105
322.00,1.427
323.00,1.798
324.00,2.238
325.00,2.707
326.00,3.227
327.00,3.839
328.00,4.500
329.00,5.115
330.00,5.928
331.00,6.715
332.00,7.542
333.00,8.470
334.00,9.343
335.00,10.312
336.00,11.282
337.00,12.258
338.00,13.226
339.00,14.156
340.00,15.010
341.00,15.964
342.00,16.835
343.00,17.777
344.00,18.624
345.00,19.404
346.00,20.170
347.00,20.909
348.00,21.624
349.00,22.288
350.00,22.885
351.00,23.473
352.00,24.012
353.00,24.503
354.00,25.035
355.00,25.501
356.00,25.940
357.00,26.324
358.00,26.739
359.00,27.167
360.00,27.492
361.00,27.787
362.00,28.069
363.00,28.345
364.00,28.518
365.00,28.682
366.00,28.920
367.00,29.028
368.00,29.157
369.00,29.229
370.00,29.350
371.00,29.374
372.00,29.353
373.00,29.471
374.00,29.443
375.00,29.369
376.00,29.312
377.00,29.237
378.00,29.108
379.00,29.026
380.00,29.018
381.00,29.015
382.00,29.006
383.00,29.082
384.00,29.159
385.00,29.246
386.00,29.261
387.00,29.424
388.00,29.590
389.00,29.649
390.00,29.718
391.00,29.769
392.00,29.827
393.00,29.826
394.00,29.861
395.00,29.948
396.00,29.945
397.00,30.012
398.00,30.031
399.00,29.931
400.00,30.040
401.00,29.868
402.00,30.044
403.00,30.067
404.00,30.027
405.00,29.995
406.00,30.041
407.00,29.993
408.00,29.988
409.00,29.843
410.00,29.756
411.00,29.777
412.00,29.711
413.00,29.715
414.00,29.584
415.00,29.605
416.00,29.649
417.00,29.562
418.00,29.573
419.00,29.664
420.00,29.713
421.00,29.558
422.00,29.667
423.00,29.552
424.00,29.714
425.00,29.706
426.00,29.685
427.00,29.740
428.00,29.739
429.00,29.800
430.00,29.770
431.00,29.861
432.00,29.861
433.00,29.913
434.00,29.943
435.00,29.986
436.00,30.015
437.00,30.016
438.00,30.104
439.00,30.158
440.00,30.233
441.00,30.285
442.00,30.345
443.00,30.463
444.00,30.473
445.00,30.523
446.00,30.595
447.00,30.629
448.00,30.741
449.00,30.863
450.00,30.927
451.00,30.970
452.00,31.102
453.00,31.161
454.00,31.219
455.00,31.401
456.00,31.390
457.00,31.573
458.00,31.613
459.00,31.738
460.00,31.895
461.00,31.975
462.00,32.093
463.00,32.173
464.00,32.320
465.00,32.390
466.00,32.505
467.00,32.604
468.00,32.630
469.00,32.744
470.00,32.862
471.00,32.795
472.00,33.059
473.00,33.059
474.00,33.137
475.00,33.252
476.00,33.334
477.00,33.463
478.00,33.537
479.00,33.745
480.00,33.809
481.00,33.899
482.00,34.049
483.00,34.230
484.00,34.347
485.00,34.473
486.00,34.600
487.00,34.730
488.00,34.803
489.00,34.920
490.00,35.096
491.00,35.190
492.00,35.259
493.00,35.501
494.00,35.593
495.00,35.568
496.00,35.706
497.00,35.811
498.00,35.810
499.00,36.054
500.00,36.155
501.00,36.257
502.00,36.383
503.00,36.515
504.00,36.473
505.00,36.629
506.00,36.767
507.00,36.794
508.00,36.872
509.00,37.082
510.00,37.152
511.00,37.147
512.00,37.395
513.00,37.461
514.00,37.622
515.00,37.752
516.00,37.840
517.00,37.873
518.00,38.048
519.00,38.107
520.00,38.091
521.00,38.237
522.00,38.258
523.00,38.306
524.00,38.411
525.00,38.484
526.00,38.574
527.00,38.670
528.00,38.717
529.00,38.909
530.00,39.006
531.00,39.131
532.00,39.192
533.00,39.295
534.00,39.355
535.00,39.428
536.00,39.527
537.00,39.573
538.00,39.628
539.00,39.718
540.00,39.719
541.00,39.784
542.00,39.855
543.00,39.864
544.00,39.955
545.00,40.027
546.00,40.046
547.00,40.214
548.00,40.254
549.00,40.261
550.00,40.354
551.00,40.426
552.00,40.580
553.00,40.540
554.00,40.529
555.00,40.580
556.00,40.741
557.00,40.825
558.00,40.853
559.00,40.899
560.00,41.005
561.00,41.033
562.00,41.120
563.00,41.071
564.00,41.160
565.00,41.165
566.00,41.124
567.00,41.264
568.00,41.308
569.00,41.252
570.00,41.256
571.00,41.450
572.00,41.361
573.00,41.348
574.00,41.416
575.00,41.428
576.00,41.441
577.00,41.447
578.00,41.581
579.00,41.671
580.00,41.645
581.00,41.910
582.00,41.871
583.00,41.705
584.00,41.915
585.00,42.090
586.00,42.203
587.00,42.175
588.00,42.219
589.00,42.123
590.00,42.214
591.00,42.289
592.00,42.244
593.00,42.313
594.00,42.376
595.00,42.508
596.00,42.525
597.00,42.587
598.00,42.607
599.00,42.617
600.00,42.637
601.00,42.695
602.00,42.646
603.00,42.738
604.00,42.712
605.00,42.759
606.00,42.743
607.00,42.768
608.00,42.854
609.00,42.914
610.00,43.107
611.00,42.914
612.00,42.847
613.00,42.982
614.00,43.113
615.00,43.105
616.00,43.213
617.00,43.212
618.00,43.160
619.00,43.247
620.00,43.175
621.00,43.306
622.00,43.326
623.00,43.226
624.00,43.481
625.00,43.563
626.00,43.435
627.00,43.431
628.00,43.562
629.00,43.621
630.00,43.621
631.00,43.652
632.00,43.734
633.00,43.831
634.00,43.886
635.00,43.928
636.00,43.978
637.00,44.020
638.00,44.032
639.00,44.162
640.00,44.185
641.00,44.105
642.00,44.177
643.00,44.234
644.00,44.332
645.00,44.361
646.00,44.477
647.00,44.558
648.00,44.502
649.00,44.542
650.00,44.465
651.00,44.676
652.00,44.755
653.00,44.654
654.00,44.729
655.00,44.876
656.00,45.197
657.00,44.808
658.00,45.684
659.00,45.214
660.00,45.110
661.00,45.087
662.00,45.178
663.00,45.264
664.00,45.570
665.00,45.641
666.00,45.458
667.00,45.591
668.00,45.597
669.00,45.758
670.00,46.002
671.00,45.884
672.00,46.014
673.00,45.937
674.00,45.992
675.00,46.075
676.00,46.230
677.00,46.393
678.00,46.145
679.00,46.389
680.00,46.400
681.00,46.517
682.00,46.524
683.00,46.459
684.00,46.616
685.00,46.636
686.00,46.542
687.00,46.620
688.00,46.638
689.00,46.673
690.00,46.923
691.00,47.155
692.00,46.873
693.00,46.836
694.00,46.967
695.00,47.182
696.00,47.202
697.00,47.202
698.00,47.302
699.00,47.390
700.00,47.444
701.00,47.413
702.00,47.393
703.00,47.561
704.00,47.671
705.00,47.545
706.00,47.660
707.00,47.617
708.00,47.517
709.00,47.889
710.00,48.187
711.00,47.645
712.00,47.774
713.00,47.970
714.00,47.958
715.00,47.927
716.00,47.973
717.00,48.078
718.00,48.184
719.00,48.064
720.00,48.209
721.00,52.735
722.00,52.733
723.00,52.775
724.00,52.694
725.00,52.734
726.00,52.816
727.00,52.707
728.00,52.709
729.00,52.700
730.00,52.653
731.00,52.656
732.00,52.619
733.00,52.752
734.00,52.689
735.00,52.695
736.00,52.712
737.00,52.666
738.00,52.691
739.00,52.712
740.00,52.760
741.00,52.729
742.00,52.783
743.00,52.653
744.00,52.653
745.00,52.684
746.00,52.634
747.00,52.558
748.00,52.603
749.00,52.572
750.00,52.549
751.00,52.464
752.00,52.543
753.00,52.522
754.00,52.445
755.00,52.371
756.00,52.440
757.00,52.440
758.00,52.432
759.00,52.332
760.00,52.422
761.00,52.357
762.00,52.394
763.00,52.400
764.00,52.359
765.00,52.355
766.00,52.394
767.00,52.363
768.00,52.329
769.00,52.222
770.00,52.358
771.00,52.333
772.00,52.392
773.00,52.281
774.00,52.257
775.00,52.303
776.00,52.196
777.00,52.222
778.00,52.219
779.00,52.238
780.00,52.169
781.00,52.156
782.00,52.221
783.00,52.148
784.00,52.174
785.00,52.053
786.00,52.116
787.00,52.027
788.00,52.048
789.00,52.039
790.00,51.906
791.00,51.979
792.00,51.926
793.00,51.893
794.00,51.903
795.00,51.863
796.00,51.866
797.00,51.865
798.00,51.812
799.00,51.796
800.00,51.788
801.00,51.721
802.00,51.691
803.00,51.685
804.00,51.618
805.00,51.687
806.00,51.589
807.00,51.514
808.00,51.588
809.00,51.558
810.00,51.570
811.00,51.510
812.00,51.580
813.00,51.469
814.00,51.479
815.00,51.411
816.00,51.410
817.00,51.344
818.00,51.245
819.00,51.276
820.00,51.289
821.00,51.218
822.00,51.306
823.00,51.203
824.00,51.204
825.00,51.191
826.00,51.146
827.00,51.223
828.00,51.044
829.00,51.041
830.00,51.113
831.00,53.503
832.00,53.408
833.00,53.415
834.00,53.381
835.00,53.377
836.00,53.399
837.00,53.350
838.00,53.332
839.00,53.304
840.00,53.255
841.00,53.245
842.00,53.203
843.00,53.196
844.00,53.208
845.00,53.140
846.00,53.142
847.00,53.085
848.00,53.070
849.00,53.002
850.00,52.984
851.00,52.932
852.00,52.910
853.00,52.834
854.00,52.812
855.00,52.797
856.00,52.781
857.00,52.794
858.00,52.729
859.00,52.693
860.00,52.660
861.00,52.681
862.00,52.637
863.00,52.606
864.00,52.584
865.00,52.616
866.00,52.568
867.00,52.535
868.00,52.532
869.00,52.528
870.00,52.536
871.00,52.491
872.00,52.492
873.00,52.467
874.00,52.477
875.00,52.408
876.00,52.420
877.00,52.428
878.00,52.421
879.00,52.354
880.00,52.337
881.00,52.355
882.00,52.374
883.00,52.300
884.00,52.262
885.00,52.241
886.00,52.248
887.00,52.235
888.00,52.199
889.00,52.119
890.00,52.229
891.00,52.118
892.00,52.109
893.00,52.070
894.00,52.080
895.00,52.060
896.00,52.021
897.00,51.986
898.00,51.950
899.00,51.979
900.00,51.948
901.00,51.933
902.00,51.938
903.00,51.910
904.00,51.889
905.00,51.885
906.00,51.872
907.00,51.800
908.00,51.760
909.00,51.762
910.00,51.733
911.00,51.732
912.00,51.708
913.00,51.687
914.00,51.654
915.00,51.649
916.00,51.614
917.00,51.590
918.00,51.583
919.00,51.538
920.00,51.516
921.00,51.484
922.00,51.469
923.00,51.442
924.00,51.412
925.00,51.421
926.00,51.395
927.00,51.367
928.00,51.361
929.00,51.358
930.00,51.309
931.00,51.298
932.00,51.280
933.00,51.272
934.00,51.264
935.00,51.230
936.00,51.200
937.00,51.200
938.00,51.155
939.00,51.163
940.00,51.125
941.00,51.113
942.00,51.114
943.00,51.064
944.00,50.987
945.00,51.053
946.00,51.022
947.00,50.969
948.00,50.977
949.00,50.955
950.00,50.941
951.00,50.918
952.00,50.884
953.00,50.879
954.00,50.810
955.00,50.790
956.00,50.775
957.00,50.765
958.00,50.741
959.00,50.707
960.00,50.733
961.00,50.678
962.00,50.682
963.00,50.624
964.00,50.635
965.00,50.623
966.00,50.595
967.00,50.603
968.00,50.559
969.00,50.587
970.00,50.561
971.00,50.578
972.00,50.552
973.00,50.590
974.00,50.593
975.00,50.572
976.00,50.582
977.00,50.561
978.00,50.601
979.00,50.554
980.00,50.576
981.00,50.581
982.00,50.540
983.00,50.564
984.00,50.541
985.00,50.535
986.00,50.514
987.00,50.538
988.00,50.490
989.00,50.477
990.00,50.477
991.00,50.464
992.00,50.474
993.00,50.435
994.00,50.422
995.00,50.417
996.00,50.400
997.00,50.397
998.00,50.370
999.00,50.379
1000.00,50.340
1001.00,50.318
1002.00,50.313
1003.00,50.335
1004.00,50.292
1005.00,50.246
1006.00,50.324
1007.00,50.259
1008.00,50.247
1009.00,50.228
1010.00,50.225
1011.00,50.210
1012.00,50.186
1013.00,50.180
1014.00,50.145
1015.00,50.137
1016.00,50.108
1017.00,50.113
1018.00,50.093
1019.00,50.079
1020.00,50.074
1021.00,50.055
1022.00,50.057
1023.00,50.011
1024.00,50.005
1025.00,49.981
1026.00,49.971
1027.00,49.938
1028.00,49.938
1029.00,49.920
1030.00,49.901
1031.00,49.917
1032.00,49.867
1033.00,49.885
1034.00,49.848
1035.00,49.808
1036.00,49.777
1037.00,49.769
1038.00,49.766
1039.00,49.737
1040.00,49.717
1041.00,49.695
1042.00,49.698
1043.00,49.651
1044.00,49.705
1045.00,49.668
1046.00,49.649
1047.00,49.681
1048.00,49.675
1049.00,49.690
1050.00,49.696
1051.00,49.730
1052.00,49.762
1053.00,49.747
1054.00,49.743
1055.00,49.771
1056.00,49.783
1057.00,49.772
1058.00,49.748
1059.00,49.741
1060.00,49.760
1061.00,49.746
1062.00,49.717
1063.00,49.740
1064.00,49.734
1065.00,49.712
1066.00,49.714
1067.00,49.711
1068.00,49.723
1069.00,49.690
1070.00,49.674
1071.00,49.662
1072.00,49.680
1073.00,49.642
1074.00,49.647
1075.00,49.634
1076.00,49.635
1077.00,49.625
1078.00,49.601
1079.00,49.603
1080.00,49.621
1081.00,49.592
1082.00,49.593
1083.00,49.583
1084.00,49.558
1085.00,49.582
1086.00,49.567
1087.00,49.561
1088.00,49.541
1089.00,49.540
1090.00,49.525
1091.00,49.532
1092.00,49.511
1093.00,49.496
1094.00,49.490
1095.00,49.473
1096.00,49.476
1097.00,49.468
1098.00,49.441
1099.00,49.445
1100.00,49.428
1101.00,49.442
1102.00,49.432
1103.00,49.432
1104.00,49.416
1105.00,49.409
1106.00,49.382
1107.00,49.386
1108.00,49.376
1109.00,49.352
1110.00,49.367
1111.00,49.338
1112.00,49.343
1113.00,49.364
1114.00,49.318
1115.00,49.340
1116.00,49.318
1117.00,49.287
1118.00,49.279
1119.00,49.273
1120.00,49.261
1121.00,49.269
1122.00,49.255
1123.00,49.259
1124.00,49.267
1125.00,49.261
1126.00,49.268
1127.00,49.277
1128.00,49.243
1129.00,49.238
1130.00,49.219
1131.00,49.201
1132.00,49.203
1133.00,49.198
1134.00,49.183
1135.00,49.188
1136.00,49.186
1137.00,49.181
1138.00,49.184
1139.00,49.178
1140.00,49.187
1141.00,49.169
1142.00,49.151
1143.00,49.189
1144.00,49.134
1145.00,49.138
1146.00,49.147
1147.00,49.131
1148.00,49.135
1149.00,49.159
1150.00,49.140
1151.00,49.149
1152.00,49.145
1153.00,49.132
1154.00,49.123
1155.00,49.119
1156.00,49.144
1157.00,49.143
1158.00,49.121
1159.00,49.136
1160.00,49.115
1161.00,49.101
1162.00,49.109
1163.00,49.114
1164.00,49.103
1165.00,49.104
1166.00,49.094
1167.00,49.086
1168.00,49.101
1169.00,49.083
1170.00,49.083
1171.00,49.083
1172.00,49.076
1173.00,49.082
1174.00,49.095
1175.00,49.075
1176.00,49.094
1177.00,49.067
1178.00,49.069
1179.00,49.101
1180.00,49.082
1181.00,49.100
1182.00,49.105
1183.00,49.077
1184.00,49.068
1185.00,49.077
1186.00,49.045
1187.00,49.075
1188.00,49.070
1189.00,49.067
1190.00,49.070
1191.00,49.053
1192.00,49.076
1193.00,49.070
1194.00,49.064
1195.00,49.059
1196.00,49.095
1197.00,49.080
1198.00,49.079
1199.00,49.098
1200.00,49.085
1201.00,49.101
1202.00,49.067
1203.00,49.064
1204.00,49.059
1205.00,49.078
1206.00,49.089
1207.00,49.093
1208.00,49.068
1209.00,49.090
1210.00,49.071
1211.00,49.069
1212.00,49.101
1213.00,49.049
1214.00,49.087
1215.00,49.065
1216.00,49.079
1217.00,49.085
1218.00,49.067
1219.00,49.085
1220.00,49.068
1221.00,49.078
1222.00,49.066
1223.00,49.102
1224.00,49.083
1225.00,49.078
1226.00,49.087
1227.00,49.065
1228.00,49.095
1229.00,49.092
1230.00,49.128
1231.00,49.122
1232.00,49.144
1233.00,49.145
1234.00,49.158
1235.00,49.144
1236.00,49.149
1237.00,49.157
1238.00,49.141
1239.00,49.159
1240.00,49.157
1241.00,49.155
1242.00,49.169
1243.00,49.173
1244.00,49.150
1245.00,49.178
1246.00,49.173
1247.00,49.157
1248.00,49.158
1249.00,49.167
1250.00,49.189
1251.00,49.177
1252.00,49.186
1253.00,49.190
1254.00,49.200
1255.00,49.181
1256.00,49.186
1257.00,49.185
1258.00,49.213
1259.00,49.198
1260.00,49.250
1261.00,49.231
1262.00,49.214
1263.00,49.205
1264.00,49.217
1265.00,49.221
1266.00,49.223
1267.00,49.258
1268.00,49.265
1269.00,49.273
1270.00,49.298
1271.00,49.281
1272.00,49.292
1273.00,49.305
1274.00,49.285
1275.00,49.303
1276.00,49.290
1277.00,49.300
1278.00,49.325
1279.00,49.319
1280.00,49.332
1281.00,49.360
1282.00,49.338
1283.00,49.338
1284.00,49.354
1285.00,49.331
1286.00,49.362
1287.00,49.339
1288.00,49.346
1289.00,49.338
1290.00,49.371
1291.00,49.380
1292.00,49.382
1293.00,49.377
1294.00,49.408
1295.00,49.422
1296.00,49.410
1297.00,49.430
1298.00,49.462
1299.00,49.424
1300.00,49.464
1301.00,49.446
1302.00,49.473
1303.00,49.475
1304.00,49.443
1305.00,49.490
1306.00,49.482
1307.00,49.479
1308.00,49.481
1309.00,49.488
1310.00,49.485
1311.00,49.489
1312.00,49.501
1313.00,49.520
1314.00,49.544
1315.00,49.545
1316.00,49.556
1317.00,49.587
1318.00,49.571
1319.00,49.580
1320.00,49.570
1321.00,49.745
1322.00,49.759
1323.00,49.727
1324.00,49.747
1325.00,49.734
1326.00,49.743
1327.00,49.739
1328.00,49.735
1329.00,49.727
1330.00,49.743
1331.00,49.744
1332.00,49.753
1333.00,49.751
1334.00,49.764
1335.00,49.795
1336.00,49.834
1337.00,49.857
1338.00,49.919
1339.00,49.958
1340.00,50.029
1341.00,50.098
1342.00,50.153
1343.00,50.205
1344.00,50.260
1345.00,50.310
1346.00,50.341
1347.00,50.366
1348.00,50.379
1349.00,50.398
1350.00,50.400
1351.00,50.429
1352.00,50.457
1353.00,50.304
1354.00,50.470
1355.00,50.458
1356.00,50.498
1357.00,50.497
1358.00,50.526
1359.00,50.526
1360.00,50.560
1361.00,50.663
1362.00,50.581
1363.00,50.534
1364.00,50.588
1365.00,50.523
1366.00,50.575
1367.00,50.537
1368.00,50.484
1369.00,50.551
1370.00,50.511
1371.00,50.514
1372.00,50.515
1373.00,50.522
1374.00,50.555
1375.00,50.520
1376.00,50.532
1377.00,50.513
1378.00,50.569
1379.00,50.507
1380.00,50.531
1381.00,50.484
1382.00,50.527
1383.00,50.511
1384.00,50.461
1385.00,50.507
1386.00,50.436
1387.00,50.479
1388.00,50.465
1389.00,50.536
1390.00,50.452
1391.00,50.479
1392.00,50.445
1393.00,50.493
1394.00,50.496
1395.00,50.512
1396.00,50.460
1397.00,50.536
1398.00,50.551
1399.00,50.516
1400.00,50.399
1401.00,50.525
1402.00,50.576
1403.00,50.555
1404.00,50.545
1405.00,50.556
1406.00,50.582
1407.00,50.560
1408.00,50.561
1409.00,50.581
1410.00,50.606
1411.00,50.565
1412.00,50.637
1413.00,50.585
1414.00,50.581
1415.00,50.617
1416.00,50.651
1417.00,50.656
1418.00,50.667
1419.00,50.672
1420.00,50.719
1421.00,50.756
1422.00,50.740
1423.00,50.777
1424.00,50.790
1425.00,50.783
1426.00,50.791
1427.00,50.814
1428.00,50.825
1429.00,50.854
1430.00,50.856
1431.00,50.870
1432.00,50.892
1433.00,50.887
1434.00,50.894
1435.00,50.952
1436.00,50.937
1437.00,50.940
1438.00,50.966
1439.00,51.010
1440.00,51.023
1441.00,51.027
1442.00,51.043
1443.00,51.059
1444.00,51.089
1445.00,51.095
1446.00,51.151
1447.00,51.140
1448.00,51.178
1449.00,51.196
1450.00,51.186
1451.00,51.215
1452.00,51.231
1453.00,51.225
1454.00,51.251
1455.00,51.272
1456.00,51.307
1457.00,51.325
1458.00,51.337
1459.00,51.371
1460.00,51.385
1461.00,51.396
1462.00,51.438
1463.00,51.431
1464.00,51.437
1465.00,51.464
1466.00,51.449
1467.00,51.479
1468.00,51.540
1469.00,51.494
1470.00,51.522
1471.00,51.539
1472.00,51.553
1473.00,51.571
1474.00,51.597
1475.00,51.623
1476.00,51.634
1477.00,51.615
1478.00,51.635
1479.00,51.671
1480.00,51.652
1481.00,51.676
1482.00,51.713
1483.00,51.710
1484.00,51.741
1485.00,51.748
1486.00,51.757
1487.00,51.775
1488.00,51.786
1489.00,51.780
1490.00,51.799
1491.00,51.815
1492.00,51.854
1493.00,51.820
1494.00,51.860
1495.00,51.852
1496.00,51.882
1497.00,51.879
1498.00,51.922
1499.00,51.934
1500.00,51.952
1501.00, 
1502.00, 
1503.00, 
1504.00, 
1505.00, 
1506.00, 
1507.00, 
1508.00, 
1509.00, 
1510.00, 
1511.00, 
1512.00, 
1513.00, 
1514.00, 
1515.00, 
1516.00, 
1517.00, 
1518.00, 
1519.00, 
1520.00, 
1521.00, 
1522.00, 
1523.00, 
1524.00, 
1525.00, 
1526.00, 
1527.00, 
1528.00, 
1529.00, 
1530.00, 
1531.00, 
1532.00, 
1533.00, 
1534.00, 
1535.00, 
1536.00, 
1537.00, 
1538.00, 
1539.00, 
1540.00, 
1541.00, 
1542.00, 
1543.00, 
1544.00, 
1545.00, 
1546.00, 
1547.00, 
1548.00, 
1549.00, 
1550.00, 
1551.00, 
1552.00, 
1553.00, 
1554.00, 
1555.00, 
1556.00, 
1557.00, 
1558.00, 
1559.00, 
1560.00, 
1561.00, 
1562.00, 
1563.00, 
1564.00, 
1565.00, 
1566.00, 
1567.00, 
1568.00, 
1569.00, 
1570.00, 
1571.00, 
1572.00, 
1573.00, 
1574.00, 
1575.00, 
1576.00, 
1577.00, 
1578.00, 
1579.00, 
1580.00, 
1581.00, 
1582.00, 
1583.00, 
1584.00, 
1585.00, 
1586.00, 
1587.00, 
1588.00, 
1589.00, 
1590.00, 
1591.00, 
1592.00, 
1593.00, 
1594.00, 
1595.00, 
1596.00, 
1597.00, 
1598.00, 
1599.00, 
1600.00, 
1601.00, 
1602.00, 
1603.00, 
1604.00, 
1605.00, 
1606.00, 
1607.00, 
1608.00, 
1609.00, 
1610.00, 
1611.00, 
1612.00, 
1613.00, 
1614.00, 
1615.00, 
1616.00, 
1617.00, 
1618.00, 
1619.00, 
1620.00, 
1621.00, 
1622.00, 
1623.00, 
1624.00, 
1625.00, 
1626.00, 
1627.00, 
1628.00, 
1629.00, 
1630.00, 
1631.00, 
1632.00, 
1633.00, 
1634.00, 
1635.00, 
1636.00, 
1637.00, 
1638.00, 
1639.00, 
1640.00, 
1641.00, 
1642.00, 
1643.00, 
1644.00, 
1645.00, 
1646.00, 
1647.00, 
1648.00, 
1649.00, 
1650.00, 
1651.00, 
1652.00, 
1653.00, 
1654.00, 
1655.00, 
1656.00, 
1657.00, 
1658.00, 
1659.00, 
1660.00, 
1661.00, 
1662.00, 
1663.00, 
1664.00, 
1665.00, 
1666.00, 
1667.00, 
1668.00, 
1669.00, 
1670.00, 
1671.00, 
1672.00, 
1673.00, 
1674.00, 
1675.00, 
1676.00, 
1677.00, 
1678.00, 
1679.00, 
1680.00, 
1681.00, 
1682.00, 
1683.00, 
1684.00, 
1685.00, 
1686.00, 
1687.00, 
1688.00, 
1689.00, 
1690.00, 
1691.00, 
1692.00, 
1693.00, 
1694.00, 
1695.00, 
1696.00, 
1697.00, 
1698.00, 
1699.00, 
1700.00, 
1701.00, 
1702.00, 
1703.00, 
1704.00, 
1705.00, 
1706.00, 
1707.00, 
1708.00, 
1709.00, 
1710.00, 
1711.00, 
1712.00, 
1713.00, 
1714.00, 
1715.00, 
1716.00, 
1717.00, 
1718.00, 
1719.00, 
1720.00, 
1721.00, 
1722.00, 
1723.00, 
1724.00, 
1725.00, 
1726.00, 
1727.00, 
1728.00, 
1729.00, 
1730.00, 
1731.00, 
1732.00, 
1733.00, 
1734.00, 
1735.00, 
1736.00, 
1737.00, 
1738.00, 
1739.00, 
1740.00, 
1741.00, 
1742.00, 
1743.00, 
1744.00, 
1745.00, 
1746.00, 
1747.00, 
1748.00, 
1749.00, 
1750.00, 
1751.00, 
1752.00, 
1753.00, 
1754.00, 
1755.00, 
1756.00, 
1757.00, 
1758.00, 
1759.00, 
1760.00, 
1761.00, 
1762.00, 
1763.00, 
1764.00, 
1765.00, 
1766.00, 
1767.00, 
1768.00, 
1769.00, 
1770.00, 
1771.00, 
1772.00, 
1773.00, 
1774.00, 
1775.00, 
1776.00, 
1777.00, 
1778.00, 
1779.00, 
1780.00, 
1781.00, 
1782.00, 
1783.00, 
1784.00, 
1785.00, 
1786.00, 
1787.00, 
1788.00, 
1789.00, 
1790.00, 
1791.00, 
1792.00, 
1793.00, 
1794.00, 
1795.00, 
1796.00, 
1797.00, 
1798.00, 
1799.00, 
1800.00, 
1801.00, 
1802.00, 
1803.00, 
1804.00, 
1805.00, 
1806.00, 
1807.00, 
1808.00, 
1809.00, 
1810.00, 
1811.00, 
1812.00, 
1813.00, 
1814.00, 
1815.00, 
1816.00, 
1817.00, 
1818.00, 
1819.00, 
1820.00, 
1821.00, 
1822.00, 
1823.00, 
1824.00, 
1825.00, 
1826.00, 
1827.00, 
1828.00, 
1829.00, 
1830.00, 
1831.00, 
1832.00, 
1833.00, 
1834.00, 
1835.00, 
1836.00, 
1837.00, 
1838.00, 
1839.00, 
1840.00, 
1841.00, 
1842.00, 
1843.00, 
1844.00, 
1845.00, 
1846.00, 
1847.00, 
1848.00, 
1849.00, 
1850.00, 
1851.00, 
1852.00, 
1853.00, 
1854.00, 
1855.00, 
1856.00, 
1857.00, 
1858.00, 
1859.00, 
1860.00, 
1861.00, 
1862.00, 
1863.00, 
1864.00, 
1865.00, 
1866.00, 
1867.00, 
1868.00, 
1869.00, 
1870.00, 
1871.00, 
1872.00, 
1873.00, 
1874.00, 
1875.00, 
1876.00, 
1877.00, 
1878.00, 
1879.00, 
1880.00, 
1881.00, 
1882.00, 
1883.00, 
1884.00, 
1885.00, 
1886.00, 
1887.00, 
1888.00, 
1889.00, 
1890.00, 
1891.00, 
1892.00, 
1893.00, 
1894.00, 
1895.00, 
1896.00, 
1897.00, 
1898.00, 
1899.00, 
1900.00, 
1901.00, 
1902.00, 
1903.00, 
1904.00, 
1905.00, 
1906.00, 
1907.00, 
1908.00, 
1909.00, 
1910.00, 
1911.00, 
1912.00, 
1913.00, 
1914.00, 
1915.00, 
1916.00, 
1917.00, 
1918.00, 
1919.00, 
1920.00, 
1921.00, 
1922.00, 
1923.00, 
1924.00, 
1925.00, 
1926.00, 
1927.00, 
1928.00, 
1929.00, 
1930.00, 
1931.00, 
1932.00, 
1933.00, 
1934.00, 
1935.00, 
1936.00, 
1937.00, 
1938.00, 
1939.00, 
1940.00, 
1941.00, 
1942.00, 
1943.00, 
1944.00, 
1945.00, 
1946.00, 
1947.00, 
1948.00, 
1949.00, 
1950.00, 
1951.00, 
1952.00, 
1953.00, 
1954.00, 
1955.00, 
1956.00, 
1957.00, 
1958.00, 
1959.00, 
1960.00, 
1961.00, 
1962.00, 
1963.00, 
1964.00, 
1965.00, 
1966.00, 
1967.00, 
1968.00, 
1969.00, 
1970.00, 
1971.00, 
1972.00, 
1973.00, 
1974.00, 
1975.00, 
1976.00, 
1977.00, 
1978.00, 
1979.00, 
1980.00, 
1981.00, 
1982.00, 
1983.00, 
1984.00, 
1985.00, 
1986.00, 
1987.00, 
1988.00, 
1989.00, 
1990.00, 
1991.00, 
1992.00, 
1993.00, 
1994.00, 
1995.00, 
1996.00, 
1997.00, 
1998.00, 
1999.00, 
2000.00, 
2001.00, 
2002.00, 
2003.00, 
2004.00, 
2005.00, 
2006.00, 
2007.00, 
2008.00, 
2009.00, 
2010.00, 
2011.00, 
2012.00, 
2013.00, 
2014.00, 
2015.00, 
2016.00, 
2017.00, 
2018.00, 
2019.00, 
2020.00, 
2021.00, 
2022.00, 
2023.00, 
2024.00, 
2025.00, 
2026.00, 
2027.00, 
2028.00, 
2029.00, 
2030.00, 
2031.00, 
2032.00, 
2033.00, 
2034.00, 
2035.00, 
2036.00, 
2037.00, 
2038.00, 
2039.00, 
2040.00, 
2041.00, 
2042.00, 
2043.00, 
2044.00, 
2045.00, 
2046.00, 
2047.00, 
2048.00, 
2049.00, 
2050.00, 
2051.00, 
2052.00, 
2053.00, 
2054.00, 
2055.00, 
2056.00, 
2057.00, 
2058.00, 
2059.00, 
2060.00, 
2061.00, 
2062.00, 
2063.00, 
2064.00, 
2065.00, 
2066.00, 
2067.00, 
2068.00, 
2069.00, 
2070.00, 
2071.00, 
2072.00, 
2073.00, 
2074.00, 
2075.00, 
2076.00, 
2077.00, 
2078.00, 
2079.00, 
2080.00, 
2081.00, 
2082.00, 
2083.00, 
2084.00, 
2085.00, 
2086.00, 
2087.00, 
2088.00, 
2089.00, 
2090.00, 
2091.00, 
2092.00, 
2093.00, 
2094.00, 
2095.00, 
2096.00, 
2097.00, 
2098.00, 
2099.00, 
2100.00, 
2101.00, 
2102.00, 
2103.00, 
2104.00, 
2105.00, 
2106.00, 
2107.00, 
2108.00, 
2109.00, 
2110.00, 
2111.00, 
2112.00, 
2113.00, 
2114.00, 
2115.00, 
2116.00, 
2117.00, 
2118.00, 
2119.00, 
2120.00, 
2121.00, 
2122.00, 
2123.00, 
2124.00, 
2125.00, 
2126.00, 
2127.00, 
2128.00, 
2129.00, 
2130.00, 
2131.00, 
2132.00, 
2133.00, 
2134.00, 
2135.00, 
2136.00, 
2137.00, 
2138.00, 
2139.00, 
2140.00, 
2141.00, 
2142.00, 
2143.00, 
2144.00, 
2145.00, 
2146.00, 
2147.00, 
2148.00, 
2149.00, 
2150.00, 
2151.00, 
2152.00, 
2153.00, 
2154.00, 
2155.00, 
2156.00, 
2157.00, 
2158.00, 
2159.00, 
2160.00, 
2161.00, 
2162.00, 
2163.00, 
2164.00, 
2165.00, 
2166.00, 
2167.00, 
2168.00, 
2169.00, 
2170.00, 
2171.00, 
2172.00, 
2173.00, 
2174.00, 
2175.00, 
2176.00, 
2177.00, 
2178.00, 
2179.00, 
2180.00, 
2181.00, 
2182.00, 
2183.00, 
2184.00, 
2185.00, 
2186.00, 
2187.00, 
2188.00, 
2189.00, 
2190.00, 
2191.00, 
2192.00, 
2193.00, 
2194.00, 
2195.00, 
2196.00, 
2197.00, 
2198.00, 
2199.00, 
2200.00, 
2201.00, 
2202.00, 
2203.00, 
2204.00, 
2205.00, 
2206.00, 
2207.00, 
2208.00, 
2209.00, 
2210.00, 
2211.00, 
2212.00, 
2213.00, 
2214.00, 
2215.00, 
2216.00, 
2217.00, 
2218.00, 
2219.00, 
2220.00, 
2221.00, 
2222.00, 
2223.00, 
2224.00, 
2225.00, 
2226.00, 
2227.00, 
2228.00, 
2229.00, 
2230.00, 
2231.00, 
2232.00, 
2233.00, 
2234.00, 
2235.00, 
2236.00, 
2237.00, 
2238.00, 
2239.00, 
2240.00, 
2241.00, 
2242.00, 
2243.00, 
2244.00, 
2245.00, 
2246.00, 
2247.00, 
2248.00, 
2249.00, 
2250.00, 
2251.00, 
2252.00, 
2253.00, 
2254.00, 
2255.00, 
2256.00, 
2257.00, 
2258.00, 
2259.00, 
2260.00, 
2261.00, 
2262.00, 
2263.00, 
2264.00, 
2265.00, 
2266.00, 
2267.00, 
2268.00, 
2269.00, 
2270.00, 
2271.00, 
2272.00, 
2273.00, 
2274.00, 
2275.00, 
2276.00, 
2277.00, 
2278.00, 
2279.00, 
2280.00, 
2281.00, 
2282.00, 
2283.00, 
2284.00, 
2285.00, 
2286.00, 
2287.00, 
2288.00, 
2289.00, 
2290.00, 
2291.00, 
2292.00, 
2293.00, 
2294.00, 
2295.00, 
2296.00, 
2297.00, 
2298.00, 
2299.00, 
2300.00, 
2301.00, 
2302.00, 
2303.00, 
2304.00, 
2305.00, 
2306.00, 
2307.00, 
2308.00, 
2309.00, 
2310.00, 
2311.00, 
2312.00, 
2313.00, 
2314.00, 
2315.00, 
2316.00, 
2317.00, 
2318.00, 
2319.00, 
2320.00, 
2321.00, 
2322.00, 
2323.00, 
2324.00, 
2325.00, 
2326.00, 
2327.00, 
2328.00, 
2329.00, 
2330.00, 
2331.00, 
2332.00, 
2333.00, 
2334.00, 
2335.00, 
2336.00, 
2337.00, 
2338.00, 
2339.00, 
2340.00, 
2341.00, 
2342.00, 
2343.00, 
2344.00, 
2345.00, 
2346.00, 
2347.00, 
2348.00, 
2349.00, 
2350.00, 
2351.00, 
2352.00, 
2353.00, 
2354.00, 
2355.00, 
2356.00, 
2357.00, 
2358.00, 
2359.00, 
2360.00, 
2361.00, 
2362.00, 
2363.00, 
2364.00, 
2365.00, 
2366.00, 
2367.00, 
2368.00, 
2369.00, 
2370.00, 
2371.00, 
2372.00, 
2373.00, 
2374.00, 
2375.00, 
2376.00, 
2377.00, 
2378.00, 
2379.00, 
2380.00, 
2381.00, 
2382.00, 
2383.00, 
2384.00, 
2385.00, 
2386.00, 
2387.00, 
2388.00, 
2389.00, 
2390.00, 
2391.00, 
2392.00, 
2393.00, 
2394.00, 
2395.00, 
2396.00, 
2397.00, 
2398.00, 
2399.00, 
2400.00, 
2401.00, 
2402.00, 
2403.00, 
2404.00, 
2405.00, 
2406.00, 
2407.00, 
2408.00, 
2409.00, 
2410.00, 
2411.00, 
2412.00, 
2413.00, 
2414.00, 
2415.00, 
2416.00, 
2417.00, 
2418.00, 
2419.00, 
2420.00, 
2421.00, 
2422.00, 
2423.00, 
2424.00, 
2425.00, 
2426.00, 
2427.00, 
2428.00, 
2429.00, 
2430.00, 
2431.00, 
2432.00, 
2433.00, 
2434.00, 
2435.00, 
2436.00, 
2437.00, 
2438.00, 
2439.00, 
2440.00, 
2441.00, 
2442.00, 
2443.00, 
2444.00, 
2445.00, 
2446.00, 
2447.00, 
2448.00, 
2449.00, 
2450.00, 
2451.00, 
2452.00, 
2453.00, 
2454.00, 
2455.00, 
2456.00, 
2457.00, 
2458.00, 
2459.00, 
2460.00, 
2461.00, 
2462.00, 
2463.00, 
2464.00, 
2465.00, 
2466.00, 
2467.00, 
2468.00, 
2469.00, 
2470.00, 
2471.00, 
2472.00, 
2473.00, 
2474.00, 
2475.00, 
2476.00, 
2477.00, 
2478.00, 
2479.00, 
2480.00, 
2481.00, 
2482.00, 
2483.00, 
2484.00, 
2485.00, 
2486.00, 
2487.00, 
2488.00, 
2489.00, 
2490.00, 
2491.00, 
2492.00, 
2493.00, 
2494.00, 
2495.00, 
2496.00, 
2497.00, 
2498.00, 
2499.00, 
2500.00, 
2501.00, 
2502.00, 
2503.00, 
2504.00, 
2505.00, 
2506.00, 
2507.00, 
2508.00, 
2509.00, 
2510.00, 
2511.00, 
2512.00, 
2513.00, 
2514.00, 
2515.00, 
2516.00, 
2517.00, 
2518.00, 
2519.00, 
2520.00, 
2521.00, 
2522.00, 
2523.00, 
2524.00, 
2525.00, 
2526.00, 
2527.00, 
2528.00, 
2529.00, 
2530.00, 
2531.00, 
2532.00, 
2533.00, 
2534.00, 
2535.00, 
2536.00, 
2537.00, 
2538.00, 
2539.00, 
2540.00, 
2541.00, 
2542.00, 
2543.00, 
2544.00, 
2545.00, 
2546.00, 
2547.00, 
2548.00, 
2549.00, 
2550.00, 
2551.00, 
2552.00, 
2553.00, 
2554.00, 
2555.00, 
2556.00, 
2557.00, 
2558.00, 
2559.00, 
2560.00, 
2561.00, 
2562.00, 
2563.00, 
2564.00, 
2565.00, 
2566.00, 
2567.00, 
2568.00, 
2569.00, 
2570.00, 
2571.00, 
2572.00, 
2573.00, 
2574.00, 
2575.00, 
2576.00, 
2577.00, 
2578.00, 
2579.00, 
2580.00, 
2581.00, 
2582.00, 
2583.00, 
2584.00, 
2585.00, 
2586.00, 
2587.00, 
2588.00, 
2589.00, 
2590.00, 
2591.00, 
2592.00, 
2593.00, 
2594.00, 
2595.00, 
2596.00, 
2597.00, 
2598.00, 
2599.00, 
2600.00, 
