"2cP1 - RawData"
"Wavelength nm.","T%"
200.00,0.001
201.00,0.001
202.00,0.001
203.00,-0.000
204.00,-0.001
205.00,0.002
206.00,0.002
207.00,0.001
208.00,0.004
209.00,0.001
210.00,0.000
211.00,0.001
212.00,0.001
213.00,0.001
214.00,0.000
215.00,0.002
216.00,0.003
217.00,-0.001
218.00,-0.002
219.00,0.000
220.00,-0.001
221.00,0.002
222.00,0.002
223.00,-0.000
224.00,0.002
225.00,0.001
226.00,0.003
227.00,-0.001
228.00,-0.000
229.00,0.000
230.00,0.001
231.00,0.002
232.00,-0.003
233.00,-0.001
234.00,-0.001
235.00,0.000
236.00,0.001
237.00,-0.001
238.00,-0.000
239.00,0.000
240.00,0.001
241.00,0.001
242.00,0.001
243.00,0.001
244.00,0.001
245.00,-0.001
246.00,0.001
247.00,0.002
248.00,-0.001
249.00,-0.000
250.00,0.002
251.00,-0.001
252.00,0.001
253.00,0.002
254.00,-0.001
255.00,0.001
256.00,0.002
257.00,-0.002
258.00,-0.001
259.00,0.001
260.00,0.001
261.00,0.001
262.00,0.002
263.00,0.001
264.00,-0.000
265.00,0.001
266.00,-0.000
267.00,-0.000
268.00,-0.000
269.00,0.000
270.00,0.001
271.00,-0.000
272.00,0.001
273.00,0.001
274.00,-0.001
275.00,0.000
276.00,0.001
277.00,0.002
278.00,0.001
279.00,-0.000
280.00,-0.002
281.00,0.001
282.00,-0.000
283.00,-0.000
284.00,0.001
285.00,-0.002
286.00,0.001
287.00,-0.000
288.00,0.001
289.00,0.001
290.00,0.001
291.00,0.001
292.00,0.001
293.00,-0.000
294.00,0.000
295.00,-0.001
296.00,-0.001
297.00,0.001
298.00,0.001
299.00,0.002
300.00,0.004
301.00,0.002
302.00,0.004
303.00,0.005
304.00,0.010
305.00,0.014
306.00,0.022
307.00,0.032
308.00,0.047
309.00,0.075
310.00,0.108
311.00,0.144
312.00,0.200
313.00,0.267
314.00,0.350
315.00,0.452
316.00,0.575
317.00,0.726
318.00,0.897
319.00,1.108
320.00,1.318
321.00,1.614
322.00,1.913
323.00,2.248
324.00,2.611
325.00,2.972
326.00,3.357
327.00,3.789
328.00,4.242
329.00,4.682
330.00,5.155
331.00,5.639
332.00,6.131
333.00,6.628
334.00,7.121
335.00,7.621
336.00,8.109
337.00,8.634
338.00,9.091
339.00,9.591
340.00,9.995
341.00,10.489
342.00,10.884
343.00,11.295
344.00,11.689
345.00,12.033
346.00,12.393
347.00,12.725
348.00,13.048
349.00,13.316
350.00,13.573
351.00,13.842
352.00,14.086
353.00,14.293
354.00,14.529
355.00,14.668
356.00,14.867
357.00,15.040
358.00,15.176
359.00,15.325
360.00,15.448
361.00,15.544
362.00,15.666
363.00,15.781
364.00,15.891
365.00,15.936
366.00,15.997
367.00,16.025
368.00,16.065
369.00,16.090
370.00,16.080
371.00,16.128
372.00,16.101
373.00,16.115
374.00,16.045
375.00,16.063
376.00,16.028
377.00,15.971
378.00,15.910
379.00,15.861
380.00,15.838
381.00,15.807
382.00,15.780
383.00,15.785
384.00,15.773
385.00,15.800
386.00,15.747
387.00,15.800
388.00,15.807
389.00,15.818
390.00,15.825
391.00,15.830
392.00,15.827
393.00,15.811
394.00,15.823
395.00,15.808
396.00,15.817
397.00,15.822
398.00,15.774
399.00,15.768
400.00,15.786
401.00,15.753
402.00,15.757
403.00,15.753
404.00,15.763
405.00,15.735
406.00,15.738
407.00,15.722
408.00,15.694
409.00,15.659
410.00,15.638
411.00,15.590
412.00,15.580
413.00,15.570
414.00,15.608
415.00,15.608
416.00,15.630
417.00,15.616
418.00,15.648
419.00,15.651
420.00,15.685
421.00,15.689
422.00,15.696
423.00,15.730
424.00,15.764
425.00,15.788
426.00,15.789
427.00,15.862
428.00,15.867
429.00,15.936
430.00,15.951
431.00,16.002
432.00,16.059
433.00,16.096
434.00,16.160
435.00,16.189
436.00,16.262
437.00,16.320
438.00,16.359
439.00,16.413
440.00,16.486
441.00,16.614
442.00,16.694
443.00,16.784
444.00,16.824
445.00,16.873
446.00,16.995
447.00,17.076
448.00,17.178
449.00,17.259
450.00,17.364
451.00,17.429
452.00,17.569
453.00,17.639
454.00,17.760
455.00,17.840
456.00,17.930
457.00,18.064
458.00,18.152
459.00,18.266
460.00,18.402
461.00,18.509
462.00,18.654
463.00,18.764
464.00,18.895
465.00,18.999
466.00,19.109
467.00,19.233
468.00,19.368
469.00,19.497
470.00,19.621
471.00,19.716
472.00,19.752
473.00,19.924
474.00,20.049
475.00,20.172
476.00,20.301
477.00,20.424
478.00,20.560
479.00,20.726
480.00,20.838
481.00,20.991
482.00,21.147
483.00,21.296
484.00,21.436
485.00,21.611
486.00,21.739
487.00,21.886
488.00,22.037
489.00,22.187
490.00,22.348
491.00,22.493
492.00,22.642
493.00,22.789
494.00,22.908
495.00,22.997
496.00,23.148
497.00,23.273
498.00,23.420
499.00,23.586
500.00,23.673
501.00,23.830
502.00,24.011
503.00,24.119
504.00,24.242
505.00,24.379
506.00,24.534
507.00,24.652
508.00,24.769
509.00,24.900
510.00,25.032
511.00,25.145
512.00,25.303
513.00,25.381
514.00,25.481
515.00,25.712
516.00,25.832
517.00,25.937
518.00,26.106
519.00,26.198
520.00,26.291
521.00,26.378
522.00,26.436
523.00,26.576
524.00,26.656
525.00,26.778
526.00,26.931
527.00,27.017
528.00,27.074
529.00,27.219
530.00,27.338
531.00,27.468
532.00,27.585
533.00,27.694
534.00,27.772
535.00,27.878
536.00,27.981
537.00,28.063
538.00,28.176
539.00,28.253
540.00,28.328
541.00,28.388
542.00,28.426
543.00,28.569
544.00,28.658
545.00,28.761
546.00,28.836
547.00,28.955
548.00,28.985
549.00,29.073
550.00,29.182
551.00,29.212
552.00,29.364
553.00,29.368
554.00,29.445
555.00,29.546
556.00,29.566
557.00,29.652
558.00,29.755
559.00,29.819
560.00,29.914
561.00,29.957
562.00,30.039
563.00,30.065
564.00,30.142
565.00,30.202
566.00,30.211
567.00,30.302
568.00,30.343
569.00,30.370
570.00,30.440
571.00,30.532
572.00,30.514
573.00,30.577
574.00,30.678
575.00,30.674
576.00,30.723
577.00,30.827
578.00,30.895
579.00,30.952
580.00,31.049
581.00,31.117
582.00,31.162
583.00,31.230
584.00,31.393
585.00,31.378
586.00,31.442
587.00,31.445
588.00,31.484
589.00,31.615
590.00,31.711
591.00,31.750
592.00,31.766
593.00,31.859
594.00,31.891
595.00,31.918
596.00,31.989
597.00,32.045
598.00,32.149
599.00,32.240
600.00,32.289
601.00,32.355
602.00,32.369
603.00,32.415
604.00,32.483
605.00,32.507
606.00,32.595
607.00,32.619
608.00,32.689
609.00,32.766
610.00,32.810
611.00,32.852
612.00,32.877
613.00,32.970
614.00,32.964
615.00,33.053
616.00,33.166
617.00,33.249
618.00,33.319
619.00,33.367
620.00,33.408
621.00,33.484
622.00,33.576
623.00,33.622
624.00,33.698
625.00,33.852
626.00,33.837
627.00,33.949
628.00,33.978
629.00,34.050
630.00,34.133
631.00,34.211
632.00,34.307
633.00,34.422
634.00,34.482
635.00,34.612
636.00,34.682
637.00,34.794
638.00,34.880
639.00,34.937
640.00,35.018
641.00,35.099
642.00,35.222
643.00,35.269
644.00,35.390
645.00,35.476
646.00,35.602
647.00,35.699
648.00,35.761
649.00,35.889
650.00,35.888
651.00,36.068
652.00,36.222
653.00,36.244
654.00,36.348
655.00,36.474
656.00,36.665
657.00,36.728
658.00,37.396
659.00,36.882
660.00,36.920
661.00,37.106
662.00,37.316
663.00,37.376
664.00,37.479
665.00,37.579
666.00,37.731
667.00,37.907
668.00,38.021
669.00,38.115
670.00,38.231
671.00,38.329
672.00,38.453
673.00,38.543
674.00,38.742
675.00,38.774
676.00,38.963
677.00,39.030
678.00,39.132
679.00,39.308
680.00,39.423
681.00,39.504
682.00,39.684
683.00,39.784
684.00,39.832
685.00,40.000
686.00,40.110
687.00,40.187
688.00,40.306
689.00,40.345
690.00,40.413
691.00,40.698
692.00,40.841
693.00,40.888
694.00,41.033
695.00,41.274
696.00,41.325
697.00,41.417
698.00,41.647
699.00,41.662
700.00,41.825
701.00,41.960
702.00,42.091
703.00,42.202
704.00,42.302
705.00,42.373
706.00,42.487
707.00,42.655
708.00,42.663
709.00,42.826
710.00,42.978
711.00,42.943
712.00,42.990
713.00,43.139
714.00,43.245
715.00,43.366
716.00,43.542
717.00,43.559
718.00,43.720
719.00,43.795
720.00,43.857
721.00,47.859
722.00,47.854
723.00,48.039
724.00,47.993
725.00,48.118
726.00,48.201
727.00,48.200
728.00,48.233
729.00,48.325
730.00,48.363
731.00,48.401
732.00,48.496
733.00,48.625
734.00,48.686
735.00,48.652
736.00,48.798
737.00,48.840
738.00,48.862
739.00,48.935
740.00,49.007
741.00,49.056
742.00,49.113
743.00,49.079
744.00,49.151
745.00,49.232
746.00,49.250
747.00,49.222
748.00,49.345
749.00,49.352
750.00,49.430
751.00,49.378
752.00,49.411
753.00,49.477
754.00,49.552
755.00,49.478
756.00,49.592
757.00,49.708
758.00,49.670
759.00,49.664
760.00,49.724
761.00,49.795
762.00,49.854
763.00,49.840
764.00,49.871
765.00,49.849
766.00,49.979
767.00,49.955
768.00,49.966
769.00,49.951
770.00,50.073
771.00,50.096
772.00,50.184
773.00,50.169
774.00,50.133
775.00,50.241
776.00,50.185
777.00,50.207
778.00,50.274
779.00,50.289
780.00,50.337
781.00,50.297
782.00,50.405
783.00,50.327
784.00,50.399
785.00,50.410
786.00,50.430
787.00,50.406
788.00,50.377
789.00,50.435
790.00,50.402
791.00,50.369
792.00,50.440
793.00,50.464
794.00,50.469
795.00,50.507
796.00,50.459
797.00,50.548
798.00,50.468
799.00,50.496
800.00,50.494
801.00,50.498
802.00,50.437
803.00,50.472
804.00,50.421
805.00,50.440
806.00,50.421
807.00,50.336
808.00,50.440
809.00,50.449
810.00,50.445
811.00,50.476
812.00,50.438
813.00,50.489
814.00,50.424
815.00,50.447
816.00,50.463
817.00,50.505
818.00,50.365
819.00,50.398
820.00,50.352
821.00,50.395
822.00,50.447
823.00,50.352
824.00,50.406
825.00,50.427
826.00,50.389
827.00,50.431
828.00,50.266
829.00,50.293
830.00,50.358
831.00,52.857
832.00,52.843
833.00,52.810
834.00,52.790
835.00,52.777
836.00,52.796
837.00,52.767
838.00,52.753
839.00,52.771
840.00,52.724
841.00,52.722
842.00,52.717
843.00,52.717
844.00,52.735
845.00,52.669
846.00,52.724
847.00,52.610
848.00,52.639
849.00,52.605
850.00,52.569
851.00,52.540
852.00,52.541
853.00,52.460
854.00,52.463
855.00,52.444
856.00,52.426
857.00,52.459
858.00,52.405
859.00,52.380
860.00,52.393
861.00,52.389
862.00,52.346
863.00,52.352
864.00,52.312
865.00,52.338
866.00,52.299
867.00,52.274
868.00,52.281
869.00,52.296
870.00,52.269
871.00,52.285
872.00,52.291
873.00,52.260
874.00,52.254
875.00,52.232
876.00,52.233
877.00,52.242
878.00,52.221
879.00,52.188
880.00,52.186
881.00,52.176
882.00,52.218
883.00,52.177
884.00,52.154
885.00,52.125
886.00,52.115
887.00,52.123
888.00,52.082
889.00,52.072
890.00,52.085
891.00,52.022
892.00,52.013
893.00,51.979
894.00,51.997
895.00,51.970
896.00,51.923
897.00,51.930
898.00,51.905
899.00,51.882
900.00,51.892
901.00,51.882
902.00,51.890
903.00,51.861
904.00,51.854
905.00,51.834
906.00,51.824
907.00,51.783
908.00,51.777
909.00,51.764
910.00,51.727
911.00,51.741
912.00,51.758
913.00,51.689
914.00,51.682
915.00,51.666
916.00,51.660
917.00,51.656
918.00,51.771
919.00,51.602
920.00,51.581
921.00,51.560
922.00,51.537
923.00,51.533
924.00,51.492
925.00,51.502
926.00,51.475
927.00,51.440
928.00,51.441
929.00,51.419
930.00,51.393
931.00,51.383
932.00,51.380
933.00,51.359
934.00,51.357
935.00,51.317
936.00,51.305
937.00,51.291
938.00,51.264
939.00,51.253
940.00,51.223
941.00,51.209
942.00,51.199
943.00,51.201
944.00,51.170
945.00,51.179
946.00,51.156
947.00,51.101
948.00,51.142
949.00,51.090
950.00,51.075
951.00,51.052
952.00,51.005
953.00,50.993
954.00,50.978
955.00,50.940
956.00,50.951
957.00,50.897
958.00,50.902
959.00,50.885
960.00,50.902
961.00,50.851
962.00,50.849
963.00,50.794
964.00,50.787
965.00,50.781
966.00,50.767
967.00,50.766
968.00,50.738
969.00,50.767
970.00,50.741
971.00,50.756
972.00,50.734
973.00,50.753
974.00,50.774
975.00,50.745
976.00,50.765
977.00,50.746
978.00,50.788
979.00,50.749
980.00,50.781
981.00,50.781
982.00,50.749
983.00,50.753
984.00,50.741
985.00,50.767
986.00,50.708
987.00,50.730
988.00,50.707
989.00,50.701
990.00,50.689
991.00,50.673
992.00,50.680
993.00,50.646
994.00,50.632
995.00,50.631
996.00,50.606
997.00,50.599
998.00,50.583
999.00,50.605
1000.00,50.557
1001.00,50.552
1002.00,50.551
1003.00,50.538
1004.00,50.528
1005.00,50.501
1006.00,50.531
1007.00,50.500
1008.00,50.489
1009.00,50.469
1010.00,50.461
1011.00,50.442
1012.00,50.417
1013.00,50.429
1014.00,50.382
1015.00,50.398
1016.00,50.356
1017.00,50.363
1018.00,50.339
1019.00,50.322
1020.00,50.303
1021.00,50.301
1022.00,50.290
1023.00,50.232
1024.00,50.244
1025.00,50.231
1026.00,50.235
1027.00,50.209
1028.00,50.199
1029.00,50.188
1030.00,50.145
1031.00,50.151
1032.00,50.115
1033.00,50.124
1034.00,50.085
1035.00,50.064
1036.00,50.038
1037.00,50.027
1038.00,50.016
1039.00,49.990
1040.00,49.980
1041.00,49.943
1042.00,49.943
1043.00,49.906
1044.00,49.941
1045.00,49.913
1046.00,49.908
1047.00,49.917
1048.00,49.919
1049.00,49.943
1050.00,49.949
1051.00,49.958
1052.00,49.981
1053.00,49.989
1054.00,49.991
1055.00,50.006
1056.00,50.017
1057.00,50.011
1058.00,49.992
1059.00,49.996
1060.00,50.004
1061.00,49.990
1062.00,49.963
1063.00,49.973
1064.00,49.957
1065.00,49.964
1066.00,49.944
1067.00,49.939
1068.00,49.940
1069.00,49.905
1070.00,49.913
1071.00,49.890
1072.00,49.894
1073.00,49.867
1074.00,49.873
1075.00,49.862
1076.00,49.857
1077.00,49.841
1078.00,49.824
1079.00,49.815
1080.00,49.824
1081.00,49.799
1082.00,49.808
1083.00,49.792
1084.00,49.780
1085.00,49.770
1086.00,49.756
1087.00,49.745
1088.00,49.731
1089.00,49.721
1090.00,49.724
1091.00,49.715
1092.00,49.716
1093.00,49.698
1094.00,49.683
1095.00,49.667
1096.00,49.666
1097.00,49.644
1098.00,49.650
1099.00,49.642
1100.00,49.619
1101.00,49.607
1102.00,49.599
1103.00,49.598
1104.00,49.597
1105.00,49.574
1106.00,49.569
1107.00,49.562
1108.00,49.563
1109.00,49.546
1110.00,49.544
1111.00,49.533
1112.00,49.526
1113.00,49.499
1114.00,49.505
1115.00,49.519
1116.00,49.516
1117.00,49.468
1118.00,49.468
1119.00,49.459
1120.00,49.460
1121.00,49.451
1122.00,49.436
1123.00,49.442
1124.00,49.435
1125.00,49.422
1126.00,49.426
1127.00,49.417
1128.00,49.410
1129.00,49.382
1130.00,49.373
1131.00,49.372
1132.00,49.358
1133.00,49.357
1134.00,49.353
1135.00,49.336
1136.00,49.337
1137.00,49.342
1138.00,49.341
1139.00,49.348
1140.00,49.331
1141.00,49.328
1142.00,49.328
1143.00,49.330
1144.00,49.303
1145.00,49.298
1146.00,49.297
1147.00,49.282
1148.00,49.283
1149.00,49.284
1150.00,49.276
1151.00,49.280
1152.00,49.284
1153.00,49.271
1154.00,49.268
1155.00,49.280
1156.00,49.266
1157.00,49.250
1158.00,49.247
1159.00,49.239
1160.00,49.235
1161.00,49.235
1162.00,49.233
1163.00,49.234
1164.00,49.219
1165.00,49.220
1166.00,49.212
1167.00,49.217
1168.00,49.217
1169.00,49.221
1170.00,49.220
1171.00,49.203
1172.00,49.201
1173.00,49.187
1174.00,49.205
1175.00,49.197
1176.00,49.202
1177.00,49.176
1178.00,49.176
1179.00,49.186
1180.00,49.173
1181.00,49.187
1182.00,49.198
1183.00,49.162
1184.00,49.167
1185.00,49.180
1186.00,49.170
1187.00,49.175
1188.00,49.158
1189.00,49.162
1190.00,49.148
1191.00,49.154
1192.00,49.179
1193.00,49.151
1194.00,49.144
1195.00,49.131
1196.00,49.148
1197.00,49.149
1198.00,49.144
1199.00,49.141
1200.00,49.140
1201.00,49.145
1202.00,49.152
1203.00,49.154
1204.00,49.128
1205.00,49.137
1206.00,49.130
1207.00,49.141
1208.00,49.129
1209.00,49.131
1210.00,49.121
1211.00,49.120
1212.00,49.137
1213.00,49.109
1214.00,49.143
1215.00,49.125
1216.00,49.122
1217.00,49.128
1218.00,49.114
1219.00,49.130
1220.00,49.118
1221.00,49.120
1222.00,49.114
1223.00,49.130
1224.00,49.120
1225.00,49.115
1226.00,49.118
1227.00,49.108
1228.00,49.124
1229.00,49.127
1230.00,49.162
1231.00,49.155
1232.00,49.160
1233.00,49.162
1234.00,49.167
1235.00,49.155
1236.00,49.161
1237.00,49.170
1238.00,49.169
1239.00,49.159
1240.00,49.159
1241.00,49.166
1242.00,49.170
1243.00,49.179
1244.00,49.154
1245.00,49.163
1246.00,49.173
1247.00,49.172
1248.00,49.166
1249.00,49.174
1250.00,49.175
1251.00,49.179
1252.00,49.207
1253.00,49.205
1254.00,49.199
1255.00,49.204
1256.00,49.172
1257.00,49.159
1258.00,49.214
1259.00,49.197
1260.00,49.218
1261.00,49.218
1262.00,49.204
1263.00,49.201
1264.00,49.210
1265.00,49.212
1266.00,49.215
1267.00,49.210
1268.00,49.236
1269.00,49.227
1270.00,49.236
1271.00,49.240
1272.00,49.252
1273.00,49.250
1274.00,49.249
1275.00,49.252
1276.00,49.247
1277.00,49.249
1278.00,49.265
1279.00,49.271
1280.00,49.279
1281.00,49.288
1282.00,49.294
1283.00,49.284
1284.00,49.280
1285.00,49.278
1286.00,49.292
1287.00,49.283
1288.00,49.298
1289.00,49.292
1290.00,49.309
1291.00,49.304
1292.00,49.308
1293.00,49.295
1294.00,49.312
1295.00,49.331
1296.00,49.306
1297.00,49.330
1298.00,49.369
1299.00,49.347
1300.00,49.349
1301.00,49.347
1302.00,49.350
1303.00,49.371
1304.00,49.342
1305.00,49.360
1306.00,49.369
1307.00,49.373
1308.00,49.383
1309.00,49.378
1310.00,49.390
1311.00,49.382
1312.00,49.394
1313.00,49.409
1314.00,49.418
1315.00,49.408
1316.00,49.408
1317.00,49.432
1318.00,49.428
1319.00,49.435
1320.00,49.455
1321.00,49.604
1322.00,49.628
1323.00,49.599
1324.00,49.603
1325.00,49.583
1326.00,49.602
1327.00,49.609
1328.00,49.580
1329.00,49.599
1330.00,49.583
1331.00,49.579
1332.00,49.603
1333.00,49.597
1334.00,49.633
1335.00,49.643
1336.00,49.669
1337.00,49.693
1338.00,49.768
1339.00,49.804
1340.00,49.872
1341.00,49.922
1342.00,49.990
1343.00,50.079
1344.00,50.085
1345.00,50.146
1346.00,50.201
1347.00,50.215
1348.00,50.226
1349.00,50.260
1350.00,50.259
1351.00,50.292
1352.00,50.269
1353.00,50.286
1354.00,50.293
1355.00,50.284
1356.00,50.287
1357.00,50.303
1358.00,50.334
1359.00,50.256
1360.00,50.391
1361.00,50.399
1362.00,50.404
1363.00,50.337
1364.00,50.298
1365.00,50.310
1366.00,50.382
1367.00,50.325
1368.00,50.268
1369.00,50.303
1370.00,50.296
1371.00,50.484
1372.00,50.270
1373.00,50.284
1374.00,50.279
1375.00,50.266
1376.00,50.285
1377.00,50.259
1378.00,50.331
1379.00,50.320
1380.00,50.287
1381.00,50.317
1382.00,50.257
1383.00,50.253
1384.00,50.253
1385.00,50.214
1386.00,50.280
1387.00,50.237
1388.00,50.203
1389.00,50.259
1390.00,50.271
1391.00,50.226
1392.00,50.231
1393.00,50.285
1394.00,50.238
1395.00,50.236
1396.00,50.195
1397.00,50.258
1398.00,50.281
1399.00,50.224
1400.00,50.245
1401.00,50.251
1402.00,50.266
1403.00,50.268
1404.00,50.248
1405.00,50.294
1406.00,50.288
1407.00,50.302
1408.00,50.288
1409.00,50.287
1410.00,50.323
1411.00,50.308
1412.00,50.362
1413.00,50.334
1414.00,50.304
1415.00,50.354
1416.00,50.385
1417.00,50.387
1418.00,50.385
1419.00,50.353
1420.00,50.402
1421.00,50.425
1422.00,50.417
1423.00,50.428
1424.00,50.449
1425.00,50.443
1426.00,50.476
1427.00,50.481
1428.00,50.502
1429.00,50.508
1430.00,50.512
1431.00,50.536
1432.00,50.554
1433.00,50.556
1434.00,50.561
1435.00,50.597
1436.00,50.597
1437.00,50.602
1438.00,50.609
1439.00,50.648
1440.00,50.653
1441.00,50.653
1442.00,50.684
1443.00,50.719
1444.00,50.719
1445.00,50.730
1446.00,50.728
1447.00,50.763
1448.00,50.781
1449.00,50.811
1450.00,50.821
1451.00,50.812
1452.00,50.809
1453.00,50.846
1454.00,50.845
1455.00,50.869
1456.00,50.901
1457.00,50.900
1458.00,50.911
1459.00,50.944
1460.00,50.942
1461.00,50.964
1462.00,50.963
1463.00,50.993
1464.00,51.014
1465.00,51.020
1466.00,51.017
1467.00,51.042
1468.00,51.070
1469.00,51.071
1470.00,51.079
1471.00,51.092
1472.00,51.111
1473.00,51.111
1474.00,51.135
1475.00,51.159
1476.00,51.161
1477.00,51.165
1478.00,51.176
1479.00,51.195
1480.00,51.197
1481.00,51.202
1482.00,51.227
1483.00,51.234
1484.00,51.246
1485.00,51.259
1486.00,51.272
1487.00,51.287
1488.00,51.291
1489.00,51.316
1490.00,51.319
1491.00,51.332
1492.00,51.341
1493.00,51.344
1494.00,51.369
1495.00,51.363
1496.00,51.366
1497.00,51.385
1498.00,51.385
1499.00,51.404
1500.00,51.431
1501.00, 
1502.00, 
1503.00, 
1504.00, 
1505.00, 
1506.00, 
1507.00, 
1508.00, 
1509.00, 
1510.00, 
1511.00, 
1512.00, 
1513.00, 
1514.00, 
1515.00, 
1516.00, 
1517.00, 
1518.00, 
1519.00, 
1520.00, 
1521.00, 
1522.00, 
1523.00, 
1524.00, 
1525.00, 
1526.00, 
1527.00, 
1528.00, 
1529.00, 
1530.00, 
1531.00, 
1532.00, 
1533.00, 
1534.00, 
1535.00, 
1536.00, 
1537.00, 
1538.00, 
1539.00, 
1540.00, 
1541.00, 
1542.00, 
1543.00, 
1544.00, 
1545.00, 
1546.00, 
1547.00, 
1548.00, 
1549.00, 
1550.00, 
1551.00, 
1552.00, 
1553.00, 
1554.00, 
1555.00, 
1556.00, 
1557.00, 
1558.00, 
1559.00, 
1560.00, 
1561.00, 
1562.00, 
1563.00, 
1564.00, 
1565.00, 
1566.00, 
1567.00, 
1568.00, 
1569.00, 
1570.00, 
1571.00, 
1572.00, 
1573.00, 
1574.00, 
1575.00, 
1576.00, 
1577.00, 
1578.00, 
1579.00, 
1580.00, 
1581.00, 
1582.00, 
1583.00, 
1584.00, 
1585.00, 
1586.00, 
1587.00, 
1588.00, 
1589.00, 
1590.00, 
1591.00, 
1592.00, 
1593.00, 
1594.00, 
1595.00, 
1596.00, 
1597.00, 
1598.00, 
1599.00, 
1600.00, 
1601.00, 
1602.00, 
1603.00, 
1604.00, 
1605.00, 
1606.00, 
1607.00, 
1608.00, 
1609.00, 
1610.00, 
1611.00, 
1612.00, 
1613.00, 
1614.00, 
1615.00, 
1616.00, 
1617.00, 
1618.00, 
1619.00, 
1620.00, 
1621.00, 
1622.00, 
1623.00, 
1624.00, 
1625.00, 
1626.00, 
1627.00, 
1628.00, 
1629.00, 
1630.00, 
1631.00, 
1632.00, 
1633.00, 
1634.00, 
1635.00, 
1636.00, 
1637.00, 
1638.00, 
1639.00, 
1640.00, 
1641.00, 
1642.00, 
1643.00, 
1644.00, 
1645.00, 
1646.00, 
1647.00, 
1648.00, 
1649.00, 
1650.00, 
1651.00, 
1652.00, 
1653.00, 
1654.00, 
1655.00, 
1656.00, 
1657.00, 
1658.00, 
1659.00, 
1660.00, 
1661.00, 
1662.00, 
1663.00, 
1664.00, 
1665.00, 
1666.00, 
1667.00, 
1668.00, 
1669.00, 
1670.00, 
1671.00, 
1672.00, 
1673.00, 
1674.00, 
1675.00, 
1676.00, 
1677.00, 
1678.00, 
1679.00, 
1680.00, 
1681.00, 
1682.00, 
1683.00, 
1684.00, 
1685.00, 
1686.00, 
1687.00, 
1688.00, 
1689.00, 
1690.00, 
1691.00, 
1692.00, 
1693.00, 
1694.00, 
1695.00, 
1696.00, 
1697.00, 
1698.00, 
1699.00, 
1700.00, 
1701.00, 
1702.00, 
1703.00, 
1704.00, 
1705.00, 
1706.00, 
1707.00, 
1708.00, 
1709.00, 
1710.00, 
1711.00, 
1712.00, 
1713.00, 
1714.00, 
1715.00, 
1716.00, 
1717.00, 
1718.00, 
1719.00, 
1720.00, 
1721.00, 
1722.00, 
1723.00, 
1724.00, 
1725.00, 
1726.00, 
1727.00, 
1728.00, 
1729.00, 
1730.00, 
1731.00, 
1732.00, 
1733.00, 
1734.00, 
1735.00, 
1736.00, 
1737.00, 
1738.00, 
1739.00, 
1740.00, 
1741.00, 
1742.00, 
1743.00, 
1744.00, 
1745.00, 
1746.00, 
1747.00, 
1748.00, 
1749.00, 
1750.00, 
1751.00, 
1752.00, 
1753.00, 
1754.00, 
1755.00, 
1756.00, 
1757.00, 
1758.00, 
1759.00, 
1760.00, 
1761.00, 
1762.00, 
1763.00, 
1764.00, 
1765.00, 
1766.00, 
1767.00, 
1768.00, 
1769.00, 
1770.00, 
1771.00, 
1772.00, 
1773.00, 
1774.00, 
1775.00, 
1776.00, 
1777.00, 
1778.00, 
1779.00, 
1780.00, 
1781.00, 
1782.00, 
1783.00, 
1784.00, 
1785.00, 
1786.00, 
1787.00, 
1788.00, 
1789.00, 
1790.00, 
1791.00, 
1792.00, 
1793.00, 
1794.00, 
1795.00, 
1796.00, 
1797.00, 
1798.00, 
1799.00, 
1800.00, 
1801.00, 
1802.00, 
1803.00, 
1804.00, 
1805.00, 
1806.00, 
1807.00, 
1808.00, 
1809.00, 
1810.00, 
1811.00, 
1812.00, 
1813.00, 
1814.00, 
1815.00, 
1816.00, 
1817.00, 
1818.00, 
1819.00, 
1820.00, 
1821.00, 
1822.00, 
1823.00, 
1824.00, 
1825.00, 
1826.00, 
1827.00, 
1828.00, 
1829.00, 
1830.00, 
1831.00, 
1832.00, 
1833.00, 
1834.00, 
1835.00, 
1836.00, 
1837.00, 
1838.00, 
1839.00, 
1840.00, 
1841.00, 
1842.00, 
1843.00, 
1844.00, 
1845.00, 
1846.00, 
1847.00, 
1848.00, 
1849.00, 
1850.00, 
1851.00, 
1852.00, 
1853.00, 
1854.00, 
1855.00, 
1856.00, 
1857.00, 
1858.00, 
1859.00, 
1860.00, 
1861.00, 
1862.00, 
1863.00, 
1864.00, 
1865.00, 
1866.00, 
1867.00, 
1868.00, 
1869.00, 
1870.00, 
1871.00, 
1872.00, 
1873.00, 
1874.00, 
1875.00, 
1876.00, 
1877.00, 
1878.00, 
1879.00, 
1880.00, 
1881.00, 
1882.00, 
1883.00, 
1884.00, 
1885.00, 
1886.00, 
1887.00, 
1888.00, 
1889.00, 
1890.00, 
1891.00, 
1892.00, 
1893.00, 
1894.00, 
1895.00, 
1896.00, 
1897.00, 
1898.00, 
1899.00, 
1900.00, 
1901.00, 
1902.00, 
1903.00, 
1904.00, 
1905.00, 
1906.00, 
1907.00, 
1908.00, 
1909.00, 
1910.00, 
1911.00, 
1912.00, 
1913.00, 
1914.00, 
1915.00, 
1916.00, 
1917.00, 
1918.00, 
1919.00, 
1920.00, 
1921.00, 
1922.00, 
1923.00, 
1924.00, 
1925.00, 
1926.00, 
1927.00, 
1928.00, 
1929.00, 
1930.00, 
1931.00, 
1932.00, 
1933.00, 
1934.00, 
1935.00, 
1936.00, 
1937.00, 
1938.00, 
1939.00, 
1940.00, 
1941.00, 
1942.00, 
1943.00, 
1944.00, 
1945.00, 
1946.00, 
1947.00, 
1948.00, 
1949.00, 
1950.00, 
1951.00, 
1952.00, 
1953.00, 
1954.00, 
1955.00, 
1956.00, 
1957.00, 
1958.00, 
1959.00, 
1960.00, 
1961.00, 
1962.00, 
1963.00, 
1964.00, 
1965.00, 
1966.00, 
1967.00, 
1968.00, 
1969.00, 
1970.00, 
1971.00, 
1972.00, 
1973.00, 
1974.00, 
1975.00, 
1976.00, 
1977.00, 
1978.00, 
1979.00, 
1980.00, 
1981.00, 
1982.00, 
1983.00, 
1984.00, 
1985.00, 
1986.00, 
1987.00, 
1988.00, 
1989.00, 
1990.00, 
1991.00, 
1992.00, 
1993.00, 
1994.00, 
1995.00, 
1996.00, 
1997.00, 
1998.00, 
1999.00, 
2000.00, 
2001.00, 
2002.00, 
2003.00, 
2004.00, 
2005.00, 
2006.00, 
2007.00, 
2008.00, 
2009.00, 
2010.00, 
2011.00, 
2012.00, 
2013.00, 
2014.00, 
2015.00, 
2016.00, 
2017.00, 
2018.00, 
2019.00, 
2020.00, 
2021.00, 
2022.00, 
2023.00, 
2024.00, 
2025.00, 
2026.00, 
2027.00, 
2028.00, 
2029.00, 
2030.00, 
2031.00, 
2032.00, 
2033.00, 
2034.00, 
2035.00, 
2036.00, 
2037.00, 
2038.00, 
2039.00, 
2040.00, 
2041.00, 
2042.00, 
2043.00, 
2044.00, 
2045.00, 
2046.00, 
2047.00, 
2048.00, 
2049.00, 
2050.00, 
2051.00, 
2052.00, 
2053.00, 
2054.00, 
2055.00, 
2056.00, 
2057.00, 
2058.00, 
2059.00, 
2060.00, 
2061.00, 
2062.00, 
2063.00, 
2064.00, 
2065.00, 
2066.00, 
2067.00, 
2068.00, 
2069.00, 
2070.00, 
2071.00, 
2072.00, 
2073.00, 
2074.00, 
2075.00, 
2076.00, 
2077.00, 
2078.00, 
2079.00, 
2080.00, 
2081.00, 
2082.00, 
2083.00, 
2084.00, 
2085.00, 
2086.00, 
2087.00, 
2088.00, 
2089.00, 
2090.00, 
2091.00, 
2092.00, 
2093.00, 
2094.00, 
2095.00, 
2096.00, 
2097.00, 
2098.00, 
2099.00, 
2100.00, 
2101.00, 
2102.00, 
2103.00, 
2104.00, 
2105.00, 
2106.00, 
2107.00, 
2108.00, 
2109.00, 
2110.00, 
2111.00, 
2112.00, 
2113.00, 
2114.00, 
2115.00, 
2116.00, 
2117.00, 
2118.00, 
2119.00, 
2120.00, 
2121.00, 
2122.00, 
2123.00, 
2124.00, 
2125.00, 
2126.00, 
2127.00, 
2128.00, 
2129.00, 
2130.00, 
2131.00, 
2132.00, 
2133.00, 
2134.00, 
2135.00, 
2136.00, 
2137.00, 
2138.00, 
2139.00, 
2140.00, 
2141.00, 
2142.00, 
2143.00, 
2144.00, 
2145.00, 
2146.00, 
2147.00, 
2148.00, 
2149.00, 
2150.00, 
2151.00, 
2152.00, 
2153.00, 
2154.00, 
2155.00, 
2156.00, 
2157.00, 
2158.00, 
2159.00, 
2160.00, 
2161.00, 
2162.00, 
2163.00, 
2164.00, 
2165.00, 
2166.00, 
2167.00, 
2168.00, 
2169.00, 
2170.00, 
2171.00, 
2172.00, 
2173.00, 
2174.00, 
2175.00, 
2176.00, 
2177.00, 
2178.00, 
2179.00, 
2180.00, 
2181.00, 
2182.00, 
2183.00, 
2184.00, 
2185.00, 
2186.00, 
2187.00, 
2188.00, 
2189.00, 
2190.00, 
2191.00, 
2192.00, 
2193.00, 
2194.00, 
2195.00, 
2196.00, 
2197.00, 
2198.00, 
2199.00, 
2200.00, 
2201.00, 
2202.00, 
2203.00, 
2204.00, 
2205.00, 
2206.00, 
2207.00, 
2208.00, 
2209.00, 
2210.00, 
2211.00, 
2212.00, 
2213.00, 
2214.00, 
2215.00, 
2216.00, 
2217.00, 
2218.00, 
2219.00, 
2220.00, 
2221.00, 
2222.00, 
2223.00, 
2224.00, 
2225.00, 
2226.00, 
2227.00, 
2228.00, 
2229.00, 
2230.00, 
2231.00, 
2232.00, 
2233.00, 
2234.00, 
2235.00, 
2236.00, 
2237.00, 
2238.00, 
2239.00, 
2240.00, 
2241.00, 
2242.00, 
2243.00, 
2244.00, 
2245.00, 
2246.00, 
2247.00, 
2248.00, 
2249.00, 
2250.00, 
2251.00, 
2252.00, 
2253.00, 
2254.00, 
2255.00, 
2256.00, 
2257.00, 
2258.00, 
2259.00, 
2260.00, 
2261.00, 
2262.00, 
2263.00, 
2264.00, 
2265.00, 
2266.00, 
2267.00, 
2268.00, 
2269.00, 
2270.00, 
2271.00, 
2272.00, 
2273.00, 
2274.00, 
2275.00, 
2276.00, 
2277.00, 
2278.00, 
2279.00, 
2280.00, 
2281.00, 
2282.00, 
2283.00, 
2284.00, 
2285.00, 
2286.00, 
2287.00, 
2288.00, 
2289.00, 
2290.00, 
2291.00, 
2292.00, 
2293.00, 
2294.00, 
2295.00, 
2296.00, 
2297.00, 
2298.00, 
2299.00, 
2300.00, 
2301.00, 
2302.00, 
2303.00, 
2304.00, 
2305.00, 
2306.00, 
2307.00, 
2308.00, 
2309.00, 
2310.00, 
2311.00, 
2312.00, 
2313.00, 
2314.00, 
2315.00, 
2316.00, 
2317.00, 
2318.00, 
2319.00, 
2320.00, 
2321.00, 
2322.00, 
2323.00, 
2324.00, 
2325.00, 
2326.00, 
2327.00, 
2328.00, 
2329.00, 
2330.00, 
2331.00, 
2332.00, 
2333.00, 
2334.00, 
2335.00, 
2336.00, 
2337.00, 
2338.00, 
2339.00, 
2340.00, 
2341.00, 
2342.00, 
2343.00, 
2344.00, 
2345.00, 
2346.00, 
2347.00, 
2348.00, 
2349.00, 
2350.00, 
2351.00, 
2352.00, 
2353.00, 
2354.00, 
2355.00, 
2356.00, 
2357.00, 
2358.00, 
2359.00, 
2360.00, 
2361.00, 
2362.00, 
2363.00, 
2364.00, 
2365.00, 
2366.00, 
2367.00, 
2368.00, 
2369.00, 
2370.00, 
2371.00, 
2372.00, 
2373.00, 
2374.00, 
2375.00, 
2376.00, 
2377.00, 
2378.00, 
2379.00, 
2380.00, 
2381.00, 
2382.00, 
2383.00, 
2384.00, 
2385.00, 
2386.00, 
2387.00, 
2388.00, 
2389.00, 
2390.00, 
2391.00, 
2392.00, 
2393.00, 
2394.00, 
2395.00, 
2396.00, 
2397.00, 
2398.00, 
2399.00, 
2400.00, 
2401.00, 
2402.00, 
2403.00, 
2404.00, 
2405.00, 
2406.00, 
2407.00, 
2408.00, 
2409.00, 
2410.00, 
2411.00, 
2412.00, 
2413.00, 
2414.00, 
2415.00, 
2416.00, 
2417.00, 
2418.00, 
2419.00, 
2420.00, 
2421.00, 
2422.00, 
2423.00, 
2424.00, 
2425.00, 
2426.00, 
2427.00, 
2428.00, 
2429.00, 
2430.00, 
2431.00, 
2432.00, 
2433.00, 
2434.00, 
2435.00, 
2436.00, 
2437.00, 
2438.00, 
2439.00, 
2440.00, 
2441.00, 
2442.00, 
2443.00, 
2444.00, 
2445.00, 
2446.00, 
2447.00, 
2448.00, 
2449.00, 
2450.00, 
2451.00, 
2452.00, 
2453.00, 
2454.00, 
2455.00, 
2456.00, 
2457.00, 
2458.00, 
2459.00, 
2460.00, 
2461.00, 
2462.00, 
2463.00, 
2464.00, 
2465.00, 
2466.00, 
2467.00, 
2468.00, 
2469.00, 
2470.00, 
2471.00, 
2472.00, 
2473.00, 
2474.00, 
2475.00, 
2476.00, 
2477.00, 
2478.00, 
2479.00, 
2480.00, 
2481.00, 
2482.00, 
2483.00, 
2484.00, 
2485.00, 
2486.00, 
2487.00, 
2488.00, 
2489.00, 
2490.00, 
2491.00, 
2492.00, 
2493.00, 
2494.00, 
2495.00, 
2496.00, 
2497.00, 
2498.00, 
2499.00, 
2500.00, 
2501.00, 
2502.00, 
2503.00, 
2504.00, 
2505.00, 
2506.00, 
2507.00, 
2508.00, 
2509.00, 
2510.00, 
2511.00, 
2512.00, 
2513.00, 
2514.00, 
2515.00, 
2516.00, 
2517.00, 
2518.00, 
2519.00, 
2520.00, 
2521.00, 
2522.00, 
2523.00, 
2524.00, 
2525.00, 
2526.00, 
2527.00, 
2528.00, 
2529.00, 
2530.00, 
2531.00, 
2532.00, 
2533.00, 
2534.00, 
2535.00, 
2536.00, 
2537.00, 
2538.00, 
2539.00, 
2540.00, 
2541.00, 
2542.00, 
2543.00, 
2544.00, 
2545.00, 
2546.00, 
2547.00, 
2548.00, 
2549.00, 
2550.00, 
2551.00, 
2552.00, 
2553.00, 
2554.00, 
2555.00, 
2556.00, 
2557.00, 
2558.00, 
2559.00, 
2560.00, 
2561.00, 
2562.00, 
2563.00, 
2564.00, 
2565.00, 
2566.00, 
2567.00, 
2568.00, 
2569.00, 
2570.00, 
2571.00, 
2572.00, 
2573.00, 
2574.00, 
2575.00, 
2576.00, 
2577.00, 
2578.00, 
2579.00, 
2580.00, 
2581.00, 
2582.00, 
2583.00, 
2584.00, 
2585.00, 
2586.00, 
2587.00, 
2588.00, 
2589.00, 
2590.00, 
2591.00, 
2592.00, 
2593.00, 
2594.00, 
2595.00, 
2596.00, 
2597.00, 
2598.00, 
2599.00, 
2600.00, 
