"2cP1 - RawData"
"Wavelength nm.","T%"
200.00,-0.002
201.00,-0.000
202.00,0.005
203.00,0.000
204.00,0.002
205.00,0.003
206.00,0.001
207.00,-0.001
208.00,-0.001
209.00,0.005
210.00,0.001
211.00,-0.000
212.00,0.000
213.00,0.004
214.00,0.001
215.00,0.001
216.00,0.004
217.00,0.001
218.00,0.001
219.00,0.003
220.00,0.002
221.00,0.002
222.00,0.002
223.00,-0.001
224.00,-0.000
225.00,-0.000
226.00,-0.001
227.00,0.001
228.00,0.002
229.00,0.001
230.00,0.000
231.00,0.001
232.00,-0.001
233.00,0.000
234.00,0.001
235.00,0.001
236.00,0.000
237.00,-0.002
238.00,0.000
239.00,0.001
240.00,0.000
241.00,0.002
242.00,-0.001
243.00,0.002
244.00,-0.000
245.00,0.002
246.00,0.001
247.00,-0.001
248.00,-0.001
249.00,0.000
250.00,0.001
251.00,0.001
252.00,0.001
253.00,0.001
254.00,-0.001
255.00,0.001
256.00,0.001
257.00,-0.003
258.00,0.001
259.00,0.000
260.00,-0.002
261.00,0.001
262.00,-0.000
263.00,0.001
264.00,0.000
265.00,-0.000
266.00,0.000
267.00,-0.001
268.00,0.000
269.00,0.000
270.00,0.001
271.00,0.001
272.00,-0.000
273.00,0.001
274.00,0.001
275.00,0.001
276.00,-0.001
277.00,0.001
278.00,0.002
279.00,-0.002
280.00,0.001
281.00,0.001
282.00,-0.001
283.00,0.001
284.00,0.002
285.00,-0.000
286.00,0.001
287.00,0.001
288.00,-0.002
289.00,0.002
290.00,0.002
291.00,-0.001
292.00,0.000
293.00,-0.000
294.00,0.002
295.00,-0.000
296.00,0.001
297.00,0.000
298.00,0.001
299.00,0.002
300.00,0.003
301.00,0.003
302.00,0.005
303.00,0.008
304.00,0.010
305.00,0.019
306.00,0.027
307.00,0.040
308.00,0.063
309.00,0.099
310.00,0.141
311.00,0.187
312.00,0.253
313.00,0.351
314.00,0.471
315.00,0.612
316.00,0.773
317.00,0.982
318.00,1.203
319.00,1.482
320.00,1.799
321.00,2.164
322.00,2.563
323.00,3.043
324.00,3.525
325.00,4.009
326.00,4.543
327.00,5.036
328.00,5.713
329.00,6.317
330.00,6.974
331.00,7.606
332.00,8.291
333.00,8.981
334.00,9.629
335.00,10.339
336.00,11.009
337.00,11.683
338.00,12.339
339.00,12.973
340.00,13.596
341.00,14.195
342.00,14.681
343.00,15.347
344.00,15.910
345.00,16.425
346.00,16.850
347.00,17.365
348.00,17.781
349.00,18.228
350.00,18.583
351.00,18.956
352.00,19.300
353.00,19.595
354.00,19.934
355.00,20.221
356.00,20.464
357.00,20.777
358.00,20.965
359.00,21.184
360.00,21.388
361.00,21.566
362.00,21.712
363.00,21.864
364.00,22.040
365.00,22.147
366.00,22.316
367.00,22.352
368.00,22.404
369.00,22.498
370.00,22.573
371.00,22.577
372.00,22.619
373.00,22.590
374.00,22.620
375.00,22.557
376.00,22.600
377.00,22.541
378.00,22.493
379.00,22.435
380.00,22.444
381.00,22.430
382.00,22.426
383.00,22.450
384.00,22.472
385.00,22.511
386.00,22.531
387.00,22.575
388.00,22.626
389.00,22.656
390.00,22.680
391.00,22.712
392.00,22.729
393.00,22.761
394.00,22.799
395.00,22.801
396.00,22.763
397.00,22.807
398.00,22.807
399.00,22.820
400.00,22.806
401.00,22.809
402.00,22.821
403.00,22.805
404.00,22.789
405.00,22.836
406.00,22.805
407.00,22.777
408.00,22.768
409.00,22.729
410.00,22.682
411.00,22.683
412.00,22.667
413.00,22.681
414.00,22.664
415.00,22.651
416.00,22.680
417.00,22.684
418.00,22.707
419.00,22.726
420.00,22.751
421.00,22.810
422.00,22.868
423.00,22.889
424.00,22.899
425.00,22.947
426.00,22.989
427.00,23.016
428.00,23.053
429.00,23.110
430.00,23.142
431.00,23.174
432.00,23.218
433.00,23.289
434.00,23.315
435.00,23.409
436.00,23.465
437.00,23.535
438.00,23.632
439.00,23.728
440.00,23.702
441.00,23.764
442.00,23.857
443.00,23.927
444.00,24.027
445.00,24.074
446.00,24.177
447.00,24.304
448.00,24.346
449.00,24.383
450.00,24.589
451.00,24.665
452.00,24.783
453.00,24.894
454.00,25.012
455.00,25.088
456.00,25.246
457.00,25.309
458.00,25.407
459.00,25.524
460.00,25.624
461.00,25.748
462.00,25.909
463.00,26.003
464.00,26.096
465.00,26.231
466.00,26.322
467.00,26.448
468.00,26.538
469.00,26.687
470.00,26.761
471.00,26.881
472.00,26.981
473.00,27.093
474.00,27.162
475.00,27.329
476.00,27.411
477.00,27.523
478.00,27.684
479.00,27.799
480.00,27.947
481.00,28.097
482.00,28.233
483.00,28.353
484.00,28.504
485.00,28.672
486.00,28.779
487.00,28.955
488.00,29.061
489.00,29.231
490.00,29.314
491.00,29.483
492.00,29.645
493.00,29.726
494.00,29.696
495.00,29.938
496.00,30.042
497.00,30.187
498.00,30.276
499.00,30.471
500.00,30.590
501.00,30.720
502.00,30.853
503.00,30.961
504.00,31.108
505.00,31.193
506.00,31.364
507.00,31.419
508.00,31.551
509.00,31.674
510.00,31.787
511.00,31.916
512.00,32.055
513.00,32.117
514.00,32.276
515.00,32.408
516.00,32.492
517.00,32.591
518.00,32.779
519.00,32.818
520.00,32.909
521.00,32.992
522.00,33.064
523.00,33.175
524.00,33.248
525.00,33.367
526.00,33.458
527.00,33.561
528.00,33.584
529.00,33.741
530.00,33.792
531.00,33.969
532.00,34.019
533.00,34.113
534.00,34.191
535.00,34.311
536.00,34.393
537.00,34.404
538.00,34.573
539.00,34.649
540.00,34.714
541.00,34.750
542.00,34.857
543.00,34.933
544.00,35.005
545.00,35.003
546.00,35.059
547.00,35.186
548.00,35.211
549.00,35.231
550.00,35.288
551.00,35.371
552.00,35.567
553.00,35.719
554.00,35.778
555.00,35.818
556.00,35.899
557.00,35.994
558.00,36.022
559.00,36.069
560.00,36.108
561.00,36.192
562.00,36.262
563.00,36.256
564.00,36.339
565.00,36.368
566.00,36.410
567.00,36.454
568.00,36.487
569.00,36.520
570.00,36.559
571.00,36.677
572.00,36.709
573.00,36.725
574.00,36.802
575.00,36.833
576.00,36.847
577.00,36.912
578.00,36.970
579.00,37.055
580.00,37.086
581.00,37.205
582.00,37.246
583.00,37.246
584.00,37.449
585.00,37.461
586.00,37.570
587.00,37.634
588.00,37.678
589.00,37.746
590.00,37.778
591.00,37.768
592.00,37.839
593.00,37.854
594.00,37.932
595.00,37.967
596.00,38.007
597.00,38.045
598.00,38.178
599.00,38.181
600.00,38.256
601.00,38.330
602.00,38.347
603.00,38.397
604.00,38.399
605.00,38.479
606.00,38.562
607.00,38.532
608.00,38.680
609.00,38.659
610.00,38.685
611.00,38.724
612.00,38.796
613.00,38.849
614.00,38.862
615.00,38.925
616.00,39.010
617.00,39.061
618.00,39.108
619.00,39.119
620.00,39.204
621.00,39.232
622.00,39.206
623.00,39.321
624.00,39.327
625.00,39.427
626.00,39.562
627.00,39.638
628.00,39.658
629.00,39.746
630.00,39.796
631.00,39.807
632.00,39.901
633.00,39.981
634.00,39.989
635.00,40.107
636.00,40.216
637.00,40.217
638.00,40.275
639.00,40.362
640.00,40.373
641.00,40.476
642.00,40.571
643.00,40.658
644.00,40.715
645.00,40.774
646.00,40.946
647.00,40.963
648.00,41.056
649.00,41.221
650.00,41.161
651.00,41.259
652.00,41.293
653.00,41.359
654.00,41.450
655.00,41.503
656.00,41.608
657.00,41.702
658.00,41.720
659.00,41.815
660.00,41.951
661.00,41.897
662.00,42.134
663.00,42.212
664.00,42.373
665.00,42.408
666.00,42.528
667.00,42.525
668.00,42.727
669.00,42.907
670.00,42.881
671.00,42.949
672.00,43.044
673.00,43.062
674.00,43.122
675.00,43.251
676.00,43.309
677.00,43.467
678.00,43.464
679.00,43.531
680.00,43.613
681.00,43.736
682.00,43.776
683.00,43.948
684.00,44.025
685.00,44.082
686.00,44.115
687.00,44.243
688.00,44.331
689.00,44.357
690.00,44.431
691.00,44.590
692.00,44.571
693.00,44.637
694.00,44.674
695.00,44.826
696.00,44.951
697.00,44.986
698.00,45.118
699.00,45.193
700.00,45.271
701.00,45.312
702.00,45.371
703.00,45.587
704.00,45.590
705.00,45.703
706.00,45.769
707.00,45.800
708.00,45.723
709.00,45.971
710.00,46.098
711.00,45.875
712.00,46.063
713.00,46.140
714.00,46.135
715.00,46.219
716.00,46.381
717.00,46.310
718.00,46.453
719.00,46.604
720.00,46.453
721.00,50.628
722.00,50.750
723.00,50.717
724.00,50.708
725.00,50.732
726.00,50.807
727.00,50.764
728.00,50.777
729.00,50.786
730.00,50.834
731.00,50.886
732.00,50.914
733.00,50.945
734.00,50.958
735.00,50.964
736.00,50.984
737.00,51.063
738.00,51.029
739.00,51.146
740.00,51.130
741.00,51.157
742.00,51.209
743.00,51.159
744.00,51.135
745.00,51.154
746.00,51.161
747.00,51.184
748.00,51.228
749.00,51.194
750.00,51.219
751.00,51.178
752.00,51.175
753.00,51.200
754.00,51.144
755.00,51.169
756.00,51.235
757.00,51.218
758.00,51.226
759.00,51.301
760.00,51.235
761.00,51.224
762.00,51.225
763.00,51.326
764.00,51.351
765.00,51.266
766.00,51.368
767.00,51.289
768.00,51.301
769.00,51.322
770.00,51.347
771.00,51.402
772.00,51.337
773.00,51.350
774.00,51.348
775.00,51.395
776.00,51.472
777.00,51.409
778.00,51.342
779.00,51.415
780.00,51.443
781.00,51.392
782.00,51.436
783.00,51.373
784.00,51.457
785.00,51.420
786.00,51.340
787.00,51.430
788.00,51.406
789.00,51.380
790.00,51.311
791.00,51.388
792.00,51.364
793.00,51.326
794.00,51.351
795.00,51.252
796.00,51.289
797.00,51.247
798.00,51.244
799.00,51.302
800.00,51.296
801.00,51.235
802.00,51.195
803.00,51.226
804.00,51.226
805.00,51.214
806.00,51.184
807.00,51.129
808.00,51.137
809.00,51.079
810.00,51.150
811.00,51.081
812.00,51.104
813.00,51.107
814.00,51.032
815.00,51.005
816.00,51.097
817.00,50.966
818.00,50.934
819.00,50.946
820.00,50.892
821.00,50.874
822.00,50.913
823.00,50.838
824.00,50.849
825.00,50.823
826.00,50.985
827.00,50.868
828.00,50.903
829.00,50.835
830.00,50.790
831.00,53.341
832.00,53.374
833.00,53.322
834.00,53.311
835.00,53.281
836.00,53.265
837.00,53.262
838.00,53.226
839.00,53.222
840.00,53.209
841.00,53.220
842.00,53.201
843.00,53.156
844.00,53.143
845.00,53.073
846.00,53.094
847.00,53.105
848.00,53.030
849.00,53.020
850.00,52.995
851.00,52.904
852.00,52.909
853.00,52.873
854.00,52.844
855.00,52.797
856.00,52.808
857.00,52.773
858.00,52.735
859.00,52.684
860.00,52.697
861.00,52.843
862.00,52.689
863.00,52.688
864.00,52.650
865.00,52.654
866.00,52.615
867.00,52.646
868.00,52.637
869.00,52.605
870.00,52.594
871.00,52.584
872.00,52.569
873.00,52.529
874.00,52.560
875.00,52.477
876.00,52.564
877.00,52.491
878.00,52.472
879.00,52.466
880.00,52.463
881.00,52.436
882.00,52.446
883.00,52.441
884.00,52.422
885.00,52.300
886.00,52.474
887.00,52.315
888.00,52.292
889.00,52.288
890.00,52.265
891.00,52.244
892.00,52.216
893.00,52.182
894.00,52.205
895.00,52.177
896.00,52.152
897.00,52.125
898.00,52.103
899.00,52.092
900.00,52.111
901.00,52.111
902.00,52.117
903.00,52.005
904.00,52.001
905.00,52.171
906.00,51.990
907.00,51.971
908.00,51.954
909.00,51.951
910.00,51.908
911.00,51.895
912.00,51.898
913.00,51.880
914.00,51.710
915.00,51.827
916.00,51.787
917.00,51.757
918.00,51.745
919.00,51.726
920.00,51.697
921.00,51.676
922.00,51.675
923.00,51.657
924.00,51.640
925.00,51.611
926.00,51.646
927.00,51.612
928.00,51.573
929.00,51.566
930.00,51.533
931.00,51.542
932.00,51.484
933.00,51.491
934.00,51.469
935.00,51.436
936.00,51.417
937.00,51.394
938.00,51.371
939.00,51.381
940.00,51.348
941.00,51.331
942.00,51.304
943.00,51.320
944.00,51.282
945.00,51.261
946.00,51.317
947.00,51.223
948.00,51.212
949.00,51.170
950.00,51.162
951.00,51.139
952.00,51.110
953.00,51.071
954.00,51.048
955.00,51.016
956.00,51.020
957.00,50.976
958.00,50.989
959.00,50.944
960.00,50.927
961.00,50.941
962.00,50.932
963.00,50.886
964.00,50.877
965.00,50.860
966.00,50.858
967.00,50.860
968.00,50.808
969.00,50.841
970.00,50.825
971.00,50.830
972.00,50.807
973.00,50.838
974.00,50.840
975.00,50.850
976.00,50.873
977.00,50.826
978.00,50.860
979.00,50.808
980.00,50.833
981.00,50.844
982.00,50.802
983.00,50.815
984.00,50.798
985.00,50.809
986.00,50.777
987.00,50.787
988.00,50.770
989.00,50.757
990.00,50.758
991.00,50.740
992.00,50.755
993.00,50.721
994.00,50.694
995.00,50.698
996.00,50.680
997.00,50.666
998.00,50.628
999.00,50.651
1000.00,50.606
1001.00,50.602
1002.00,50.604
1003.00,50.577
1004.00,50.573
1005.00,50.552
1006.00,50.592
1007.00,50.583
1008.00,50.537
1009.00,50.515
1010.00,50.496
1011.00,50.490
1012.00,50.446
1013.00,50.462
1014.00,50.434
1015.00,50.437
1016.00,50.401
1017.00,50.402
1018.00,50.383
1019.00,50.368
1020.00,50.356
1021.00,50.314
1022.00,50.336
1023.00,50.329
1024.00,50.288
1025.00,50.256
1026.00,50.269
1027.00,50.242
1028.00,50.234
1029.00,50.217
1030.00,50.185
1031.00,50.193
1032.00,50.146
1033.00,50.159
1034.00,50.132
1035.00,50.104
1036.00,50.082
1037.00,50.058
1038.00,50.043
1039.00,50.011
1040.00,50.006
1041.00,49.969
1042.00,49.963
1043.00,49.927
1044.00,49.966
1045.00,49.934
1046.00,49.936
1047.00,49.947
1048.00,49.954
1049.00,49.975
1050.00,49.972
1051.00,49.987
1052.00,50.020
1053.00,50.027
1054.00,50.011
1055.00,50.031
1056.00,50.035
1057.00,50.039
1058.00,50.038
1059.00,50.035
1060.00,50.035
1061.00,50.035
1062.00,50.012
1063.00,50.018
1064.00,50.001
1065.00,49.986
1066.00,49.995
1067.00,49.975
1068.00,49.990
1069.00,49.962
1070.00,49.939
1071.00,49.925
1072.00,49.936
1073.00,49.905
1074.00,49.917
1075.00,49.898
1076.00,49.884
1077.00,49.874
1078.00,49.857
1079.00,49.849
1080.00,49.856
1081.00,49.824
1082.00,49.837
1083.00,49.822
1084.00,49.809
1085.00,49.820
1086.00,49.810
1087.00,49.800
1088.00,49.784
1089.00,49.767
1090.00,49.772
1091.00,49.760
1092.00,49.745
1093.00,49.727
1094.00,49.712
1095.00,49.698
1096.00,49.696
1097.00,49.678
1098.00,49.671
1099.00,49.673
1100.00,49.662
1101.00,49.643
1102.00,49.649
1103.00,49.627
1104.00,49.620
1105.00,49.609
1106.00,49.601
1107.00,49.591
1108.00,49.576
1109.00,49.566
1110.00,49.580
1111.00,49.555
1112.00,49.557
1113.00,49.556
1114.00,49.540
1115.00,49.542
1116.00,49.537
1117.00,49.499
1118.00,49.509
1119.00,49.505
1120.00,49.502
1121.00,49.502
1122.00,49.485
1123.00,49.473
1124.00,49.473
1125.00,49.453
1126.00,49.454
1127.00,49.439
1128.00,49.421
1129.00,49.428
1130.00,49.435
1131.00,49.384
1132.00,49.404
1133.00,49.398
1134.00,49.389
1135.00,49.372
1136.00,49.361
1137.00,49.367
1138.00,49.377
1139.00,49.370
1140.00,49.359
1141.00,49.345
1142.00,49.328
1143.00,49.349
1144.00,49.321
1145.00,49.322
1146.00,49.336
1147.00,49.317
1148.00,49.313
1149.00,49.325
1150.00,49.313
1151.00,49.320
1152.00,49.299
1153.00,49.291
1154.00,49.287
1155.00,49.280
1156.00,49.270
1157.00,49.290
1158.00,49.271
1159.00,49.261
1160.00,49.261
1161.00,49.269
1162.00,49.254
1163.00,49.256
1164.00,49.247
1165.00,49.243
1166.00,49.250
1167.00,49.250
1168.00,49.261
1169.00,49.251
1170.00,49.258
1171.00,49.236
1172.00,49.230
1173.00,49.232
1174.00,49.231
1175.00,49.222
1176.00,49.235
1177.00,49.215
1178.00,49.207
1179.00,49.227
1180.00,49.202
1181.00,49.231
1182.00,49.223
1183.00,49.204
1184.00,49.193
1185.00,49.209
1186.00,49.196
1187.00,49.204
1188.00,49.187
1189.00,49.185
1190.00,49.196
1191.00,49.188
1192.00,49.199
1193.00,49.187
1194.00,49.194
1195.00,49.162
1196.00,49.186
1197.00,49.174
1198.00,49.179
1199.00,49.178
1200.00,49.164
1201.00,49.183
1202.00,49.160
1203.00,49.166
1204.00,49.158
1205.00,49.166
1206.00,49.162
1207.00,49.169
1208.00,49.150
1209.00,49.157
1210.00,49.155
1211.00,49.142
1212.00,49.160
1213.00,49.123
1214.00,49.153
1215.00,49.144
1216.00,49.136
1217.00,49.156
1218.00,49.147
1219.00,49.167
1220.00,49.156
1221.00,49.155
1222.00,49.141
1223.00,49.164
1224.00,49.153
1225.00,49.143
1226.00,49.144
1227.00,49.117
1228.00,49.152
1229.00,49.152
1230.00,49.183
1231.00,49.192
1232.00,49.190
1233.00,49.182
1234.00,49.201
1235.00,49.186
1236.00,49.197
1237.00,49.191
1238.00,49.181
1239.00,49.195
1240.00,49.179
1241.00,49.183
1242.00,49.184
1243.00,49.203
1244.00,49.180
1245.00,49.194
1246.00,49.205
1247.00,49.208
1248.00,49.208
1249.00,49.214
1250.00,49.215
1251.00,49.209
1252.00,49.214
1253.00,49.216
1254.00,49.221
1255.00,49.218
1256.00,49.209
1257.00,49.185
1258.00,49.231
1259.00,49.229
1260.00,49.251
1261.00,49.255
1262.00,49.255
1263.00,49.244
1264.00,49.281
1265.00,49.279
1266.00,49.256
1267.00,49.261
1268.00,49.272
1269.00,49.262
1270.00,49.275
1271.00,49.276
1272.00,49.284
1273.00,49.278
1274.00,49.276
1275.00,49.295
1276.00,49.295
1277.00,49.297
1278.00,49.315
1279.00,49.305
1280.00,49.313
1281.00,49.322
1282.00,49.316
1283.00,49.308
1284.00,49.300
1285.00,49.286
1286.00,49.314
1287.00,49.301
1288.00,49.312
1289.00,49.313
1290.00,49.330
1291.00,49.336
1292.00,49.332
1293.00,49.320
1294.00,49.367
1295.00,49.374
1296.00,49.359
1297.00,49.368
1298.00,49.382
1299.00,49.367
1300.00,49.387
1301.00,49.384
1302.00,49.388
1303.00,49.411
1304.00,49.383
1305.00,49.415
1306.00,49.403
1307.00,49.411
1308.00,49.426
1309.00,49.418
1310.00,49.429
1311.00,49.429
1312.00,49.428
1313.00,49.421
1314.00,49.440
1315.00,49.437
1316.00,49.430
1317.00,49.457
1318.00,49.441
1319.00,49.457
1320.00,49.479
1321.00,49.659
1322.00,49.658
1323.00,49.640
1324.00,49.632
1325.00,49.616
1326.00,49.657
1327.00,49.629
1328.00,49.634
1329.00,49.631
1330.00,49.621
1331.00,49.642
1332.00,49.653
1333.00,49.612
1334.00,49.688
1335.00,49.687
1336.00,49.712
1337.00,49.752
1338.00,49.810
1339.00,49.859
1340.00,49.904
1341.00,49.955
1342.00,50.049
1343.00,50.054
1344.00,50.107
1345.00,50.195
1346.00,50.233
1347.00,50.236
1348.00,50.270
1349.00,50.303
1350.00,50.318
1351.00,50.335
1352.00,50.321
1353.00,50.475
1354.00,50.345
1355.00,50.279
1356.00,50.343
1357.00,50.333
1358.00,50.355
1359.00,50.370
1360.00,50.390
1361.00,50.293
1362.00,50.333
1363.00,50.464
1364.00,50.406
1365.00,50.356
1366.00,50.391
1367.00,50.336
1368.00,50.307
1369.00,50.387
1370.00,50.348
1371.00,50.260
1372.00,50.310
1373.00,50.306
1374.00,50.321
1375.00,50.304
1376.00,50.308
1377.00,50.253
1378.00,50.434
1379.00,50.341
1380.00,50.359
1381.00,50.369
1382.00,50.229
1383.00,50.320
1384.00,50.307
1385.00,50.300
1386.00,50.325
1387.00,50.318
1388.00,50.254
1389.00,50.320
1390.00,50.340
1391.00,50.291
1392.00,50.337
1393.00,50.299
1394.00,50.252
1395.00,50.212
1396.00,50.239
1397.00,50.341
1398.00,50.342
1399.00,50.244
1400.00,50.229
1401.00,50.263
1402.00,50.305
1403.00,50.299
1404.00,50.288
1405.00,50.334
1406.00,50.322
1407.00,50.342
1408.00,50.364
1409.00,50.301
1410.00,50.355
1411.00,50.355
1412.00,50.391
1413.00,50.322
1414.00,50.331
1415.00,50.348
1416.00,50.436
1417.00,50.423
1418.00,50.403
1419.00,50.396
1420.00,50.425
1421.00,50.466
1422.00,50.464
1423.00,50.447
1424.00,50.489
1425.00,50.486
1426.00,50.504
1427.00,50.518
1428.00,50.529
1429.00,50.538
1430.00,50.584
1431.00,50.602
1432.00,50.578
1433.00,50.609
1434.00,50.583
1435.00,50.634
1436.00,50.654
1437.00,50.643
1438.00,50.657
1439.00,50.687
1440.00,50.688
1441.00,50.699
1442.00,50.702
1443.00,50.744
1444.00,50.762
1445.00,50.731
1446.00,50.767
1447.00,50.822
1448.00,50.816
1449.00,50.835
1450.00,50.832
1451.00,50.835
1452.00,50.856
1453.00,50.866
1454.00,50.877
1455.00,50.906
1456.00,50.910
1457.00,50.925
1458.00,50.936
1459.00,50.947
1460.00,50.972
1461.00,50.983
1462.00,50.989
1463.00,51.008
1464.00,51.023
1465.00,51.038
1466.00,51.040
1467.00,51.056
1468.00,51.094
1469.00,51.104
1470.00,51.091
1471.00,51.139
1472.00,51.142
1473.00,51.135
1474.00,51.178
1475.00,51.167
1476.00,51.187
1477.00,51.188
1478.00,51.196
1479.00,51.221
1480.00,51.230
1481.00,51.219
1482.00,51.269
1483.00,51.269
1484.00,51.268
1485.00,51.298
1486.00,51.286
1487.00,51.301
1488.00,51.325
1489.00,51.315
1490.00,51.329
1491.00,51.349
1492.00,51.358
1493.00,51.371
1494.00,51.378
1495.00,51.380
1496.00,51.386
1497.00,51.390
1498.00,51.394
1499.00,51.433
1500.00,51.436
1501.00, 
1502.00, 
1503.00, 
1504.00, 
1505.00, 
1506.00, 
1507.00, 
1508.00, 
1509.00, 
1510.00, 
1511.00, 
1512.00, 
1513.00, 
1514.00, 
1515.00, 
1516.00, 
1517.00, 
1518.00, 
1519.00, 
1520.00, 
1521.00, 
1522.00, 
1523.00, 
1524.00, 
1525.00, 
1526.00, 
1527.00, 
1528.00, 
1529.00, 
1530.00, 
1531.00, 
1532.00, 
1533.00, 
1534.00, 
1535.00, 
1536.00, 
1537.00, 
1538.00, 
1539.00, 
1540.00, 
1541.00, 
1542.00, 
1543.00, 
1544.00, 
1545.00, 
1546.00, 
1547.00, 
1548.00, 
1549.00, 
1550.00, 
1551.00, 
1552.00, 
1553.00, 
1554.00, 
1555.00, 
1556.00, 
1557.00, 
1558.00, 
1559.00, 
1560.00, 
1561.00, 
1562.00, 
1563.00, 
1564.00, 
1565.00, 
1566.00, 
1567.00, 
1568.00, 
1569.00, 
1570.00, 
1571.00, 
1572.00, 
1573.00, 
1574.00, 
1575.00, 
1576.00, 
1577.00, 
1578.00, 
1579.00, 
1580.00, 
1581.00, 
1582.00, 
1583.00, 
1584.00, 
1585.00, 
1586.00, 
1587.00, 
1588.00, 
1589.00, 
1590.00, 
1591.00, 
1592.00, 
1593.00, 
1594.00, 
1595.00, 
1596.00, 
1597.00, 
1598.00, 
1599.00, 
1600.00, 
1601.00, 
1602.00, 
1603.00, 
1604.00, 
1605.00, 
1606.00, 
1607.00, 
1608.00, 
1609.00, 
1610.00, 
1611.00, 
1612.00, 
1613.00, 
1614.00, 
1615.00, 
1616.00, 
1617.00, 
1618.00, 
1619.00, 
1620.00, 
1621.00, 
1622.00, 
1623.00, 
1624.00, 
1625.00, 
1626.00, 
1627.00, 
1628.00, 
1629.00, 
1630.00, 
1631.00, 
1632.00, 
1633.00, 
1634.00, 
1635.00, 
1636.00, 
1637.00, 
1638.00, 
1639.00, 
1640.00, 
1641.00, 
1642.00, 
1643.00, 
1644.00, 
1645.00, 
1646.00, 
1647.00, 
1648.00, 
1649.00, 
1650.00, 
1651.00, 
1652.00, 
1653.00, 
1654.00, 
1655.00, 
1656.00, 
1657.00, 
1658.00, 
1659.00, 
1660.00, 
1661.00, 
1662.00, 
1663.00, 
1664.00, 
1665.00, 
1666.00, 
1667.00, 
1668.00, 
1669.00, 
1670.00, 
1671.00, 
1672.00, 
1673.00, 
1674.00, 
1675.00, 
1676.00, 
1677.00, 
1678.00, 
1679.00, 
1680.00, 
1681.00, 
1682.00, 
1683.00, 
1684.00, 
1685.00, 
1686.00, 
1687.00, 
1688.00, 
1689.00, 
1690.00, 
1691.00, 
1692.00, 
1693.00, 
1694.00, 
1695.00, 
1696.00, 
1697.00, 
1698.00, 
1699.00, 
1700.00, 
1701.00, 
1702.00, 
1703.00, 
1704.00, 
1705.00, 
1706.00, 
1707.00, 
1708.00, 
1709.00, 
1710.00, 
1711.00, 
1712.00, 
1713.00, 
1714.00, 
1715.00, 
1716.00, 
1717.00, 
1718.00, 
1719.00, 
1720.00, 
1721.00, 
1722.00, 
1723.00, 
1724.00, 
1725.00, 
1726.00, 
1727.00, 
1728.00, 
1729.00, 
1730.00, 
1731.00, 
1732.00, 
1733.00, 
1734.00, 
1735.00, 
1736.00, 
1737.00, 
1738.00, 
1739.00, 
1740.00, 
1741.00, 
1742.00, 
1743.00, 
1744.00, 
1745.00, 
1746.00, 
1747.00, 
1748.00, 
1749.00, 
1750.00, 
1751.00, 
1752.00, 
1753.00, 
1754.00, 
1755.00, 
1756.00, 
1757.00, 
1758.00, 
1759.00, 
1760.00, 
1761.00, 
1762.00, 
1763.00, 
1764.00, 
1765.00, 
1766.00, 
1767.00, 
1768.00, 
1769.00, 
1770.00, 
1771.00, 
1772.00, 
1773.00, 
1774.00, 
1775.00, 
1776.00, 
1777.00, 
1778.00, 
1779.00, 
1780.00, 
1781.00, 
1782.00, 
1783.00, 
1784.00, 
1785.00, 
1786.00, 
1787.00, 
1788.00, 
1789.00, 
1790.00, 
1791.00, 
1792.00, 
1793.00, 
1794.00, 
1795.00, 
1796.00, 
1797.00, 
1798.00, 
1799.00, 
1800.00, 
1801.00, 
1802.00, 
1803.00, 
1804.00, 
1805.00, 
1806.00, 
1807.00, 
1808.00, 
1809.00, 
1810.00, 
1811.00, 
1812.00, 
1813.00, 
1814.00, 
1815.00, 
1816.00, 
1817.00, 
1818.00, 
1819.00, 
1820.00, 
1821.00, 
1822.00, 
1823.00, 
1824.00, 
1825.00, 
1826.00, 
1827.00, 
1828.00, 
1829.00, 
1830.00, 
1831.00, 
1832.00, 
1833.00, 
1834.00, 
1835.00, 
1836.00, 
1837.00, 
1838.00, 
1839.00, 
1840.00, 
1841.00, 
1842.00, 
1843.00, 
1844.00, 
1845.00, 
1846.00, 
1847.00, 
1848.00, 
1849.00, 
1850.00, 
1851.00, 
1852.00, 
1853.00, 
1854.00, 
1855.00, 
1856.00, 
1857.00, 
1858.00, 
1859.00, 
1860.00, 
1861.00, 
1862.00, 
1863.00, 
1864.00, 
1865.00, 
1866.00, 
1867.00, 
1868.00, 
1869.00, 
1870.00, 
1871.00, 
1872.00, 
1873.00, 
1874.00, 
1875.00, 
1876.00, 
1877.00, 
1878.00, 
1879.00, 
1880.00, 
1881.00, 
1882.00, 
1883.00, 
1884.00, 
1885.00, 
1886.00, 
1887.00, 
1888.00, 
1889.00, 
1890.00, 
1891.00, 
1892.00, 
1893.00, 
1894.00, 
1895.00, 
1896.00, 
1897.00, 
1898.00, 
1899.00, 
1900.00, 
1901.00, 
1902.00, 
1903.00, 
1904.00, 
1905.00, 
1906.00, 
1907.00, 
1908.00, 
1909.00, 
1910.00, 
1911.00, 
1912.00, 
1913.00, 
1914.00, 
1915.00, 
1916.00, 
1917.00, 
1918.00, 
1919.00, 
1920.00, 
1921.00, 
1922.00, 
1923.00, 
1924.00, 
1925.00, 
1926.00, 
1927.00, 
1928.00, 
1929.00, 
1930.00, 
1931.00, 
1932.00, 
1933.00, 
1934.00, 
1935.00, 
1936.00, 
1937.00, 
1938.00, 
1939.00, 
1940.00, 
1941.00, 
1942.00, 
1943.00, 
1944.00, 
1945.00, 
1946.00, 
1947.00, 
1948.00, 
1949.00, 
1950.00, 
1951.00, 
1952.00, 
1953.00, 
1954.00, 
1955.00, 
1956.00, 
1957.00, 
1958.00, 
1959.00, 
1960.00, 
1961.00, 
1962.00, 
1963.00, 
1964.00, 
1965.00, 
1966.00, 
1967.00, 
1968.00, 
1969.00, 
1970.00, 
1971.00, 
1972.00, 
1973.00, 
1974.00, 
1975.00, 
1976.00, 
1977.00, 
1978.00, 
1979.00, 
1980.00, 
1981.00, 
1982.00, 
1983.00, 
1984.00, 
1985.00, 
1986.00, 
1987.00, 
1988.00, 
1989.00, 
1990.00, 
1991.00, 
1992.00, 
1993.00, 
1994.00, 
1995.00, 
1996.00, 
1997.00, 
1998.00, 
1999.00, 
2000.00, 
2001.00, 
2002.00, 
2003.00, 
2004.00, 
2005.00, 
2006.00, 
2007.00, 
2008.00, 
2009.00, 
2010.00, 
2011.00, 
2012.00, 
2013.00, 
2014.00, 
2015.00, 
2016.00, 
2017.00, 
2018.00, 
2019.00, 
2020.00, 
2021.00, 
2022.00, 
2023.00, 
2024.00, 
2025.00, 
2026.00, 
2027.00, 
2028.00, 
2029.00, 
2030.00, 
2031.00, 
2032.00, 
2033.00, 
2034.00, 
2035.00, 
2036.00, 
2037.00, 
2038.00, 
2039.00, 
2040.00, 
2041.00, 
2042.00, 
2043.00, 
2044.00, 
2045.00, 
2046.00, 
2047.00, 
2048.00, 
2049.00, 
2050.00, 
2051.00, 
2052.00, 
2053.00, 
2054.00, 
2055.00, 
2056.00, 
2057.00, 
2058.00, 
2059.00, 
2060.00, 
2061.00, 
2062.00, 
2063.00, 
2064.00, 
2065.00, 
2066.00, 
2067.00, 
2068.00, 
2069.00, 
2070.00, 
2071.00, 
2072.00, 
2073.00, 
2074.00, 
2075.00, 
2076.00, 
2077.00, 
2078.00, 
2079.00, 
2080.00, 
2081.00, 
2082.00, 
2083.00, 
2084.00, 
2085.00, 
2086.00, 
2087.00, 
2088.00, 
2089.00, 
2090.00, 
2091.00, 
2092.00, 
2093.00, 
2094.00, 
2095.00, 
2096.00, 
2097.00, 
2098.00, 
2099.00, 
2100.00, 
2101.00, 
2102.00, 
2103.00, 
2104.00, 
2105.00, 
2106.00, 
2107.00, 
2108.00, 
2109.00, 
2110.00, 
2111.00, 
2112.00, 
2113.00, 
2114.00, 
2115.00, 
2116.00, 
2117.00, 
2118.00, 
2119.00, 
2120.00, 
2121.00, 
2122.00, 
2123.00, 
2124.00, 
2125.00, 
2126.00, 
2127.00, 
2128.00, 
2129.00, 
2130.00, 
2131.00, 
2132.00, 
2133.00, 
2134.00, 
2135.00, 
2136.00, 
2137.00, 
2138.00, 
2139.00, 
2140.00, 
2141.00, 
2142.00, 
2143.00, 
2144.00, 
2145.00, 
2146.00, 
2147.00, 
2148.00, 
2149.00, 
2150.00, 
2151.00, 
2152.00, 
2153.00, 
2154.00, 
2155.00, 
2156.00, 
2157.00, 
2158.00, 
2159.00, 
2160.00, 
2161.00, 
2162.00, 
2163.00, 
2164.00, 
2165.00, 
2166.00, 
2167.00, 
2168.00, 
2169.00, 
2170.00, 
2171.00, 
2172.00, 
2173.00, 
2174.00, 
2175.00, 
2176.00, 
2177.00, 
2178.00, 
2179.00, 
2180.00, 
2181.00, 
2182.00, 
2183.00, 
2184.00, 
2185.00, 
2186.00, 
2187.00, 
2188.00, 
2189.00, 
2190.00, 
2191.00, 
2192.00, 
2193.00, 
2194.00, 
2195.00, 
2196.00, 
2197.00, 
2198.00, 
2199.00, 
2200.00, 
2201.00, 
2202.00, 
2203.00, 
2204.00, 
2205.00, 
2206.00, 
2207.00, 
2208.00, 
2209.00, 
2210.00, 
2211.00, 
2212.00, 
2213.00, 
2214.00, 
2215.00, 
2216.00, 
2217.00, 
2218.00, 
2219.00, 
2220.00, 
2221.00, 
2222.00, 
2223.00, 
2224.00, 
2225.00, 
2226.00, 
2227.00, 
2228.00, 
2229.00, 
2230.00, 
2231.00, 
2232.00, 
2233.00, 
2234.00, 
2235.00, 
2236.00, 
2237.00, 
2238.00, 
2239.00, 
2240.00, 
2241.00, 
2242.00, 
2243.00, 
2244.00, 
2245.00, 
2246.00, 
2247.00, 
2248.00, 
2249.00, 
2250.00, 
2251.00, 
2252.00, 
2253.00, 
2254.00, 
2255.00, 
2256.00, 
2257.00, 
2258.00, 
2259.00, 
2260.00, 
2261.00, 
2262.00, 
2263.00, 
2264.00, 
2265.00, 
2266.00, 
2267.00, 
2268.00, 
2269.00, 
2270.00, 
2271.00, 
2272.00, 
2273.00, 
2274.00, 
2275.00, 
2276.00, 
2277.00, 
2278.00, 
2279.00, 
2280.00, 
2281.00, 
2282.00, 
2283.00, 
2284.00, 
2285.00, 
2286.00, 
2287.00, 
2288.00, 
2289.00, 
2290.00, 
2291.00, 
2292.00, 
2293.00, 
2294.00, 
2295.00, 
2296.00, 
2297.00, 
2298.00, 
2299.00, 
2300.00, 
2301.00, 
2302.00, 
2303.00, 
2304.00, 
2305.00, 
2306.00, 
2307.00, 
2308.00, 
2309.00, 
2310.00, 
2311.00, 
2312.00, 
2313.00, 
2314.00, 
2315.00, 
2316.00, 
2317.00, 
2318.00, 
2319.00, 
2320.00, 
2321.00, 
2322.00, 
2323.00, 
2324.00, 
2325.00, 
2326.00, 
2327.00, 
2328.00, 
2329.00, 
2330.00, 
2331.00, 
2332.00, 
2333.00, 
2334.00, 
2335.00, 
2336.00, 
2337.00, 
2338.00, 
2339.00, 
2340.00, 
2341.00, 
2342.00, 
2343.00, 
2344.00, 
2345.00, 
2346.00, 
2347.00, 
2348.00, 
2349.00, 
2350.00, 
2351.00, 
2352.00, 
2353.00, 
2354.00, 
2355.00, 
2356.00, 
2357.00, 
2358.00, 
2359.00, 
2360.00, 
2361.00, 
2362.00, 
2363.00, 
2364.00, 
2365.00, 
2366.00, 
2367.00, 
2368.00, 
2369.00, 
2370.00, 
2371.00, 
2372.00, 
2373.00, 
2374.00, 
2375.00, 
2376.00, 
2377.00, 
2378.00, 
2379.00, 
2380.00, 
2381.00, 
2382.00, 
2383.00, 
2384.00, 
2385.00, 
2386.00, 
2387.00, 
2388.00, 
2389.00, 
2390.00, 
2391.00, 
2392.00, 
2393.00, 
2394.00, 
2395.00, 
2396.00, 
2397.00, 
2398.00, 
2399.00, 
2400.00, 
2401.00, 
2402.00, 
2403.00, 
2404.00, 
2405.00, 
2406.00, 
2407.00, 
2408.00, 
2409.00, 
2410.00, 
2411.00, 
2412.00, 
2413.00, 
2414.00, 
2415.00, 
2416.00, 
2417.00, 
2418.00, 
2419.00, 
2420.00, 
2421.00, 
2422.00, 
2423.00, 
2424.00, 
2425.00, 
2426.00, 
2427.00, 
2428.00, 
2429.00, 
2430.00, 
2431.00, 
2432.00, 
2433.00, 
2434.00, 
2435.00, 
2436.00, 
2437.00, 
2438.00, 
2439.00, 
2440.00, 
2441.00, 
2442.00, 
2443.00, 
2444.00, 
2445.00, 
2446.00, 
2447.00, 
2448.00, 
2449.00, 
2450.00, 
2451.00, 
2452.00, 
2453.00, 
2454.00, 
2455.00, 
2456.00, 
2457.00, 
2458.00, 
2459.00, 
2460.00, 
2461.00, 
2462.00, 
2463.00, 
2464.00, 
2465.00, 
2466.00, 
2467.00, 
2468.00, 
2469.00, 
2470.00, 
2471.00, 
2472.00, 
2473.00, 
2474.00, 
2475.00, 
2476.00, 
2477.00, 
2478.00, 
2479.00, 
2480.00, 
2481.00, 
2482.00, 
2483.00, 
2484.00, 
2485.00, 
2486.00, 
2487.00, 
2488.00, 
2489.00, 
2490.00, 
2491.00, 
2492.00, 
2493.00, 
2494.00, 
2495.00, 
2496.00, 
2497.00, 
2498.00, 
2499.00, 
2500.00, 
2501.00, 
2502.00, 
2503.00, 
2504.00, 
2505.00, 
2506.00, 
2507.00, 
2508.00, 
2509.00, 
2510.00, 
2511.00, 
2512.00, 
2513.00, 
2514.00, 
2515.00, 
2516.00, 
2517.00, 
2518.00, 
2519.00, 
2520.00, 
2521.00, 
2522.00, 
2523.00, 
2524.00, 
2525.00, 
2526.00, 
2527.00, 
2528.00, 
2529.00, 
2530.00, 
2531.00, 
2532.00, 
2533.00, 
2534.00, 
2535.00, 
2536.00, 
2537.00, 
2538.00, 
2539.00, 
2540.00, 
2541.00, 
2542.00, 
2543.00, 
2544.00, 
2545.00, 
2546.00, 
2547.00, 
2548.00, 
2549.00, 
2550.00, 
2551.00, 
2552.00, 
2553.00, 
2554.00, 
2555.00, 
2556.00, 
2557.00, 
2558.00, 
2559.00, 
2560.00, 
2561.00, 
2562.00, 
2563.00, 
2564.00, 
2565.00, 
2566.00, 
2567.00, 
2568.00, 
2569.00, 
2570.00, 
2571.00, 
2572.00, 
2573.00, 
2574.00, 
2575.00, 
2576.00, 
2577.00, 
2578.00, 
2579.00, 
2580.00, 
2581.00, 
2582.00, 
2583.00, 
2584.00, 
2585.00, 
2586.00, 
2587.00, 
2588.00, 
2589.00, 
2590.00, 
2591.00, 
2592.00, 
2593.00, 
2594.00, 
2595.00, 
2596.00, 
2597.00, 
2598.00, 
2599.00, 
2600.00, 
