"2cP4 - RawData"
"Wavelength nm.","T%"
200.00,0.002
201.00,0.004
202.00,0.001
203.00,0.002
204.00,-0.002
205.00,0.004
206.00,-0.001
207.00,0.004
208.00,0.002
209.00,0.000
210.00,0.002
211.00,0.001
212.00,0.004
213.00,0.000
214.00,0.000
215.00,0.003
216.00,0.002
217.00,0.002
218.00,0.000
219.00,-0.002
220.00,0.000
221.00,0.002
222.00,-0.002
223.00,0.002
224.00,0.003
225.00,0.001
226.00,0.001
227.00,0.000
228.00,0.001
229.00,0.002
230.00,0.001
231.00,0.002
232.00,-0.000
233.00,0.001
234.00,0.001
235.00,0.001
236.00,0.001
237.00,0.000
238.00,-0.002
239.00,0.002
240.00,0.002
241.00,0.002
242.00,-0.001
243.00,0.001
244.00,0.001
245.00,-0.000
246.00,0.003
247.00,0.001
248.00,0.000
249.00,-0.000
250.00,0.002
251.00,0.000
252.00,0.002
253.00,-0.001
254.00,-0.002
255.00,-0.001
256.00,-0.000
257.00,-0.000
258.00,-0.002
259.00,0.001
260.00,-0.000
261.00,0.001
262.00,0.001
263.00,0.000
264.00,-0.002
265.00,-0.000
266.00,-0.001
267.00,0.001
268.00,0.001
269.00,-0.002
270.00,-0.002
271.00,0.000
272.00,-0.001
273.00,0.000
274.00,0.000
275.00,0.001
276.00,-0.000
277.00,0.001
278.00,0.000
279.00,-0.001
280.00,-0.000
281.00,0.001
282.00,0.001
283.00,0.001
284.00,0.000
285.00,0.001
286.00,0.001
287.00,-0.001
288.00,0.001
289.00,-0.000
290.00,0.000
291.00,-0.001
292.00,0.002
293.00,-0.001
294.00,0.001
295.00,0.000
296.00,0.000
297.00,-0.000
298.00,0.000
299.00,0.002
300.00,0.002
301.00,0.003
302.00,0.003
303.00,0.006
304.00,0.011
305.00,0.018
306.00,0.027
307.00,0.038
308.00,0.058
309.00,0.095
310.00,0.129
311.00,0.180
312.00,0.242
313.00,0.324
314.00,0.428
315.00,0.557
316.00,0.717
317.00,0.907
318.00,1.111
319.00,1.371
320.00,1.666
321.00,1.989
322.00,2.358
323.00,2.770
324.00,3.193
325.00,3.655
326.00,4.130
327.00,4.649
328.00,5.214
329.00,5.757
330.00,6.348
331.00,6.898
332.00,7.496
333.00,8.125
334.00,8.724
335.00,9.353
336.00,9.949
337.00,10.582
338.00,11.105
339.00,11.723
340.00,12.273
341.00,12.799
342.00,13.315
343.00,13.868
344.00,14.374
345.00,14.817
346.00,15.163
347.00,15.626
348.00,16.000
349.00,16.382
350.00,16.689
351.00,17.027
352.00,17.335
353.00,17.590
354.00,17.865
355.00,18.111
356.00,18.385
357.00,18.614
358.00,18.771
359.00,18.911
360.00,19.115
361.00,19.263
362.00,19.359
363.00,19.531
364.00,19.681
365.00,19.791
366.00,19.896
367.00,19.938
368.00,19.955
369.00,20.019
370.00,20.062
371.00,20.095
372.00,20.102
373.00,20.094
374.00,20.099
375.00,20.058
376.00,20.032
377.00,19.989
378.00,19.939
379.00,19.892
380.00,19.870
381.00,19.866
382.00,19.839
383.00,19.822
384.00,19.867
385.00,19.906
386.00,19.898
387.00,19.927
388.00,19.985
389.00,19.968
390.00,20.001
391.00,20.041
392.00,20.025
393.00,20.064
394.00,20.059
395.00,20.049
396.00,20.074
397.00,20.071
398.00,20.073
399.00,20.099
400.00,20.093
401.00,20.114
402.00,20.116
403.00,20.094
404.00,20.066
405.00,20.082
406.00,20.049
407.00,20.054
408.00,20.046
409.00,20.012
410.00,19.969
411.00,19.955
412.00,19.934
413.00,19.953
414.00,19.961
415.00,19.986
416.00,20.030
417.00,20.029
418.00,20.088
419.00,20.117
420.00,20.118
421.00,20.195
422.00,20.220
423.00,20.257
424.00,20.294
425.00,20.318
426.00,20.364
427.00,20.405
428.00,20.448
429.00,20.522
430.00,20.560
431.00,20.591
432.00,20.634
433.00,20.731
434.00,20.779
435.00,20.856
436.00,20.921
437.00,20.982
438.00,21.093
439.00,21.191
440.00,21.181
441.00,21.255
442.00,21.318
443.00,21.438
444.00,21.535
445.00,21.591
446.00,21.708
447.00,21.848
448.00,21.909
449.00,22.028
450.00,22.155
451.00,22.226
452.00,22.366
453.00,22.457
454.00,22.573
455.00,22.697
456.00,22.854
457.00,22.920
458.00,23.047
459.00,23.178
460.00,23.267
461.00,23.415
462.00,23.561
463.00,23.669
464.00,23.812
465.00,23.980
466.00,24.099
467.00,24.191
468.00,24.308
469.00,24.448
470.00,24.543
471.00,24.702
472.00,24.803
473.00,24.897
474.00,25.009
475.00,25.115
476.00,25.237
477.00,25.353
478.00,25.498
479.00,25.664
480.00,25.800
481.00,25.958
482.00,26.096
483.00,26.230
484.00,26.393
485.00,26.566
486.00,26.687
487.00,26.866
488.00,27.002
489.00,27.179
490.00,27.324
491.00,27.476
492.00,27.687
493.00,27.781
494.00,27.834
495.00,27.959
496.00,28.071
497.00,28.227
498.00,28.384
499.00,28.486
500.00,28.672
501.00,28.813
502.00,28.897
503.00,29.045
504.00,29.112
505.00,29.198
506.00,29.435
507.00,29.501
508.00,29.669
509.00,29.753
510.00,29.880
511.00,30.020
512.00,30.163
513.00,30.275
514.00,30.432
515.00,30.536
516.00,30.655
517.00,30.809
518.00,30.936
519.00,31.002
520.00,31.094
521.00,31.160
522.00,31.262
523.00,31.362
524.00,31.430
525.00,31.542
526.00,31.659
527.00,31.778
528.00,31.851
529.00,31.951
530.00,32.042
531.00,32.224
532.00,32.273
533.00,32.368
534.00,32.457
535.00,32.564
536.00,32.647
537.00,32.681
538.00,32.802
539.00,32.864
540.00,32.936
541.00,32.966
542.00,33.087
543.00,33.155
544.00,33.245
545.00,33.254
546.00,33.353
547.00,33.466
548.00,33.518
549.00,33.619
550.00,33.677
551.00,33.728
552.00,33.847
553.00,33.912
554.00,34.034
555.00,34.079
556.00,34.121
557.00,34.226
558.00,34.205
559.00,34.281
560.00,34.278
561.00,34.428
562.00,34.518
563.00,34.471
564.00,34.615
565.00,34.588
566.00,34.563
567.00,34.692
568.00,34.720
569.00,34.759
570.00,34.742
571.00,34.872
572.00,34.898
573.00,34.913
574.00,34.996
575.00,35.032
576.00,35.012
577.00,35.079
578.00,35.159
579.00,35.229
580.00,35.243
581.00,35.325
582.00,35.363
583.00,35.517
584.00,35.579
585.00,35.614
586.00,35.682
587.00,35.757
588.00,35.764
589.00,35.842
590.00,35.897
591.00,35.882
592.00,35.921
593.00,35.967
594.00,36.024
595.00,36.063
596.00,36.157
597.00,36.131
598.00,36.316
599.00,36.351
600.00,36.368
601.00,36.422
602.00,36.494
603.00,36.541
604.00,36.565
605.00,36.651
606.00,36.727
607.00,36.746
608.00,36.881
609.00,36.873
610.00,36.851
611.00,36.922
612.00,36.991
613.00,37.042
614.00,37.072
615.00,37.129
616.00,37.224
617.00,37.275
618.00,37.304
619.00,37.369
620.00,37.411
621.00,37.427
622.00,37.450
623.00,37.520
624.00,37.605
625.00,37.767
626.00,37.812
627.00,37.833
628.00,37.939
629.00,37.988
630.00,38.009
631.00,38.076
632.00,38.190
633.00,38.173
634.00,38.346
635.00,38.501
636.00,38.543
637.00,38.535
638.00,38.679
639.00,38.833
640.00,38.852
641.00,38.925
642.00,38.985
643.00,39.080
644.00,39.172
645.00,39.301
646.00,39.409
647.00,39.416
648.00,39.567
649.00,39.697
650.00,39.703
651.00,39.765
652.00,39.851
653.00,40.002
654.00,40.115
655.00,40.206
656.00,40.313
657.00,40.397
658.00,40.449
659.00,40.644
660.00,40.780
661.00,40.790
662.00,40.898
663.00,40.949
664.00,41.131
665.00,41.217
666.00,41.241
667.00,41.434
668.00,41.548
669.00,41.658
670.00,41.715
671.00,41.780
672.00,41.968
673.00,42.006
674.00,42.180
675.00,42.221
676.00,42.331
677.00,42.477
678.00,42.393
679.00,42.524
680.00,42.555
681.00,42.762
682.00,42.693
683.00,42.872
684.00,43.255
685.00,43.250
686.00,43.255
687.00,43.346
688.00,43.492
689.00,43.606
690.00,43.660
691.00,43.878
692.00,43.831
693.00,43.951
694.00,43.981
695.00,44.072
696.00,44.317
697.00,44.375
698.00,44.501
699.00,44.763
700.00,44.807
701.00,44.838
702.00,44.974
703.00,45.054
704.00,45.089
705.00,45.250
706.00,45.415
707.00,45.492
708.00,45.334
709.00,45.580
710.00,45.827
711.00,45.594
712.00,45.745
713.00,45.752
714.00,45.778
715.00,45.861
716.00,46.123
717.00,46.113
718.00,46.198
719.00,46.386
720.00,46.386
721.00,50.666
722.00,50.745
723.00,50.694
724.00,50.710
725.00,50.764
726.00,50.884
727.00,50.786
728.00,50.793
729.00,50.925
730.00,50.996
731.00,51.078
732.00,51.097
733.00,51.090
734.00,51.164
735.00,51.159
736.00,51.211
737.00,51.273
738.00,51.277
739.00,51.368
740.00,51.335
741.00,51.437
742.00,51.480
743.00,51.454
744.00,51.510
745.00,51.482
746.00,51.543
747.00,51.582
748.00,51.619
749.00,51.627
750.00,51.596
751.00,51.603
752.00,51.596
753.00,51.614
754.00,51.570
755.00,51.629
756.00,51.689
757.00,51.702
758.00,51.695
759.00,51.768
760.00,51.762
761.00,51.825
762.00,51.770
763.00,51.881
764.00,51.894
765.00,51.819
766.00,51.870
767.00,51.904
768.00,51.984
769.00,51.971
770.00,52.047
771.00,52.058
772.00,52.090
773.00,52.001
774.00,52.056
775.00,52.069
776.00,52.087
777.00,52.103
778.00,52.107
779.00,52.113
780.00,52.118
781.00,52.140
782.00,52.152
783.00,52.105
784.00,52.135
785.00,52.126
786.00,52.117
787.00,52.188
788.00,52.076
789.00,52.170
790.00,52.179
791.00,52.175
792.00,52.131
793.00,52.092
794.00,52.091
795.00,52.074
796.00,52.109
797.00,52.047
798.00,52.105
799.00,52.125
800.00,52.096
801.00,51.998
802.00,52.047
803.00,52.066
804.00,52.040
805.00,52.040
806.00,52.030
807.00,51.984
808.00,51.997
809.00,52.009
810.00,51.979
811.00,51.980
812.00,51.993
813.00,51.921
814.00,51.912
815.00,51.949
816.00,51.968
817.00,51.855
818.00,51.816
819.00,51.874
820.00,51.850
821.00,51.857
822.00,51.843
823.00,51.792
824.00,51.857
825.00,51.730
826.00,51.813
827.00,51.844
828.00,51.820
829.00,51.764
830.00,51.776
831.00,53.953
832.00,53.934
833.00,53.875
834.00,53.914
835.00,53.906
836.00,53.866
837.00,53.866
838.00,53.832
839.00,53.840
840.00,53.816
841.00,53.818
842.00,53.792
843.00,53.753
844.00,53.813
845.00,53.729
846.00,53.728
847.00,53.754
848.00,53.705
849.00,53.661
850.00,53.630
851.00,53.559
852.00,53.559
853.00,53.546
854.00,53.501
855.00,53.422
856.00,53.479
857.00,53.447
858.00,53.416
859.00,53.367
860.00,53.395
861.00,53.416
862.00,53.321
863.00,53.365
864.00,53.303
865.00,53.300
866.00,53.292
867.00,53.329
868.00,53.317
869.00,53.263
870.00,53.363
871.00,53.375
872.00,53.262
873.00,53.241
874.00,53.268
875.00,53.216
876.00,53.244
877.00,53.227
878.00,53.202
879.00,53.179
880.00,53.167
881.00,53.130
882.00,53.173
883.00,53.110
884.00,53.067
885.00,53.072
886.00,53.060
887.00,53.037
888.00,53.012
889.00,52.992
890.00,52.991
891.00,52.949
892.00,52.944
893.00,52.913
894.00,52.925
895.00,52.887
896.00,52.864
897.00,52.815
898.00,52.814
899.00,52.801
900.00,52.823
901.00,52.805
902.00,52.824
903.00,52.779
904.00,52.777
905.00,52.761
906.00,52.711
907.00,52.699
908.00,52.687
909.00,52.688
910.00,52.646
911.00,52.643
912.00,52.654
913.00,52.635
914.00,52.460
915.00,52.558
916.00,52.519
917.00,52.518
918.00,52.494
919.00,52.467
920.00,52.443
921.00,52.434
922.00,52.423
923.00,52.414
924.00,52.383
925.00,52.369
926.00,52.375
927.00,52.353
928.00,52.323
929.00,52.326
930.00,52.286
931.00,52.294
932.00,52.247
933.00,52.255
934.00,52.233
935.00,52.200
936.00,52.189
937.00,52.148
938.00,52.131
939.00,52.150
940.00,52.105
941.00,52.097
942.00,52.053
943.00,52.071
944.00,52.048
945.00,52.050
946.00,52.030
947.00,51.986
948.00,51.983
949.00,51.942
950.00,51.942
951.00,51.915
952.00,51.889
953.00,51.846
954.00,51.832
955.00,51.803
956.00,51.792
957.00,51.742
958.00,51.772
959.00,51.701
960.00,51.690
961.00,51.684
962.00,51.697
963.00,51.641
964.00,51.651
965.00,51.632
966.00,51.622
967.00,51.621
968.00,51.576
969.00,51.624
970.00,51.587
971.00,51.592
972.00,51.574
973.00,51.607
974.00,51.609
975.00,51.604
976.00,51.629
977.00,51.598
978.00,51.630
979.00,51.574
980.00,51.603
981.00,51.605
982.00,51.562
983.00,51.587
984.00,51.580
985.00,51.591
986.00,51.554
987.00,51.563
988.00,51.537
989.00,51.515
990.00,51.507
991.00,51.500
992.00,51.518
993.00,51.469
994.00,51.460
995.00,51.467
996.00,51.450
997.00,51.453
998.00,51.420
999.00,51.454
1000.00,51.399
1001.00,51.389
1002.00,51.446
1003.00,51.369
1004.00,51.360
1005.00,51.345
1006.00,51.375
1007.00,51.328
1008.00,51.319
1009.00,51.297
1010.00,51.281
1011.00,51.266
1012.00,51.228
1013.00,51.252
1014.00,51.209
1015.00,51.225
1016.00,51.187
1017.00,51.176
1018.00,51.168
1019.00,51.149
1020.00,51.135
1021.00,51.106
1022.00,51.104
1023.00,51.055
1024.00,51.065
1025.00,51.021
1026.00,51.036
1027.00,51.017
1028.00,51.015
1029.00,50.994
1030.00,50.970
1031.00,50.979
1032.00,50.932
1033.00,50.935
1034.00,50.902
1035.00,50.888
1036.00,50.850
1037.00,50.828
1038.00,50.822
1039.00,50.777
1040.00,50.777
1041.00,50.741
1042.00,50.733
1043.00,50.708
1044.00,50.747
1045.00,50.723
1046.00,50.730
1047.00,50.741
1048.00,50.740
1049.00,50.780
1050.00,50.771
1051.00,50.793
1052.00,50.798
1053.00,50.808
1054.00,50.809
1055.00,50.832
1056.00,50.828
1057.00,50.830
1058.00,50.811
1059.00,50.806
1060.00,50.816
1061.00,50.813
1062.00,50.799
1063.00,50.831
1064.00,50.783
1065.00,50.769
1066.00,50.773
1067.00,50.754
1068.00,50.782
1069.00,50.729
1070.00,50.714
1071.00,50.699
1072.00,50.714
1073.00,50.679
1074.00,50.692
1075.00,50.674
1076.00,50.660
1077.00,50.649
1078.00,50.627
1079.00,50.639
1080.00,50.630
1081.00,50.605
1082.00,50.630
1083.00,50.610
1084.00,50.593
1085.00,50.596
1086.00,50.582
1087.00,50.569
1088.00,50.553
1089.00,50.541
1090.00,50.542
1091.00,50.536
1092.00,50.518
1093.00,50.516
1094.00,50.500
1095.00,50.490
1096.00,50.488
1097.00,50.472
1098.00,50.471
1099.00,50.470
1100.00,50.451
1101.00,50.450
1102.00,50.438
1103.00,50.424
1104.00,50.430
1105.00,50.416
1106.00,50.395
1107.00,50.398
1108.00,50.381
1109.00,50.371
1110.00,50.381
1111.00,50.357
1112.00,50.360
1113.00,50.339
1114.00,50.326
1115.00,50.346
1116.00,50.316
1117.00,50.288
1118.00,50.291
1119.00,50.282
1120.00,50.278
1121.00,50.274
1122.00,50.259
1123.00,50.253
1124.00,50.255
1125.00,50.219
1126.00,50.239
1127.00,50.232
1128.00,50.209
1129.00,50.212
1130.00,50.176
1131.00,50.184
1132.00,50.179
1133.00,50.168
1134.00,50.176
1135.00,50.145
1136.00,50.156
1137.00,50.158
1138.00,50.168
1139.00,50.178
1140.00,50.171
1141.00,50.142
1142.00,50.144
1143.00,50.166
1144.00,50.114
1145.00,50.133
1146.00,50.118
1147.00,50.099
1148.00,50.114
1149.00,50.119
1150.00,50.106
1151.00,50.114
1152.00,50.095
1153.00,50.097
1154.00,50.093
1155.00,50.094
1156.00,50.081
1157.00,50.087
1158.00,50.068
1159.00,50.076
1160.00,50.058
1161.00,50.064
1162.00,50.061
1163.00,50.060
1164.00,50.060
1165.00,50.055
1166.00,50.057
1167.00,50.058
1168.00,50.054
1169.00,50.045
1170.00,50.059
1171.00,50.022
1172.00,50.025
1173.00,50.028
1174.00,50.023
1175.00,50.019
1176.00,50.028
1177.00,49.998
1178.00,50.019
1179.00,50.033
1180.00,50.017
1181.00,50.031
1182.00,50.015
1183.00,49.999
1184.00,49.989
1185.00,50.020
1186.00,49.997
1187.00,50.001
1188.00,49.978
1189.00,49.990
1190.00,49.994
1191.00,49.971
1192.00,49.998
1193.00,49.982
1194.00,49.982
1195.00,49.963
1196.00,49.985
1197.00,49.982
1198.00,49.983
1199.00,49.979
1200.00,49.994
1201.00,50.010
1202.00,49.954
1203.00,49.982
1204.00,49.963
1205.00,49.964
1206.00,49.976
1207.00,49.970
1208.00,49.955
1209.00,49.950
1210.00,49.953
1211.00,49.961
1212.00,49.966
1213.00,49.930
1214.00,49.968
1215.00,49.948
1216.00,49.938
1217.00,49.965
1218.00,49.951
1219.00,49.960
1220.00,49.946
1221.00,49.948
1222.00,49.947
1223.00,49.966
1224.00,49.949
1225.00,49.943
1226.00,49.945
1227.00,49.927
1228.00,49.969
1229.00,49.958
1230.00,49.984
1231.00,50.002
1232.00,49.995
1233.00,50.002
1234.00,50.006
1235.00,49.986
1236.00,50.005
1237.00,49.980
1238.00,49.988
1239.00,49.997
1240.00,49.976
1241.00,49.993
1242.00,49.998
1243.00,49.997
1244.00,49.994
1245.00,50.013
1246.00,50.010
1247.00,50.018
1248.00,50.012
1249.00,50.009
1250.00,50.020
1251.00,50.004
1252.00,50.020
1253.00,50.018
1254.00,50.026
1255.00,50.030
1256.00,49.994
1257.00,49.986
1258.00,50.042
1259.00,50.030
1260.00,50.057
1261.00,50.062
1262.00,50.060
1263.00,50.034
1264.00,50.046
1265.00,50.051
1266.00,50.048
1267.00,50.060
1268.00,50.070
1269.00,50.082
1270.00,50.093
1271.00,50.083
1272.00,50.098
1273.00,50.083
1274.00,50.075
1275.00,50.078
1276.00,50.075
1277.00,50.084
1278.00,50.083
1279.00,50.095
1280.00,50.094
1281.00,50.105
1282.00,50.107
1283.00,50.099
1284.00,50.111
1285.00,50.096
1286.00,50.118
1287.00,50.101
1288.00,50.130
1289.00,50.113
1290.00,50.141
1291.00,50.142
1292.00,50.140
1293.00,50.124
1294.00,50.151
1295.00,50.166
1296.00,50.153
1297.00,50.177
1298.00,50.174
1299.00,50.174
1300.00,50.195
1301.00,50.163
1302.00,50.195
1303.00,50.206
1304.00,50.181
1305.00,50.218
1306.00,50.194
1307.00,50.207
1308.00,50.220
1309.00,50.223
1310.00,50.235
1311.00,50.221
1312.00,50.218
1313.00,50.232
1314.00,50.255
1315.00,50.259
1316.00,50.261
1317.00,50.272
1318.00,50.255
1319.00,50.266
1320.00,50.271
1321.00,50.444
1322.00,50.450
1323.00,50.437
1324.00,50.441
1325.00,50.409
1326.00,50.445
1327.00,50.434
1328.00,50.447
1329.00,50.426
1330.00,50.424
1331.00,50.439
1332.00,50.438
1333.00,50.428
1334.00,50.467
1335.00,50.488
1336.00,50.513
1337.00,50.535
1338.00,50.587
1339.00,50.627
1340.00,50.690
1341.00,50.745
1342.00,50.824
1343.00,50.846
1344.00,50.895
1345.00,50.980
1346.00,51.011
1347.00,51.002
1348.00,51.062
1349.00,51.081
1350.00,51.104
1351.00,51.118
1352.00,51.114
1353.00,51.166
1354.00,51.113
1355.00,51.035
1356.00,51.133
1357.00,51.121
1358.00,51.120
1359.00,51.125
1360.00,51.120
1361.00,51.119
1362.00,51.108
1363.00,50.943
1364.00,51.133
1365.00,51.139
1366.00,51.184
1367.00,51.109
1368.00,51.141
1369.00,51.151
1370.00,51.157
1371.00,51.064
1372.00,51.122
1373.00,51.113
1374.00,51.130
1375.00,51.121
1376.00,51.109
1377.00,51.064
1378.00,51.196
1379.00,51.139
1380.00,51.140
1381.00,51.154
1382.00,51.073
1383.00,51.147
1384.00,51.126
1385.00,51.066
1386.00,51.135
1387.00,51.121
1388.00,51.045
1389.00,51.091
1390.00,51.153
1391.00,51.128
1392.00,51.112
1393.00,51.101
1394.00,51.067
1395.00,51.082
1396.00,51.027
1397.00,51.107
1398.00,51.112
1399.00,51.040
1400.00,50.860
1401.00,51.068
1402.00,51.119
1403.00,51.090
1404.00,51.103
1405.00,51.132
1406.00,51.137
1407.00,51.144
1408.00,51.136
1409.00,51.088
1410.00,51.141
1411.00,51.156
1412.00,51.192
1413.00,51.126
1414.00,51.116
1415.00,51.191
1416.00,51.286
1417.00,51.241
1418.00,51.213
1419.00,51.190
1420.00,51.232
1421.00,51.277
1422.00,51.274
1423.00,51.261
1424.00,51.268
1425.00,51.288
1426.00,51.300
1427.00,51.324
1428.00,51.311
1429.00,51.349
1430.00,51.331
1431.00,51.380
1432.00,51.377
1433.00,51.403
1434.00,51.385
1435.00,51.443
1436.00,51.458
1437.00,51.466
1438.00,51.488
1439.00,51.508
1440.00,51.507
1441.00,51.526
1442.00,51.527
1443.00,51.554
1444.00,51.590
1445.00,51.556
1446.00,51.560
1447.00,51.618
1448.00,51.642
1449.00,51.642
1450.00,51.638
1451.00,51.650
1452.00,51.670
1453.00,51.680
1454.00,51.688
1455.00,51.716
1456.00,51.726
1457.00,51.728
1458.00,51.755
1459.00,51.790
1460.00,51.805
1461.00,51.822
1462.00,51.833
1463.00,51.830
1464.00,51.842
1465.00,51.851
1466.00,51.849
1467.00,51.879
1468.00,51.905
1469.00,51.904
1470.00,51.905
1471.00,51.937
1472.00,51.946
1473.00,51.931
1474.00,51.968
1475.00,51.964
1476.00,51.983
1477.00,51.989
1478.00,52.017
1479.00,52.037
1480.00,52.036
1481.00,52.039
1482.00,52.074
1483.00,52.082
1484.00,52.101
1485.00,52.124
1486.00,52.120
1487.00,52.131
1488.00,52.148
1489.00,52.149
1490.00,52.163
1491.00,52.176
1492.00,52.194
1493.00,52.193
1494.00,52.208
1495.00,52.210
1496.00,52.218
1497.00,52.227
1498.00,52.225
1499.00,52.257
1500.00,52.272
1501.00, 
1502.00, 
1503.00, 
1504.00, 
1505.00, 
1506.00, 
1507.00, 
1508.00, 
1509.00, 
1510.00, 
1511.00, 
1512.00, 
1513.00, 
1514.00, 
1515.00, 
1516.00, 
1517.00, 
1518.00, 
1519.00, 
1520.00, 
1521.00, 
1522.00, 
1523.00, 
1524.00, 
1525.00, 
1526.00, 
1527.00, 
1528.00, 
1529.00, 
1530.00, 
1531.00, 
1532.00, 
1533.00, 
1534.00, 
1535.00, 
1536.00, 
1537.00, 
1538.00, 
1539.00, 
1540.00, 
1541.00, 
1542.00, 
1543.00, 
1544.00, 
1545.00, 
1546.00, 
1547.00, 
1548.00, 
1549.00, 
1550.00, 
1551.00, 
1552.00, 
1553.00, 
1554.00, 
1555.00, 
1556.00, 
1557.00, 
1558.00, 
1559.00, 
1560.00, 
1561.00, 
1562.00, 
1563.00, 
1564.00, 
1565.00, 
1566.00, 
1567.00, 
1568.00, 
1569.00, 
1570.00, 
1571.00, 
1572.00, 
1573.00, 
1574.00, 
1575.00, 
1576.00, 
1577.00, 
1578.00, 
1579.00, 
1580.00, 
1581.00, 
1582.00, 
1583.00, 
1584.00, 
1585.00, 
1586.00, 
1587.00, 
1588.00, 
1589.00, 
1590.00, 
1591.00, 
1592.00, 
1593.00, 
1594.00, 
1595.00, 
1596.00, 
1597.00, 
1598.00, 
1599.00, 
1600.00, 
1601.00, 
1602.00, 
1603.00, 
1604.00, 
1605.00, 
1606.00, 
1607.00, 
1608.00, 
1609.00, 
1610.00, 
1611.00, 
1612.00, 
1613.00, 
1614.00, 
1615.00, 
1616.00, 
1617.00, 
1618.00, 
1619.00, 
1620.00, 
1621.00, 
1622.00, 
1623.00, 
1624.00, 
1625.00, 
1626.00, 
1627.00, 
1628.00, 
1629.00, 
1630.00, 
1631.00, 
1632.00, 
1633.00, 
1634.00, 
1635.00, 
1636.00, 
1637.00, 
1638.00, 
1639.00, 
1640.00, 
1641.00, 
1642.00, 
1643.00, 
1644.00, 
1645.00, 
1646.00, 
1647.00, 
1648.00, 
1649.00, 
1650.00, 
1651.00, 
1652.00, 
1653.00, 
1654.00, 
1655.00, 
1656.00, 
1657.00, 
1658.00, 
1659.00, 
1660.00, 
1661.00, 
1662.00, 
1663.00, 
1664.00, 
1665.00, 
1666.00, 
1667.00, 
1668.00, 
1669.00, 
1670.00, 
1671.00, 
1672.00, 
1673.00, 
1674.00, 
1675.00, 
1676.00, 
1677.00, 
1678.00, 
1679.00, 
1680.00, 
1681.00, 
1682.00, 
1683.00, 
1684.00, 
1685.00, 
1686.00, 
1687.00, 
1688.00, 
1689.00, 
1690.00, 
1691.00, 
1692.00, 
1693.00, 
1694.00, 
1695.00, 
1696.00, 
1697.00, 
1698.00, 
1699.00, 
1700.00, 
1701.00, 
1702.00, 
1703.00, 
1704.00, 
1705.00, 
1706.00, 
1707.00, 
1708.00, 
1709.00, 
1710.00, 
1711.00, 
1712.00, 
1713.00, 
1714.00, 
1715.00, 
1716.00, 
1717.00, 
1718.00, 
1719.00, 
1720.00, 
1721.00, 
1722.00, 
1723.00, 
1724.00, 
1725.00, 
1726.00, 
1727.00, 
1728.00, 
1729.00, 
1730.00, 
1731.00, 
1732.00, 
1733.00, 
1734.00, 
1735.00, 
1736.00, 
1737.00, 
1738.00, 
1739.00, 
1740.00, 
1741.00, 
1742.00, 
1743.00, 
1744.00, 
1745.00, 
1746.00, 
1747.00, 
1748.00, 
1749.00, 
1750.00, 
1751.00, 
1752.00, 
1753.00, 
1754.00, 
1755.00, 
1756.00, 
1757.00, 
1758.00, 
1759.00, 
1760.00, 
1761.00, 
1762.00, 
1763.00, 
1764.00, 
1765.00, 
1766.00, 
1767.00, 
1768.00, 
1769.00, 
1770.00, 
1771.00, 
1772.00, 
1773.00, 
1774.00, 
1775.00, 
1776.00, 
1777.00, 
1778.00, 
1779.00, 
1780.00, 
1781.00, 
1782.00, 
1783.00, 
1784.00, 
1785.00, 
1786.00, 
1787.00, 
1788.00, 
1789.00, 
1790.00, 
1791.00, 
1792.00, 
1793.00, 
1794.00, 
1795.00, 
1796.00, 
1797.00, 
1798.00, 
1799.00, 
1800.00, 
1801.00, 
1802.00, 
1803.00, 
1804.00, 
1805.00, 
1806.00, 
1807.00, 
1808.00, 
1809.00, 
1810.00, 
1811.00, 
1812.00, 
1813.00, 
1814.00, 
1815.00, 
1816.00, 
1817.00, 
1818.00, 
1819.00, 
1820.00, 
1821.00, 
1822.00, 
1823.00, 
1824.00, 
1825.00, 
1826.00, 
1827.00, 
1828.00, 
1829.00, 
1830.00, 
1831.00, 
1832.00, 
1833.00, 
1834.00, 
1835.00, 
1836.00, 
1837.00, 
1838.00, 
1839.00, 
1840.00, 
1841.00, 
1842.00, 
1843.00, 
1844.00, 
1845.00, 
1846.00, 
1847.00, 
1848.00, 
1849.00, 
1850.00, 
1851.00, 
1852.00, 
1853.00, 
1854.00, 
1855.00, 
1856.00, 
1857.00, 
1858.00, 
1859.00, 
1860.00, 
1861.00, 
1862.00, 
1863.00, 
1864.00, 
1865.00, 
1866.00, 
1867.00, 
1868.00, 
1869.00, 
1870.00, 
1871.00, 
1872.00, 
1873.00, 
1874.00, 
1875.00, 
1876.00, 
1877.00, 
1878.00, 
1879.00, 
1880.00, 
1881.00, 
1882.00, 
1883.00, 
1884.00, 
1885.00, 
1886.00, 
1887.00, 
1888.00, 
1889.00, 
1890.00, 
1891.00, 
1892.00, 
1893.00, 
1894.00, 
1895.00, 
1896.00, 
1897.00, 
1898.00, 
1899.00, 
1900.00, 
1901.00, 
1902.00, 
1903.00, 
1904.00, 
1905.00, 
1906.00, 
1907.00, 
1908.00, 
1909.00, 
1910.00, 
1911.00, 
1912.00, 
1913.00, 
1914.00, 
1915.00, 
1916.00, 
1917.00, 
1918.00, 
1919.00, 
1920.00, 
1921.00, 
1922.00, 
1923.00, 
1924.00, 
1925.00, 
1926.00, 
1927.00, 
1928.00, 
1929.00, 
1930.00, 
1931.00, 
1932.00, 
1933.00, 
1934.00, 
1935.00, 
1936.00, 
1937.00, 
1938.00, 
1939.00, 
1940.00, 
1941.00, 
1942.00, 
1943.00, 
1944.00, 
1945.00, 
1946.00, 
1947.00, 
1948.00, 
1949.00, 
1950.00, 
1951.00, 
1952.00, 
1953.00, 
1954.00, 
1955.00, 
1956.00, 
1957.00, 
1958.00, 
1959.00, 
1960.00, 
1961.00, 
1962.00, 
1963.00, 
1964.00, 
1965.00, 
1966.00, 
1967.00, 
1968.00, 
1969.00, 
1970.00, 
1971.00, 
1972.00, 
1973.00, 
1974.00, 
1975.00, 
1976.00, 
1977.00, 
1978.00, 
1979.00, 
1980.00, 
1981.00, 
1982.00, 
1983.00, 
1984.00, 
1985.00, 
1986.00, 
1987.00, 
1988.00, 
1989.00, 
1990.00, 
1991.00, 
1992.00, 
1993.00, 
1994.00, 
1995.00, 
1996.00, 
1997.00, 
1998.00, 
1999.00, 
2000.00, 
2001.00, 
2002.00, 
2003.00, 
2004.00, 
2005.00, 
2006.00, 
2007.00, 
2008.00, 
2009.00, 
2010.00, 
2011.00, 
2012.00, 
2013.00, 
2014.00, 
2015.00, 
2016.00, 
2017.00, 
2018.00, 
2019.00, 
2020.00, 
2021.00, 
2022.00, 
2023.00, 
2024.00, 
2025.00, 
2026.00, 
2027.00, 
2028.00, 
2029.00, 
2030.00, 
2031.00, 
2032.00, 
2033.00, 
2034.00, 
2035.00, 
2036.00, 
2037.00, 
2038.00, 
2039.00, 
2040.00, 
2041.00, 
2042.00, 
2043.00, 
2044.00, 
2045.00, 
2046.00, 
2047.00, 
2048.00, 
2049.00, 
2050.00, 
2051.00, 
2052.00, 
2053.00, 
2054.00, 
2055.00, 
2056.00, 
2057.00, 
2058.00, 
2059.00, 
2060.00, 
2061.00, 
2062.00, 
2063.00, 
2064.00, 
2065.00, 
2066.00, 
2067.00, 
2068.00, 
2069.00, 
2070.00, 
2071.00, 
2072.00, 
2073.00, 
2074.00, 
2075.00, 
2076.00, 
2077.00, 
2078.00, 
2079.00, 
2080.00, 
2081.00, 
2082.00, 
2083.00, 
2084.00, 
2085.00, 
2086.00, 
2087.00, 
2088.00, 
2089.00, 
2090.00, 
2091.00, 
2092.00, 
2093.00, 
2094.00, 
2095.00, 
2096.00, 
2097.00, 
2098.00, 
2099.00, 
2100.00, 
2101.00, 
2102.00, 
2103.00, 
2104.00, 
2105.00, 
2106.00, 
2107.00, 
2108.00, 
2109.00, 
2110.00, 
2111.00, 
2112.00, 
2113.00, 
2114.00, 
2115.00, 
2116.00, 
2117.00, 
2118.00, 
2119.00, 
2120.00, 
2121.00, 
2122.00, 
2123.00, 
2124.00, 
2125.00, 
2126.00, 
2127.00, 
2128.00, 
2129.00, 
2130.00, 
2131.00, 
2132.00, 
2133.00, 
2134.00, 
2135.00, 
2136.00, 
2137.00, 
2138.00, 
2139.00, 
2140.00, 
2141.00, 
2142.00, 
2143.00, 
2144.00, 
2145.00, 
2146.00, 
2147.00, 
2148.00, 
2149.00, 
2150.00, 
2151.00, 
2152.00, 
2153.00, 
2154.00, 
2155.00, 
2156.00, 
2157.00, 
2158.00, 
2159.00, 
2160.00, 
2161.00, 
2162.00, 
2163.00, 
2164.00, 
2165.00, 
2166.00, 
2167.00, 
2168.00, 
2169.00, 
2170.00, 
2171.00, 
2172.00, 
2173.00, 
2174.00, 
2175.00, 
2176.00, 
2177.00, 
2178.00, 
2179.00, 
2180.00, 
2181.00, 
2182.00, 
2183.00, 
2184.00, 
2185.00, 
2186.00, 
2187.00, 
2188.00, 
2189.00, 
2190.00, 
2191.00, 
2192.00, 
2193.00, 
2194.00, 
2195.00, 
2196.00, 
2197.00, 
2198.00, 
2199.00, 
2200.00, 
2201.00, 
2202.00, 
2203.00, 
2204.00, 
2205.00, 
2206.00, 
2207.00, 
2208.00, 
2209.00, 
2210.00, 
2211.00, 
2212.00, 
2213.00, 
2214.00, 
2215.00, 
2216.00, 
2217.00, 
2218.00, 
2219.00, 
2220.00, 
2221.00, 
2222.00, 
2223.00, 
2224.00, 
2225.00, 
2226.00, 
2227.00, 
2228.00, 
2229.00, 
2230.00, 
2231.00, 
2232.00, 
2233.00, 
2234.00, 
2235.00, 
2236.00, 
2237.00, 
2238.00, 
2239.00, 
2240.00, 
2241.00, 
2242.00, 
2243.00, 
2244.00, 
2245.00, 
2246.00, 
2247.00, 
2248.00, 
2249.00, 
2250.00, 
2251.00, 
2252.00, 
2253.00, 
2254.00, 
2255.00, 
2256.00, 
2257.00, 
2258.00, 
2259.00, 
2260.00, 
2261.00, 
2262.00, 
2263.00, 
2264.00, 
2265.00, 
2266.00, 
2267.00, 
2268.00, 
2269.00, 
2270.00, 
2271.00, 
2272.00, 
2273.00, 
2274.00, 
2275.00, 
2276.00, 
2277.00, 
2278.00, 
2279.00, 
2280.00, 
2281.00, 
2282.00, 
2283.00, 
2284.00, 
2285.00, 
2286.00, 
2287.00, 
2288.00, 
2289.00, 
2290.00, 
2291.00, 
2292.00, 
2293.00, 
2294.00, 
2295.00, 
2296.00, 
2297.00, 
2298.00, 
2299.00, 
2300.00, 
2301.00, 
2302.00, 
2303.00, 
2304.00, 
2305.00, 
2306.00, 
2307.00, 
2308.00, 
2309.00, 
2310.00, 
2311.00, 
2312.00, 
2313.00, 
2314.00, 
2315.00, 
2316.00, 
2317.00, 
2318.00, 
2319.00, 
2320.00, 
2321.00, 
2322.00, 
2323.00, 
2324.00, 
2325.00, 
2326.00, 
2327.00, 
2328.00, 
2329.00, 
2330.00, 
2331.00, 
2332.00, 
2333.00, 
2334.00, 
2335.00, 
2336.00, 
2337.00, 
2338.00, 
2339.00, 
2340.00, 
2341.00, 
2342.00, 
2343.00, 
2344.00, 
2345.00, 
2346.00, 
2347.00, 
2348.00, 
2349.00, 
2350.00, 
2351.00, 
2352.00, 
2353.00, 
2354.00, 
2355.00, 
2356.00, 
2357.00, 
2358.00, 
2359.00, 
2360.00, 
2361.00, 
2362.00, 
2363.00, 
2364.00, 
2365.00, 
2366.00, 
2367.00, 
2368.00, 
2369.00, 
2370.00, 
2371.00, 
2372.00, 
2373.00, 
2374.00, 
2375.00, 
2376.00, 
2377.00, 
2378.00, 
2379.00, 
2380.00, 
2381.00, 
2382.00, 
2383.00, 
2384.00, 
2385.00, 
2386.00, 
2387.00, 
2388.00, 
2389.00, 
2390.00, 
2391.00, 
2392.00, 
2393.00, 
2394.00, 
2395.00, 
2396.00, 
2397.00, 
2398.00, 
2399.00, 
2400.00, 
2401.00, 
2402.00, 
2403.00, 
2404.00, 
2405.00, 
2406.00, 
2407.00, 
2408.00, 
2409.00, 
2410.00, 
2411.00, 
2412.00, 
2413.00, 
2414.00, 
2415.00, 
2416.00, 
2417.00, 
2418.00, 
2419.00, 
2420.00, 
2421.00, 
2422.00, 
2423.00, 
2424.00, 
2425.00, 
2426.00, 
2427.00, 
2428.00, 
2429.00, 
2430.00, 
2431.00, 
2432.00, 
2433.00, 
2434.00, 
2435.00, 
2436.00, 
2437.00, 
2438.00, 
2439.00, 
2440.00, 
2441.00, 
2442.00, 
2443.00, 
2444.00, 
2445.00, 
2446.00, 
2447.00, 
2448.00, 
2449.00, 
2450.00, 
2451.00, 
2452.00, 
2453.00, 
2454.00, 
2455.00, 
2456.00, 
2457.00, 
2458.00, 
2459.00, 
2460.00, 
2461.00, 
2462.00, 
2463.00, 
2464.00, 
2465.00, 
2466.00, 
2467.00, 
2468.00, 
2469.00, 
2470.00, 
2471.00, 
2472.00, 
2473.00, 
2474.00, 
2475.00, 
2476.00, 
2477.00, 
2478.00, 
2479.00, 
2480.00, 
2481.00, 
2482.00, 
2483.00, 
2484.00, 
2485.00, 
2486.00, 
2487.00, 
2488.00, 
2489.00, 
2490.00, 
2491.00, 
2492.00, 
2493.00, 
2494.00, 
2495.00, 
2496.00, 
2497.00, 
2498.00, 
2499.00, 
2500.00, 
2501.00, 
2502.00, 
2503.00, 
2504.00, 
2505.00, 
2506.00, 
2507.00, 
2508.00, 
2509.00, 
2510.00, 
2511.00, 
2512.00, 
2513.00, 
2514.00, 
2515.00, 
2516.00, 
2517.00, 
2518.00, 
2519.00, 
2520.00, 
2521.00, 
2522.00, 
2523.00, 
2524.00, 
2525.00, 
2526.00, 
2527.00, 
2528.00, 
2529.00, 
2530.00, 
2531.00, 
2532.00, 
2533.00, 
2534.00, 
2535.00, 
2536.00, 
2537.00, 
2538.00, 
2539.00, 
2540.00, 
2541.00, 
2542.00, 
2543.00, 
2544.00, 
2545.00, 
2546.00, 
2547.00, 
2548.00, 
2549.00, 
2550.00, 
2551.00, 
2552.00, 
2553.00, 
2554.00, 
2555.00, 
2556.00, 
2557.00, 
2558.00, 
2559.00, 
2560.00, 
2561.00, 
2562.00, 
2563.00, 
2564.00, 
2565.00, 
2566.00, 
2567.00, 
2568.00, 
2569.00, 
2570.00, 
2571.00, 
2572.00, 
2573.00, 
2574.00, 
2575.00, 
2576.00, 
2577.00, 
2578.00, 
2579.00, 
2580.00, 
2581.00, 
2582.00, 
2583.00, 
2584.00, 
2585.00, 
2586.00, 
2587.00, 
2588.00, 
2589.00, 
2590.00, 
2591.00, 
2592.00, 
2593.00, 
2594.00, 
2595.00, 
2596.00, 
2597.00, 
2598.00, 
2599.00, 
2600.00, 
