"1cP4 - RawData"
"Wavelength nm.","T%"
200.00,0.004
201.00,0.003
202.00,0.002
203.00,-0.000
204.00,-0.002
205.00,0.004
206.00,0.002
207.00,-0.000
208.00,0.003
209.00,-0.000
210.00,0.003
211.00,0.005
212.00,-0.001
213.00,-0.000
214.00,-0.000
215.00,0.001
216.00,-0.001
217.00,0.004
218.00,0.003
219.00,-0.001
220.00,-0.001
221.00,0.003
222.00,0.003
223.00,0.002
224.00,0.000
225.00,0.003
226.00,0.001
227.00,0.001
228.00,0.000
229.00,0.002
230.00,0.001
231.00,0.003
232.00,0.002
233.00,0.004
234.00,-0.000
235.00,0.000
236.00,0.000
237.00,0.003
238.00,0.002
239.00,0.002
240.00,-0.000
241.00,0.003
242.00,-0.000
243.00,0.000
244.00,0.001
245.00,0.002
246.00,0.002
247.00,0.000
248.00,-0.001
249.00,-0.000
250.00,0.000
251.00,0.002
252.00,-0.001
253.00,0.000
254.00,0.001
255.00,0.001
256.00,0.000
257.00,0.001
258.00,0.000
259.00,0.001
260.00,0.000
261.00,0.001
262.00,-0.000
263.00,-0.001
264.00,0.001
265.00,0.002
266.00,0.002
267.00,0.001
268.00,-0.001
269.00,-0.000
270.00,-0.001
271.00,-0.000
272.00,0.000
273.00,-0.001
274.00,0.001
275.00,0.001
276.00,0.001
277.00,0.002
278.00,0.000
279.00,-0.000
280.00,0.002
281.00,0.000
282.00,-0.000
283.00,0.001
284.00,0.001
285.00,0.001
286.00,0.001
287.00,0.000
288.00,0.002
289.00,0.000
290.00,0.003
291.00,0.003
292.00,0.000
293.00,0.002
294.00,-0.002
295.00,-0.001
296.00,0.001
297.00,0.001
298.00,0.001
299.00,0.002
300.00,0.002
301.00,0.002
302.00,0.001
303.00,-0.000
304.00,0.003
305.00,0.001
306.00,0.003
307.00,0.004
308.00,0.009
309.00,0.014
310.00,0.023
311.00,0.035
312.00,0.052
313.00,0.083
314.00,0.122
315.00,0.183
316.00,0.259
317.00,0.359
318.00,0.493
319.00,0.666
320.00,0.887
321.00,1.147
322.00,1.471
323.00,1.869
324.00,2.292
325.00,2.761
326.00,3.296
327.00,3.899
328.00,4.583
329.00,5.262
330.00,6.041
331.00,6.857
332.00,7.709
333.00,8.608
334.00,9.487
335.00,10.436
336.00,11.389
337.00,12.372
338.00,13.324
339.00,14.238
340.00,15.222
341.00,16.163
342.00,17.023
343.00,17.939
344.00,18.696
345.00,19.495
346.00,20.328
347.00,21.085
348.00,21.822
349.00,22.480
350.00,23.078
351.00,23.711
352.00,24.281
353.00,24.843
354.00,25.320
355.00,25.737
356.00,26.247
357.00,26.692
358.00,27.036
359.00,27.433
360.00,27.677
361.00,27.976
362.00,28.252
363.00,28.560
364.00,28.793
365.00,29.085
366.00,29.252
367.00,29.344
368.00,29.522
369.00,29.602
370.00,29.659
371.00,29.797
372.00,29.808
373.00,29.807
374.00,29.717
375.00,29.765
376.00,29.680
377.00,29.645
378.00,29.576
379.00,29.555
380.00,29.446
381.00,29.505
382.00,29.522
383.00,29.638
384.00,29.710
385.00,29.847
386.00,29.958
387.00,30.051
388.00,30.203
389.00,30.265
390.00,30.371
391.00,30.480
392.00,30.543
393.00,30.641
394.00,30.566
395.00,30.617
396.00,30.614
397.00,30.791
398.00,30.828
399.00,30.876
400.00,30.947
401.00,30.927
402.00,30.977
403.00,31.006
404.00,30.966
405.00,30.951
406.00,30.967
407.00,30.881
408.00,30.962
409.00,30.929
410.00,30.815
411.00,30.809
412.00,30.841
413.00,30.936
414.00,30.884
415.00,30.866
416.00,30.914
417.00,30.901
418.00,30.903
419.00,30.923
420.00,30.902
421.00,31.041
422.00,31.127
423.00,31.128
424.00,31.090
425.00,31.149
426.00,31.233
427.00,31.233
428.00,31.285
429.00,31.323
430.00,31.369
431.00,31.436
432.00,31.456
433.00,31.522
434.00,31.569
435.00,31.641
436.00,31.694
437.00,31.749
438.00,31.807
439.00,31.849
440.00,31.977
441.00,32.071
442.00,32.149
443.00,32.157
444.00,32.283
445.00,32.379
446.00,32.440
447.00,32.562
448.00,32.642
449.00,32.755
450.00,32.822
451.00,32.980
452.00,33.118
453.00,33.164
454.00,33.300
455.00,33.389
456.00,33.453
457.00,33.614
458.00,33.693
459.00,33.827
460.00,33.916
461.00,34.029
462.00,34.198
463.00,34.259
464.00,34.448
465.00,34.526
466.00,34.656
467.00,34.743
468.00,34.876
469.00,35.022
470.00,35.058
471.00,35.178
472.00,35.310
473.00,35.374
474.00,35.444
475.00,35.576
476.00,35.662
477.00,35.824
478.00,35.920
479.00,35.967
480.00,36.162
481.00,36.266
482.00,36.396
483.00,36.504
484.00,36.585
485.00,36.793
486.00,36.887
487.00,36.998
488.00,37.170
489.00,37.269
490.00,37.373
491.00,37.527
492.00,37.610
493.00,37.727
494.00,37.775
495.00,37.827
496.00,37.851
497.00,37.951
498.00,38.232
499.00,38.346
500.00,38.376
501.00,38.500
502.00,38.600
503.00,38.746
504.00,38.879
505.00,38.979
506.00,39.106
507.00,39.155
508.00,39.217
509.00,39.382
510.00,39.400
511.00,39.591
512.00,39.608
513.00,39.635
514.00,39.893
515.00,39.949
516.00,40.013
517.00,40.254
518.00,40.258
519.00,40.366
520.00,40.485
521.00,40.438
522.00,40.598
523.00,40.691
524.00,40.706
525.00,40.751
526.00,40.867
527.00,40.935
528.00,41.065
529.00,41.050
530.00,41.068
531.00,41.219
532.00,41.279
533.00,41.348
534.00,41.349
535.00,41.488
536.00,41.580
537.00,41.565
538.00,41.721
539.00,41.811
540.00,41.790
541.00,41.841
542.00,41.855
543.00,41.929
544.00,42.016
545.00,41.964
546.00,42.073
547.00,42.165
548.00,42.127
549.00,42.212
550.00,42.335
551.00,42.351
552.00,42.398
553.00,42.553
554.00,42.661
555.00,42.691
556.00,42.648
557.00,42.705
558.00,42.747
559.00,42.794
560.00,42.868
561.00,42.889
562.00,42.948
563.00,42.948
564.00,43.000
565.00,43.073
566.00,43.107
567.00,43.050
568.00,43.152
569.00,43.158
570.00,43.097
571.00,43.149
572.00,43.193
573.00,43.259
574.00,43.245
575.00,43.323
576.00,43.320
577.00,43.376
578.00,43.361
579.00,43.337
580.00,43.446
581.00,43.394
582.00,43.575
583.00,43.637
584.00,43.818
585.00,43.722
586.00,43.759
587.00,43.872
588.00,43.907
589.00,43.962
590.00,43.935
591.00,43.971
592.00,43.973
593.00,43.998
594.00,44.004
595.00,43.954
596.00,44.032
597.00,44.103
598.00,44.245
599.00,44.225
600.00,44.206
601.00,44.362
602.00,44.420
603.00,44.485
604.00,44.450
605.00,44.491
606.00,44.592
607.00,44.500
608.00,44.517
609.00,44.327
610.00,44.492
611.00,44.585
612.00,44.662
613.00,44.657
614.00,44.640
615.00,44.637
616.00,44.651
617.00,44.765
618.00,44.862
619.00,44.855
620.00,44.870
621.00,44.841
622.00,44.847
623.00,44.958
624.00,45.030
625.00,45.013
626.00,45.010
627.00,45.034
628.00,45.132
629.00,45.208
630.00,45.310
631.00,45.332
632.00,45.305
633.00,45.367
634.00,45.360
635.00,45.413
636.00,45.537
637.00,45.736
638.00,45.802
639.00,45.779
640.00,45.796
641.00,45.780
642.00,45.805
643.00,45.907
644.00,46.007
645.00,46.014
646.00,45.989
647.00,46.068
648.00,46.240
649.00,46.408
650.00,46.292
651.00,46.282
652.00,46.355
653.00,46.641
654.00,46.552
655.00,46.415
656.00,46.366
657.00,46.877
658.00,46.804
659.00,46.779
660.00,46.758
661.00,46.844
662.00,47.136
663.00,47.015
664.00,46.989
665.00,47.016
666.00,47.146
667.00,47.432
668.00,47.396
669.00,47.319
670.00,47.327
671.00,47.443
672.00,47.437
673.00,47.752
674.00,47.809
675.00,47.637
676.00,47.606
677.00,47.636
678.00,47.871
679.00,47.786
680.00,47.917
681.00,47.937
682.00,48.125
683.00,48.187
684.00,48.345
685.00,48.426
686.00,48.211
687.00,48.371
688.00,48.582
689.00,48.400
690.00,48.456
691.00,48.379
692.00,48.582
693.00,48.657
694.00,48.358
695.00,48.440
696.00,48.641
697.00,48.835
698.00,48.902
699.00,48.820
700.00,49.197
701.00,49.259
702.00,49.146
703.00,49.186
704.00,49.198
705.00,49.283
706.00,49.571
707.00,49.410
708.00,49.066
709.00,49.224
710.00,49.523
711.00,49.386
712.00,49.445
713.00,49.470
714.00,49.309
715.00,49.525
716.00,49.705
717.00,49.503
718.00,49.447
719.00,49.614
720.00,49.691
721.00,53.942
722.00,53.908
723.00,54.015
724.00,53.941
725.00,53.825
726.00,53.854
727.00,53.800
728.00,53.859
729.00,53.795
730.00,53.814
731.00,53.815
732.00,53.825
733.00,53.830
734.00,53.804
735.00,53.791
736.00,53.779
737.00,53.787
738.00,53.842
739.00,53.820
740.00,53.836
741.00,53.790
742.00,53.800
743.00,53.828
744.00,53.819
745.00,53.827
746.00,53.723
747.00,53.715
748.00,53.674
749.00,53.615
750.00,53.684
751.00,53.532
752.00,53.697
753.00,53.603
754.00,53.560
755.00,53.443
756.00,53.581
757.00,53.513
758.00,53.499
759.00,53.414
760.00,53.402
761.00,53.417
762.00,53.492
763.00,53.466
764.00,53.439
765.00,53.356
766.00,53.402
767.00,53.463
768.00,53.404
769.00,53.346
770.00,53.371
771.00,53.327
772.00,53.354
773.00,53.298
774.00,53.259
775.00,53.313
776.00,53.223
777.00,53.308
778.00,53.183
779.00,53.306
780.00,53.243
781.00,53.155
782.00,53.121
783.00,53.144
784.00,53.133
785.00,53.072
786.00,53.152
787.00,53.055
788.00,53.028
789.00,53.063
790.00,52.954
791.00,53.020
792.00,52.894
793.00,52.961
794.00,52.907
795.00,52.843
796.00,52.874
797.00,52.776
798.00,52.786
799.00,52.796
800.00,52.712
801.00,52.689
802.00,52.636
803.00,52.765
804.00,52.579
805.00,52.534
806.00,52.528
807.00,52.546
808.00,52.560
809.00,52.459
810.00,52.541
811.00,52.424
812.00,52.452
813.00,52.405
814.00,52.420
815.00,52.396
816.00,52.311
817.00,52.377
818.00,52.272
819.00,52.285
820.00,52.213
821.00,52.284
822.00,52.299
823.00,52.190
824.00,52.176
825.00,52.058
826.00,52.050
827.00,52.148
828.00,52.099
829.00,52.059
830.00,52.046
831.00,54.390
832.00,54.314
833.00,54.329
834.00,54.382
835.00,54.293
836.00,54.294
837.00,54.269
838.00,54.202
839.00,54.149
840.00,54.137
841.00,54.175
842.00,54.130
843.00,54.098
844.00,54.071
845.00,54.086
846.00,54.033
847.00,53.981
848.00,53.985
849.00,53.939
850.00,53.819
851.00,53.933
852.00,53.812
853.00,53.792
854.00,53.737
855.00,53.739
856.00,53.663
857.00,53.698
858.00,53.686
859.00,53.657
860.00,53.612
861.00,53.581
862.00,53.577
863.00,53.562
864.00,53.548
865.00,53.515
866.00,53.517
867.00,53.475
868.00,53.486
869.00,53.427
870.00,53.476
871.00,53.456
872.00,53.425
873.00,53.383
874.00,53.400
875.00,53.387
876.00,53.361
877.00,53.383
878.00,53.310
879.00,53.328
880.00,53.262
881.00,53.296
882.00,53.281
883.00,53.236
884.00,53.165
885.00,53.206
886.00,53.189
887.00,53.157
888.00,53.104
889.00,53.097
890.00,53.097
891.00,53.052
892.00,53.042
893.00,53.021
894.00,52.988
895.00,52.958
896.00,52.956
897.00,52.935
898.00,52.903
899.00,52.938
900.00,52.878
901.00,52.880
902.00,52.885
903.00,52.865
904.00,52.856
905.00,52.816
906.00,52.764
907.00,52.772
908.00,52.710
909.00,52.665
910.00,52.769
911.00,52.649
912.00,52.655
913.00,52.628
914.00,52.587
915.00,52.624
916.00,52.568
917.00,52.549
918.00,52.569
919.00,52.525
920.00,52.472
921.00,52.465
922.00,52.470
923.00,52.401
924.00,52.386
925.00,52.365
926.00,52.372
927.00,52.338
928.00,52.359
929.00,52.307
930.00,52.255
931.00,52.246
932.00,52.229
933.00,52.204
934.00,52.191
935.00,52.190
936.00,52.157
937.00,52.135
938.00,52.137
939.00,52.096
940.00,52.094
941.00,52.073
942.00,52.030
943.00,52.022
944.00,52.014
945.00,51.979
946.00,51.990
947.00,51.940
948.00,51.929
949.00,51.927
950.00,51.879
951.00,51.851
952.00,51.863
953.00,51.802
954.00,51.784
955.00,51.799
956.00,51.734
957.00,51.709
958.00,51.705
959.00,51.669
960.00,51.622
961.00,51.636
962.00,51.648
963.00,51.581
964.00,51.562
965.00,51.556
966.00,51.583
967.00,51.528
968.00,51.553
969.00,51.555
970.00,51.546
971.00,51.568
972.00,51.513
973.00,51.565
974.00,51.540
975.00,51.534
976.00,51.538
977.00,51.551
978.00,51.547
979.00,51.510
980.00,51.548
981.00,51.539
982.00,51.526
983.00,51.505
984.00,51.540
985.00,51.521
986.00,51.465
987.00,51.496
988.00,51.479
989.00,51.448
990.00,51.434
991.00,51.450
992.00,51.439
993.00,51.388
994.00,51.409
995.00,51.390
996.00,51.371
997.00,51.349
998.00,51.384
999.00,51.381
1000.00,51.297
1001.00,51.328
1002.00,51.317
1003.00,51.310
1004.00,51.266
1005.00,51.267
1006.00,51.277
1007.00,51.242
1008.00,51.240
1009.00,51.222
1010.00,51.232
1011.00,51.168
1012.00,51.171
1013.00,51.205
1014.00,51.147
1015.00,51.151
1016.00,51.102
1017.00,51.095
1018.00,51.060
1019.00,51.049
1020.00,51.051
1021.00,51.042
1022.00,51.007
1023.00,50.994
1024.00,50.978
1025.00,50.959
1026.00,50.961
1027.00,50.929
1028.00,50.982
1029.00,50.926
1030.00,50.913
1031.00,50.895
1032.00,50.878
1033.00,50.858
1034.00,50.837
1035.00,50.829
1036.00,50.781
1037.00,50.770
1038.00,50.751
1039.00,50.727
1040.00,50.707
1041.00,50.678
1042.00,50.714
1043.00,50.662
1044.00,50.675
1045.00,50.670
1046.00,50.694
1047.00,50.664
1048.00,50.679
1049.00,50.697
1050.00,50.715
1051.00,50.689
1052.00,50.696
1053.00,50.738
1054.00,50.730
1055.00,50.716
1056.00,50.761
1057.00,50.791
1058.00,50.751
1059.00,50.757
1060.00,50.779
1061.00,50.772
1062.00,50.723
1063.00,50.743
1064.00,50.748
1065.00,50.720
1066.00,50.691
1067.00,50.724
1068.00,50.717
1069.00,50.693
1070.00,50.680
1071.00,50.690
1072.00,50.667
1073.00,50.645
1074.00,50.666
1075.00,50.642
1076.00,50.628
1077.00,50.605
1078.00,50.626
1079.00,50.614
1080.00,50.612
1081.00,50.589
1082.00,50.593
1083.00,50.580
1084.00,50.574
1085.00,50.567
1086.00,50.566
1087.00,50.538
1088.00,50.541
1089.00,50.552
1090.00,50.525
1091.00,50.509
1092.00,50.504
1093.00,50.480
1094.00,50.483
1095.00,50.454
1096.00,50.465
1097.00,50.465
1098.00,50.461
1099.00,50.441
1100.00,50.471
1101.00,50.451
1102.00,50.433
1103.00,50.417
1104.00,50.424
1105.00,50.391
1106.00,50.367
1107.00,50.382
1108.00,50.404
1109.00,50.362
1110.00,50.363
1111.00,50.382
1112.00,50.359
1113.00,50.313
1114.00,50.333
1115.00,50.346
1116.00,50.330
1117.00,50.285
1118.00,50.313
1119.00,50.319
1120.00,50.313
1121.00,50.286
1122.00,50.300
1123.00,50.272
1124.00,50.277
1125.00,50.277
1126.00,50.277
1127.00,50.268
1128.00,50.258
1129.00,50.235
1130.00,50.247
1131.00,50.229
1132.00,50.246
1133.00,50.213
1134.00,50.232
1135.00,50.273
1136.00,50.201
1137.00,50.196
1138.00,50.210
1139.00,50.216
1140.00,50.206
1141.00,50.205
1142.00,50.192
1143.00,50.201
1144.00,50.196
1145.00,50.166
1146.00,50.162
1147.00,50.147
1148.00,50.146
1149.00,50.186
1150.00,50.176
1151.00,50.174
1152.00,50.158
1153.00,50.137
1154.00,50.140
1155.00,50.166
1156.00,50.137
1157.00,50.138
1158.00,50.130
1159.00,50.136
1160.00,50.109
1161.00,50.124
1162.00,50.130
1163.00,50.136
1164.00,50.105
1165.00,50.125
1166.00,50.125
1167.00,50.115
1168.00,50.134
1169.00,50.137
1170.00,50.131
1171.00,50.123
1172.00,50.119
1173.00,50.105
1174.00,50.112
1175.00,50.094
1176.00,50.096
1177.00,50.094
1178.00,50.100
1179.00,50.118
1180.00,50.100
1181.00,50.122
1182.00,50.125
1183.00,50.112
1184.00,50.091
1185.00,50.118
1186.00,50.110
1187.00,50.118
1188.00,50.104
1189.00,50.115
1190.00,50.102
1191.00,50.101
1192.00,50.100
1193.00,50.105
1194.00,50.076
1195.00,50.093
1196.00,50.130
1197.00,50.103
1198.00,50.104
1199.00,50.102
1200.00,50.107
1201.00,50.099
1202.00,50.104
1203.00,50.120
1204.00,50.097
1205.00,50.094
1206.00,50.106
1207.00,50.106
1208.00,50.088
1209.00,50.124
1210.00,50.107
1211.00,50.098
1212.00,50.125
1213.00,50.095
1214.00,50.116
1215.00,50.095
1216.00,50.108
1217.00,50.117
1218.00,50.101
1219.00,50.114
1220.00,50.108
1221.00,50.124
1222.00,50.087
1223.00,50.142
1224.00,50.136
1225.00,50.115
1226.00,50.125
1227.00,50.133
1228.00,50.137
1229.00,50.165
1230.00,50.178
1231.00,50.155
1232.00,50.182
1233.00,50.180
1234.00,50.201
1235.00,50.175
1236.00,50.180
1237.00,50.169
1238.00,50.166
1239.00,50.183
1240.00,50.163
1241.00,50.179
1242.00,50.172
1243.00,50.187
1244.00,50.174
1245.00,50.213
1246.00,50.205
1247.00,50.214
1248.00,50.210
1249.00,50.212
1250.00,50.218
1251.00,50.213
1252.00,50.233
1253.00,50.241
1254.00,50.240
1255.00,50.227
1256.00,50.256
1257.00,50.247
1258.00,50.256
1259.00,50.262
1260.00,50.282
1261.00,50.273
1262.00,50.286
1263.00,50.274
1264.00,50.286
1265.00,50.282
1266.00,50.294
1267.00,50.321
1268.00,50.331
1269.00,50.320
1270.00,50.354
1271.00,50.338
1272.00,50.346
1273.00,50.353
1274.00,50.358
1275.00,50.349
1276.00,50.350
1277.00,50.352
1278.00,50.380
1279.00,50.357
1280.00,50.347
1281.00,50.391
1282.00,50.413
1283.00,50.394
1284.00,50.400
1285.00,50.402
1286.00,50.410
1287.00,50.386
1288.00,50.425
1289.00,50.409
1290.00,50.404
1291.00,50.426
1292.00,50.452
1293.00,50.439
1294.00,50.457
1295.00,50.486
1296.00,50.471
1297.00,50.460
1298.00,50.487
1299.00,50.480
1300.00,50.507
1301.00,50.496
1302.00,50.527
1303.00,50.545
1304.00,50.505
1305.00,50.527
1306.00,50.548
1307.00,50.547
1308.00,50.547
1309.00,50.548
1310.00,50.572
1311.00,50.579
1312.00,50.575
1313.00,50.573
1314.00,50.622
1315.00,50.609
1316.00,50.621
1317.00,50.639
1318.00,50.658
1319.00,50.652
1320.00,50.648
1321.00,50.787
1322.00,50.793
1323.00,50.789
1324.00,50.817
1325.00,50.768
1326.00,50.799
1327.00,50.795
1328.00,50.796
1329.00,50.755
1330.00,50.802
1331.00,50.784
1332.00,50.797
1333.00,50.792
1334.00,50.848
1335.00,50.865
1336.00,50.908
1337.00,50.897
1338.00,50.984
1339.00,51.030
1340.00,51.061
1341.00,51.132
1342.00,51.186
1343.00,51.234
1344.00,51.276
1345.00,51.343
1346.00,51.357
1347.00,51.315
1348.00,51.394
1349.00,51.453
1350.00,51.474
1351.00,51.515
1352.00,51.536
1353.00,51.498
1354.00,51.510
1355.00,51.425
1356.00,51.631
1357.00,51.531
1358.00,51.466
1359.00,51.573
1360.00,51.732
1361.00,51.935
1362.00,51.233
1363.00,51.602
1364.00,51.614
1365.00,51.622
1366.00,51.738
1367.00,51.647
1368.00,51.413
1369.00,51.562
1370.00,51.517
1371.00,51.484
1372.00,51.535
1373.00,51.583
1374.00,51.585
1375.00,51.553
1376.00,51.566
1377.00,51.538
1378.00,51.688
1379.00,51.570
1380.00,51.646
1381.00,51.575
1382.00,51.599
1383.00,51.603
1384.00,51.524
1385.00,51.497
1386.00,51.568
1387.00,51.508
1388.00,51.518
1389.00,51.500
1390.00,51.498
1391.00,51.549
1392.00,51.593
1393.00,51.855
1394.00,51.600
1395.00,51.405
1396.00,51.542
1397.00,51.627
1398.00,51.505
1399.00,51.541
1400.00,51.615
1401.00,51.544
1402.00,51.099
1403.00,51.654
1404.00,51.509
1405.00,51.618
1406.00,51.583
1407.00,51.763
1408.00,51.596
1409.00,51.669
1410.00,51.658
1411.00,51.581
1412.00,51.816
1413.00,51.706
1414.00,51.484
1415.00,51.680
1416.00,51.738
1417.00,51.808
1418.00,51.726
1419.00,51.695
1420.00,51.754
1421.00,51.834
1422.00,51.821
1423.00,51.842
1424.00,51.797
1425.00,51.823
1426.00,51.849
1427.00,51.851
1428.00,51.860
1429.00,51.897
1430.00,51.922
1431.00,51.880
1432.00,51.934
1433.00,51.964
1434.00,51.941
1435.00,52.030
1436.00,51.981
1437.00,52.033
1438.00,52.022
1439.00,52.064
1440.00,52.073
1441.00,52.078
1442.00,52.088
1443.00,52.154
1444.00,52.190
1445.00,52.097
1446.00,52.143
1447.00,52.193
1448.00,52.257
1449.00,52.271
1450.00,52.198
1451.00,52.238
1452.00,52.259
1453.00,52.281
1454.00,52.274
1455.00,52.323
1456.00,52.342
1457.00,52.363
1458.00,52.392
1459.00,52.406
1460.00,52.428
1461.00,52.418
1462.00,52.455
1463.00,52.462
1464.00,52.488
1465.00,52.507
1466.00,52.492
1467.00,52.534
1468.00,52.583
1469.00,52.564
1470.00,52.588
1471.00,52.635
1472.00,52.611
1473.00,52.624
1474.00,52.686
1475.00,52.684
1476.00,52.687
1477.00,52.666
1478.00,52.710
1479.00,52.738
1480.00,52.689
1481.00,52.734
1482.00,52.766
1483.00,52.763
1484.00,52.773
1485.00,52.825
1486.00,52.829
1487.00,52.832
1488.00,52.851
1489.00,52.871
1490.00,52.866
1491.00,52.881
1492.00,52.905
1493.00,52.930
1494.00,52.930
1495.00,52.927
1496.00,52.966
1497.00,52.986
1498.00,52.977
1499.00,52.981
1500.00,53.002
1501.00, 
1502.00, 
1503.00, 
1504.00, 
1505.00, 
1506.00, 
1507.00, 
1508.00, 
1509.00, 
1510.00, 
1511.00, 
1512.00, 
1513.00, 
1514.00, 
1515.00, 
1516.00, 
1517.00, 
1518.00, 
1519.00, 
1520.00, 
1521.00, 
1522.00, 
1523.00, 
1524.00, 
1525.00, 
1526.00, 
1527.00, 
1528.00, 
1529.00, 
1530.00, 
1531.00, 
1532.00, 
1533.00, 
1534.00, 
1535.00, 
1536.00, 
1537.00, 
1538.00, 
1539.00, 
1540.00, 
1541.00, 
1542.00, 
1543.00, 
1544.00, 
1545.00, 
1546.00, 
1547.00, 
1548.00, 
1549.00, 
1550.00, 
1551.00, 
1552.00, 
1553.00, 
1554.00, 
1555.00, 
1556.00, 
1557.00, 
1558.00, 
1559.00, 
1560.00, 
1561.00, 
1562.00, 
1563.00, 
1564.00, 
1565.00, 
1566.00, 
1567.00, 
1568.00, 
1569.00, 
1570.00, 
1571.00, 
1572.00, 
1573.00, 
1574.00, 
1575.00, 
1576.00, 
1577.00, 
1578.00, 
1579.00, 
1580.00, 
1581.00, 
1582.00, 
1583.00, 
1584.00, 
1585.00, 
1586.00, 
1587.00, 
1588.00, 
1589.00, 
1590.00, 
1591.00, 
1592.00, 
1593.00, 
1594.00, 
1595.00, 
1596.00, 
1597.00, 
1598.00, 
1599.00, 
1600.00, 
1601.00, 
1602.00, 
1603.00, 
1604.00, 
1605.00, 
1606.00, 
1607.00, 
1608.00, 
1609.00, 
1610.00, 
1611.00, 
1612.00, 
1613.00, 
1614.00, 
1615.00, 
1616.00, 
1617.00, 
1618.00, 
1619.00, 
1620.00, 
1621.00, 
1622.00, 
1623.00, 
1624.00, 
1625.00, 
1626.00, 
1627.00, 
1628.00, 
1629.00, 
1630.00, 
1631.00, 
1632.00, 
1633.00, 
1634.00, 
1635.00, 
1636.00, 
1637.00, 
1638.00, 
1639.00, 
1640.00, 
1641.00, 
1642.00, 
1643.00, 
1644.00, 
1645.00, 
1646.00, 
1647.00, 
1648.00, 
1649.00, 
1650.00, 
1651.00, 
1652.00, 
1653.00, 
1654.00, 
1655.00, 
1656.00, 
1657.00, 
1658.00, 
1659.00, 
1660.00, 
1661.00, 
1662.00, 
1663.00, 
1664.00, 
1665.00, 
1666.00, 
1667.00, 
1668.00, 
1669.00, 
1670.00, 
1671.00, 
1672.00, 
1673.00, 
1674.00, 
1675.00, 
1676.00, 
1677.00, 
1678.00, 
1679.00, 
1680.00, 
1681.00, 
1682.00, 
1683.00, 
1684.00, 
1685.00, 
1686.00, 
1687.00, 
1688.00, 
1689.00, 
1690.00, 
1691.00, 
1692.00, 
1693.00, 
1694.00, 
1695.00, 
1696.00, 
1697.00, 
1698.00, 
1699.00, 
1700.00, 
1701.00, 
1702.00, 
1703.00, 
1704.00, 
1705.00, 
1706.00, 
1707.00, 
1708.00, 
1709.00, 
1710.00, 
1711.00, 
1712.00, 
1713.00, 
1714.00, 
1715.00, 
1716.00, 
1717.00, 
1718.00, 
1719.00, 
1720.00, 
1721.00, 
1722.00, 
1723.00, 
1724.00, 
1725.00, 
1726.00, 
1727.00, 
1728.00, 
1729.00, 
1730.00, 
1731.00, 
1732.00, 
1733.00, 
1734.00, 
1735.00, 
1736.00, 
1737.00, 
1738.00, 
1739.00, 
1740.00, 
1741.00, 
1742.00, 
1743.00, 
1744.00, 
1745.00, 
1746.00, 
1747.00, 
1748.00, 
1749.00, 
1750.00, 
1751.00, 
1752.00, 
1753.00, 
1754.00, 
1755.00, 
1756.00, 
1757.00, 
1758.00, 
1759.00, 
1760.00, 
1761.00, 
1762.00, 
1763.00, 
1764.00, 
1765.00, 
1766.00, 
1767.00, 
1768.00, 
1769.00, 
1770.00, 
1771.00, 
1772.00, 
1773.00, 
1774.00, 
1775.00, 
1776.00, 
1777.00, 
1778.00, 
1779.00, 
1780.00, 
1781.00, 
1782.00, 
1783.00, 
1784.00, 
1785.00, 
1786.00, 
1787.00, 
1788.00, 
1789.00, 
1790.00, 
1791.00, 
1792.00, 
1793.00, 
1794.00, 
1795.00, 
1796.00, 
1797.00, 
1798.00, 
1799.00, 
1800.00, 
1801.00, 
1802.00, 
1803.00, 
1804.00, 
1805.00, 
1806.00, 
1807.00, 
1808.00, 
1809.00, 
1810.00, 
1811.00, 
1812.00, 
1813.00, 
1814.00, 
1815.00, 
1816.00, 
1817.00, 
1818.00, 
1819.00, 
1820.00, 
1821.00, 
1822.00, 
1823.00, 
1824.00, 
1825.00, 
1826.00, 
1827.00, 
1828.00, 
1829.00, 
1830.00, 
1831.00, 
1832.00, 
1833.00, 
1834.00, 
1835.00, 
1836.00, 
1837.00, 
1838.00, 
1839.00, 
1840.00, 
1841.00, 
1842.00, 
1843.00, 
1844.00, 
1845.00, 
1846.00, 
1847.00, 
1848.00, 
1849.00, 
1850.00, 
1851.00, 
1852.00, 
1853.00, 
1854.00, 
1855.00, 
1856.00, 
1857.00, 
1858.00, 
1859.00, 
1860.00, 
1861.00, 
1862.00, 
1863.00, 
1864.00, 
1865.00, 
1866.00, 
1867.00, 
1868.00, 
1869.00, 
1870.00, 
1871.00, 
1872.00, 
1873.00, 
1874.00, 
1875.00, 
1876.00, 
1877.00, 
1878.00, 
1879.00, 
1880.00, 
1881.00, 
1882.00, 
1883.00, 
1884.00, 
1885.00, 
1886.00, 
1887.00, 
1888.00, 
1889.00, 
1890.00, 
1891.00, 
1892.00, 
1893.00, 
1894.00, 
1895.00, 
1896.00, 
1897.00, 
1898.00, 
1899.00, 
1900.00, 
1901.00, 
1902.00, 
1903.00, 
1904.00, 
1905.00, 
1906.00, 
1907.00, 
1908.00, 
1909.00, 
1910.00, 
1911.00, 
1912.00, 
1913.00, 
1914.00, 
1915.00, 
1916.00, 
1917.00, 
1918.00, 
1919.00, 
1920.00, 
1921.00, 
1922.00, 
1923.00, 
1924.00, 
1925.00, 
1926.00, 
1927.00, 
1928.00, 
1929.00, 
1930.00, 
1931.00, 
1932.00, 
1933.00, 
1934.00, 
1935.00, 
1936.00, 
1937.00, 
1938.00, 
1939.00, 
1940.00, 
1941.00, 
1942.00, 
1943.00, 
1944.00, 
1945.00, 
1946.00, 
1947.00, 
1948.00, 
1949.00, 
1950.00, 
1951.00, 
1952.00, 
1953.00, 
1954.00, 
1955.00, 
1956.00, 
1957.00, 
1958.00, 
1959.00, 
1960.00, 
1961.00, 
1962.00, 
1963.00, 
1964.00, 
1965.00, 
1966.00, 
1967.00, 
1968.00, 
1969.00, 
1970.00, 
1971.00, 
1972.00, 
1973.00, 
1974.00, 
1975.00, 
1976.00, 
1977.00, 
1978.00, 
1979.00, 
1980.00, 
1981.00, 
1982.00, 
1983.00, 
1984.00, 
1985.00, 
1986.00, 
1987.00, 
1988.00, 
1989.00, 
1990.00, 
1991.00, 
1992.00, 
1993.00, 
1994.00, 
1995.00, 
1996.00, 
1997.00, 
1998.00, 
1999.00, 
2000.00, 
2001.00, 
2002.00, 
2003.00, 
2004.00, 
2005.00, 
2006.00, 
2007.00, 
2008.00, 
2009.00, 
2010.00, 
2011.00, 
2012.00, 
2013.00, 
2014.00, 
2015.00, 
2016.00, 
2017.00, 
2018.00, 
2019.00, 
2020.00, 
2021.00, 
2022.00, 
2023.00, 
2024.00, 
2025.00, 
2026.00, 
2027.00, 
2028.00, 
2029.00, 
2030.00, 
2031.00, 
2032.00, 
2033.00, 
2034.00, 
2035.00, 
2036.00, 
2037.00, 
2038.00, 
2039.00, 
2040.00, 
2041.00, 
2042.00, 
2043.00, 
2044.00, 
2045.00, 
2046.00, 
2047.00, 
2048.00, 
2049.00, 
2050.00, 
2051.00, 
2052.00, 
2053.00, 
2054.00, 
2055.00, 
2056.00, 
2057.00, 
2058.00, 
2059.00, 
2060.00, 
2061.00, 
2062.00, 
2063.00, 
2064.00, 
2065.00, 
2066.00, 
2067.00, 
2068.00, 
2069.00, 
2070.00, 
2071.00, 
2072.00, 
2073.00, 
2074.00, 
2075.00, 
2076.00, 
2077.00, 
2078.00, 
2079.00, 
2080.00, 
2081.00, 
2082.00, 
2083.00, 
2084.00, 
2085.00, 
2086.00, 
2087.00, 
2088.00, 
2089.00, 
2090.00, 
2091.00, 
2092.00, 
2093.00, 
2094.00, 
2095.00, 
2096.00, 
2097.00, 
2098.00, 
2099.00, 
2100.00, 
2101.00, 
2102.00, 
2103.00, 
2104.00, 
2105.00, 
2106.00, 
2107.00, 
2108.00, 
2109.00, 
2110.00, 
2111.00, 
2112.00, 
2113.00, 
2114.00, 
2115.00, 
2116.00, 
2117.00, 
2118.00, 
2119.00, 
2120.00, 
2121.00, 
2122.00, 
2123.00, 
2124.00, 
2125.00, 
2126.00, 
2127.00, 
2128.00, 
2129.00, 
2130.00, 
2131.00, 
2132.00, 
2133.00, 
2134.00, 
2135.00, 
2136.00, 
2137.00, 
2138.00, 
2139.00, 
2140.00, 
2141.00, 
2142.00, 
2143.00, 
2144.00, 
2145.00, 
2146.00, 
2147.00, 
2148.00, 
2149.00, 
2150.00, 
2151.00, 
2152.00, 
2153.00, 
2154.00, 
2155.00, 
2156.00, 
2157.00, 
2158.00, 
2159.00, 
2160.00, 
2161.00, 
2162.00, 
2163.00, 
2164.00, 
2165.00, 
2166.00, 
2167.00, 
2168.00, 
2169.00, 
2170.00, 
2171.00, 
2172.00, 
2173.00, 
2174.00, 
2175.00, 
2176.00, 
2177.00, 
2178.00, 
2179.00, 
2180.00, 
2181.00, 
2182.00, 
2183.00, 
2184.00, 
2185.00, 
2186.00, 
2187.00, 
2188.00, 
2189.00, 
2190.00, 
2191.00, 
2192.00, 
2193.00, 
2194.00, 
2195.00, 
2196.00, 
2197.00, 
2198.00, 
2199.00, 
2200.00, 
2201.00, 
2202.00, 
2203.00, 
2204.00, 
2205.00, 
2206.00, 
2207.00, 
2208.00, 
2209.00, 
2210.00, 
2211.00, 
2212.00, 
2213.00, 
2214.00, 
2215.00, 
2216.00, 
2217.00, 
2218.00, 
2219.00, 
2220.00, 
2221.00, 
2222.00, 
2223.00, 
2224.00, 
2225.00, 
2226.00, 
2227.00, 
2228.00, 
2229.00, 
2230.00, 
2231.00, 
2232.00, 
2233.00, 
2234.00, 
2235.00, 
2236.00, 
2237.00, 
2238.00, 
2239.00, 
2240.00, 
2241.00, 
2242.00, 
2243.00, 
2244.00, 
2245.00, 
2246.00, 
2247.00, 
2248.00, 
2249.00, 
2250.00, 
2251.00, 
2252.00, 
2253.00, 
2254.00, 
2255.00, 
2256.00, 
2257.00, 
2258.00, 
2259.00, 
2260.00, 
2261.00, 
2262.00, 
2263.00, 
2264.00, 
2265.00, 
2266.00, 
2267.00, 
2268.00, 
2269.00, 
2270.00, 
2271.00, 
2272.00, 
2273.00, 
2274.00, 
2275.00, 
2276.00, 
2277.00, 
2278.00, 
2279.00, 
2280.00, 
2281.00, 
2282.00, 
2283.00, 
2284.00, 
2285.00, 
2286.00, 
2287.00, 
2288.00, 
2289.00, 
2290.00, 
2291.00, 
2292.00, 
2293.00, 
2294.00, 
2295.00, 
2296.00, 
2297.00, 
2298.00, 
2299.00, 
2300.00, 
2301.00, 
2302.00, 
2303.00, 
2304.00, 
2305.00, 
2306.00, 
2307.00, 
2308.00, 
2309.00, 
2310.00, 
2311.00, 
2312.00, 
2313.00, 
2314.00, 
2315.00, 
2316.00, 
2317.00, 
2318.00, 
2319.00, 
2320.00, 
2321.00, 
2322.00, 
2323.00, 
2324.00, 
2325.00, 
2326.00, 
2327.00, 
2328.00, 
2329.00, 
2330.00, 
2331.00, 
2332.00, 
2333.00, 
2334.00, 
2335.00, 
2336.00, 
2337.00, 
2338.00, 
2339.00, 
2340.00, 
2341.00, 
2342.00, 
2343.00, 
2344.00, 
2345.00, 
2346.00, 
2347.00, 
2348.00, 
2349.00, 
2350.00, 
2351.00, 
2352.00, 
2353.00, 
2354.00, 
2355.00, 
2356.00, 
2357.00, 
2358.00, 
2359.00, 
2360.00, 
2361.00, 
2362.00, 
2363.00, 
2364.00, 
2365.00, 
2366.00, 
2367.00, 
2368.00, 
2369.00, 
2370.00, 
2371.00, 
2372.00, 
2373.00, 
2374.00, 
2375.00, 
2376.00, 
2377.00, 
2378.00, 
2379.00, 
2380.00, 
2381.00, 
2382.00, 
2383.00, 
2384.00, 
2385.00, 
2386.00, 
2387.00, 
2388.00, 
2389.00, 
2390.00, 
2391.00, 
2392.00, 
2393.00, 
2394.00, 
2395.00, 
2396.00, 
2397.00, 
2398.00, 
2399.00, 
2400.00, 
2401.00, 
2402.00, 
2403.00, 
2404.00, 
2405.00, 
2406.00, 
2407.00, 
2408.00, 
2409.00, 
2410.00, 
2411.00, 
2412.00, 
2413.00, 
2414.00, 
2415.00, 
2416.00, 
2417.00, 
2418.00, 
2419.00, 
2420.00, 
2421.00, 
2422.00, 
2423.00, 
2424.00, 
2425.00, 
2426.00, 
2427.00, 
2428.00, 
2429.00, 
2430.00, 
2431.00, 
2432.00, 
2433.00, 
2434.00, 
2435.00, 
2436.00, 
2437.00, 
2438.00, 
2439.00, 
2440.00, 
2441.00, 
2442.00, 
2443.00, 
2444.00, 
2445.00, 
2446.00, 
2447.00, 
2448.00, 
2449.00, 
2450.00, 
2451.00, 
2452.00, 
2453.00, 
2454.00, 
2455.00, 
2456.00, 
2457.00, 
2458.00, 
2459.00, 
2460.00, 
2461.00, 
2462.00, 
2463.00, 
2464.00, 
2465.00, 
2466.00, 
2467.00, 
2468.00, 
2469.00, 
2470.00, 
2471.00, 
2472.00, 
2473.00, 
2474.00, 
2475.00, 
2476.00, 
2477.00, 
2478.00, 
2479.00, 
2480.00, 
2481.00, 
2482.00, 
2483.00, 
2484.00, 
2485.00, 
2486.00, 
2487.00, 
2488.00, 
2489.00, 
2490.00, 
2491.00, 
2492.00, 
2493.00, 
2494.00, 
2495.00, 
2496.00, 
2497.00, 
2498.00, 
2499.00, 
2500.00, 
2501.00, 
2502.00, 
2503.00, 
2504.00, 
2505.00, 
2506.00, 
2507.00, 
2508.00, 
2509.00, 
2510.00, 
2511.00, 
2512.00, 
2513.00, 
2514.00, 
2515.00, 
2516.00, 
2517.00, 
2518.00, 
2519.00, 
2520.00, 
2521.00, 
2522.00, 
2523.00, 
2524.00, 
2525.00, 
2526.00, 
2527.00, 
2528.00, 
2529.00, 
2530.00, 
2531.00, 
2532.00, 
2533.00, 
2534.00, 
2535.00, 
2536.00, 
2537.00, 
2538.00, 
2539.00, 
2540.00, 
2541.00, 
2542.00, 
2543.00, 
2544.00, 
2545.00, 
2546.00, 
2547.00, 
2548.00, 
2549.00, 
2550.00, 
2551.00, 
2552.00, 
2553.00, 
2554.00, 
2555.00, 
2556.00, 
2557.00, 
2558.00, 
2559.00, 
2560.00, 
2561.00, 
2562.00, 
2563.00, 
2564.00, 
2565.00, 
2566.00, 
2567.00, 
2568.00, 
2569.00, 
2570.00, 
2571.00, 
2572.00, 
2573.00, 
2574.00, 
2575.00, 
2576.00, 
2577.00, 
2578.00, 
2579.00, 
2580.00, 
2581.00, 
2582.00, 
2583.00, 
2584.00, 
2585.00, 
2586.00, 
2587.00, 
2588.00, 
2589.00, 
2590.00, 
2591.00, 
2592.00, 
2593.00, 
2594.00, 
2595.00, 
2596.00, 
2597.00, 
2598.00, 
2599.00, 
2600.00, 
