"1cP5 - RawData"
"Wavelength nm.","T%"
200.00,0.003
201.00,0.001
202.00,0.001
203.00,-0.000
204.00,0.000
205.00,0.003
206.00,0.002
207.00,0.003
208.00,-0.000
209.00,0.000
210.00,0.003
211.00,-0.001
212.00,0.000
213.00,0.001
214.00,0.002
215.00,-0.001
216.00,-0.000
217.00,0.002
218.00,0.002
219.00,0.003
220.00,-0.002
221.00,0.000
222.00,0.001
223.00,0.002
224.00,0.001
225.00,0.000
226.00,-0.001
227.00,0.002
228.00,0.003
229.00,0.003
230.00,0.000
231.00,0.002
232.00,-0.001
233.00,0.002
234.00,0.003
235.00,0.002
236.00,0.000
237.00,-0.001
238.00,-0.000
239.00,0.002
240.00,-0.000
241.00,0.000
242.00,0.000
243.00,0.001
244.00,-0.001
245.00,-0.000
246.00,0.001
247.00,0.002
248.00,0.001
249.00,-0.001
250.00,0.000
251.00,-0.000
252.00,0.001
253.00,0.001
254.00,-0.001
255.00,0.002
256.00,0.001
257.00,-0.000
258.00,0.000
259.00,0.002
260.00,0.000
261.00,0.000
262.00,0.002
263.00,0.001
264.00,0.001
265.00,0.001
266.00,0.002
267.00,-0.001
268.00,0.001
269.00,0.000
270.00,0.001
271.00,0.002
272.00,-0.000
273.00,0.000
274.00,-0.001
275.00,0.000
276.00,-0.001
277.00,0.001
278.00,0.001
279.00,-0.002
280.00,-0.000
281.00,0.001
282.00,0.001
283.00,0.001
284.00,0.000
285.00,0.003
286.00,-0.001
287.00,-0.000
288.00,-0.001
289.00,0.001
290.00,-0.000
291.00,0.002
292.00,0.001
293.00,0.000
294.00,-0.001
295.00,0.000
296.00,-0.002
297.00,-0.000
298.00,0.001
299.00,0.001
300.00,0.000
301.00,0.001
302.00,0.000
303.00,0.001
304.00,0.001
305.00,0.002
306.00,0.004
307.00,0.004
308.00,0.007
309.00,0.013
310.00,0.019
311.00,0.032
312.00,0.050
313.00,0.075
314.00,0.113
315.00,0.167
316.00,0.235
317.00,0.338
318.00,0.463
319.00,0.627
320.00,0.823
321.00,1.079
322.00,1.371
323.00,1.741
324.00,2.144
325.00,2.575
326.00,3.063
327.00,3.648
328.00,4.284
329.00,4.923
330.00,5.637
331.00,6.381
332.00,7.155
333.00,8.015
334.00,8.821
335.00,9.746
336.00,10.601
337.00,11.531
338.00,12.423
339.00,13.238
340.00,14.128
341.00,14.992
342.00,15.813
343.00,16.616
344.00,17.429
345.00,18.106
346.00,18.901
347.00,19.569
348.00,20.272
349.00,20.904
350.00,21.406
351.00,21.983
352.00,22.466
353.00,22.991
354.00,23.457
355.00,23.860
356.00,24.296
357.00,24.696
358.00,24.982
359.00,25.279
360.00,25.589
361.00,25.822
362.00,26.105
363.00,26.376
364.00,26.565
365.00,26.819
366.00,27.005
367.00,27.079
368.00,27.237
369.00,27.321
370.00,27.352
371.00,27.463
372.00,27.452
373.00,27.403
374.00,27.347
375.00,27.403
376.00,27.288
377.00,27.229
378.00,27.168
379.00,27.118
380.00,27.086
381.00,27.046
382.00,27.113
383.00,27.171
384.00,27.246
385.00,27.410
386.00,27.438
387.00,27.505
388.00,27.597
389.00,27.717
390.00,27.782
391.00,27.856
392.00,27.975
393.00,28.048
394.00,28.016
395.00,27.978
396.00,27.978
397.00,28.134
398.00,28.179
399.00,28.207
400.00,28.185
401.00,28.215
402.00,28.246
403.00,28.249
404.00,28.235
405.00,28.203
406.00,28.244
407.00,28.167
408.00,28.203
409.00,28.157
410.00,28.088
411.00,28.064
412.00,28.099
413.00,28.123
414.00,28.084
415.00,28.104
416.00,28.107
417.00,28.141
418.00,28.172
419.00,28.173
420.00,28.161
421.00,28.278
422.00,28.325
423.00,28.336
424.00,28.307
425.00,28.363
426.00,28.414
427.00,28.449
428.00,28.517
429.00,28.602
430.00,28.594
431.00,28.665
432.00,28.711
433.00,28.745
434.00,28.751
435.00,28.835
436.00,28.942
437.00,28.929
438.00,29.077
439.00,29.117
440.00,29.096
441.00,29.309
442.00,29.379
443.00,29.469
444.00,29.528
445.00,29.591
446.00,29.689
447.00,29.784
448.00,29.866
449.00,30.008
450.00,30.105
451.00,30.237
452.00,30.346
453.00,30.438
454.00,30.610
455.00,30.639
456.00,30.743
457.00,30.919
458.00,31.009
459.00,31.119
460.00,31.235
461.00,31.362
462.00,31.511
463.00,31.605
464.00,31.776
465.00,31.865
466.00,31.959
467.00,32.081
468.00,32.202
469.00,32.376
470.00,32.391
471.00,32.541
472.00,32.682
473.00,32.745
474.00,32.835
475.00,33.009
476.00,33.126
477.00,33.233
478.00,33.319
479.00,33.425
480.00,33.584
481.00,33.708
482.00,33.841
483.00,33.989
484.00,34.074
485.00,34.287
486.00,34.411
487.00,34.525
488.00,34.681
489.00,34.825
490.00,34.949
491.00,35.070
492.00,35.161
493.00,35.323
494.00,35.350
495.00,35.411
496.00,35.443
497.00,35.533
498.00,35.843
499.00,36.002
500.00,36.037
501.00,36.178
502.00,36.260
503.00,36.403
504.00,36.535
505.00,36.658
506.00,36.776
507.00,36.848
508.00,36.925
509.00,37.078
510.00,37.123
511.00,37.302
512.00,37.355
513.00,37.436
514.00,37.643
515.00,37.751
516.00,37.872
517.00,38.014
518.00,38.064
519.00,38.192
520.00,38.273
521.00,38.257
522.00,38.385
523.00,38.574
524.00,38.553
525.00,38.571
526.00,38.739
527.00,38.808
528.00,38.906
529.00,38.968
530.00,38.938
531.00,39.174
532.00,39.205
533.00,39.289
534.00,39.276
535.00,39.409
536.00,39.531
537.00,39.497
538.00,39.657
539.00,39.698
540.00,39.678
541.00,39.848
542.00,39.849
543.00,39.889
544.00,39.981
545.00,39.900
546.00,40.064
547.00,40.090
548.00,40.075
549.00,40.231
550.00,40.280
551.00,40.216
552.00,40.296
553.00,40.424
554.00,40.576
555.00,40.696
556.00,40.728
557.00,40.741
558.00,40.765
559.00,40.842
560.00,40.903
561.00,40.961
562.00,41.017
563.00,41.022
564.00,41.075
565.00,41.137
566.00,41.193
567.00,41.173
568.00,41.175
569.00,41.220
570.00,41.170
571.00,41.240
572.00,41.268
573.00,41.338
574.00,41.406
575.00,41.425
576.00,41.410
577.00,41.481
578.00,41.445
579.00,41.496
580.00,41.584
581.00,41.645
582.00,41.692
583.00,41.744
584.00,41.822
585.00,41.803
586.00,41.815
587.00,41.886
588.00,42.015
589.00,42.042
590.00,42.026
591.00,42.013
592.00,42.010
593.00,42.060
594.00,42.106
595.00,42.042
596.00,42.175
597.00,42.263
598.00,42.264
599.00,42.303
600.00,42.289
601.00,42.357
602.00,42.483
603.00,42.595
604.00,42.521
605.00,42.582
606.00,42.682
607.00,42.627
608.00,42.601
609.00,42.455
610.00,42.604
611.00,42.704
612.00,42.744
613.00,42.672
614.00,42.744
615.00,42.690
616.00,42.763
617.00,42.883
618.00,42.939
619.00,42.970
620.00,42.929
621.00,42.972
622.00,43.051
623.00,43.091
624.00,43.126
625.00,43.189
626.00,43.214
627.00,43.263
628.00,43.312
629.00,43.343
630.00,43.437
631.00,43.443
632.00,43.445
633.00,43.526
634.00,43.469
635.00,43.548
636.00,43.710
637.00,43.780
638.00,43.896
639.00,43.926
640.00,43.958
641.00,43.860
642.00,43.870
643.00,44.032
644.00,44.225
645.00,44.177
646.00,44.195
647.00,44.234
648.00,44.415
649.00,44.568
650.00,44.476
651.00,44.524
652.00,44.546
653.00,44.798
654.00,44.863
655.00,44.627
656.00,44.608
657.00,45.059
658.00,45.098
659.00,45.210
660.00,45.181
661.00,45.180
662.00,45.426
663.00,45.285
664.00,45.308
665.00,45.376
666.00,45.392
667.00,45.741
668.00,45.636
669.00,45.650
670.00,45.675
671.00,45.890
672.00,45.794
673.00,46.015
674.00,46.132
675.00,46.046
676.00,46.088
677.00,46.094
678.00,46.332
679.00,46.283
680.00,46.280
681.00,46.422
682.00,46.538
683.00,46.685
684.00,46.879
685.00,46.977
686.00,46.784
687.00,46.867
688.00,46.995
689.00,46.949
690.00,46.980
691.00,46.936
692.00,47.137
693.00,47.331
694.00,46.994
695.00,46.972
696.00,47.269
697.00,47.476
698.00,47.550
699.00,47.605
700.00,47.809
701.00,47.921
702.00,47.864
703.00,47.811
704.00,47.947
705.00,48.045
706.00,48.337
707.00,48.123
708.00,47.922
709.00,48.066
710.00,48.209
711.00,48.205
712.00,48.151
713.00,48.284
714.00,48.252
715.00,48.297
716.00,48.531
717.00,48.357
718.00,48.433
719.00,48.587
720.00,48.561
721.00,52.812
722.00,52.806
723.00,52.843
724.00,52.886
725.00,52.776
726.00,52.786
727.00,52.821
728.00,52.824
729.00,52.838
730.00,52.891
731.00,52.789
732.00,52.877
733.00,52.856
734.00,52.940
735.00,52.815
736.00,52.862
737.00,52.922
738.00,52.913
739.00,52.946
740.00,52.972
741.00,52.957
742.00,52.932
743.00,52.965
744.00,52.889
745.00,52.962
746.00,52.895
747.00,52.847
748.00,52.868
749.00,52.857
750.00,52.890
751.00,52.822
752.00,52.894
753.00,52.847
754.00,52.791
755.00,52.719
756.00,52.791
757.00,52.725
758.00,52.753
759.00,52.782
760.00,52.738
761.00,52.737
762.00,52.765
763.00,52.811
764.00,52.787
765.00,52.744
766.00,52.712
767.00,52.848
768.00,52.800
769.00,52.658
770.00,52.690
771.00,52.742
772.00,52.656
773.00,52.699
774.00,52.680
775.00,52.710
776.00,52.551
777.00,52.721
778.00,52.649
779.00,52.629
780.00,52.628
781.00,52.592
782.00,52.586
783.00,52.583
784.00,52.574
785.00,52.560
786.00,52.559
787.00,52.481
788.00,52.409
789.00,52.480
790.00,52.417
791.00,52.464
792.00,52.444
793.00,52.440
794.00,52.408
795.00,52.409
796.00,52.396
797.00,52.279
798.00,52.272
799.00,52.327
800.00,52.246
801.00,52.156
802.00,52.186
803.00,52.264
804.00,52.077
805.00,52.101
806.00,52.133
807.00,52.113
808.00,52.119
809.00,52.034
810.00,52.121
811.00,51.966
812.00,52.026
813.00,52.019
814.00,51.993
815.00,52.001
816.00,51.991
817.00,51.949
818.00,51.842
819.00,51.856
820.00,51.809
821.00,51.847
822.00,51.870
823.00,51.686
824.00,51.814
825.00,51.655
826.00,51.701
827.00,51.695
828.00,51.705
829.00,51.702
830.00,51.690
831.00,54.056
832.00,54.002
833.00,54.008
834.00,54.036
835.00,53.967
836.00,53.972
837.00,53.907
838.00,53.928
839.00,53.850
840.00,53.853
841.00,53.844
842.00,53.766
843.00,53.807
844.00,53.785
845.00,53.747
846.00,53.763
847.00,53.684
848.00,53.691
849.00,53.652
850.00,53.584
851.00,53.582
852.00,53.533
853.00,53.532
854.00,53.474
855.00,53.424
856.00,53.406
857.00,53.395
858.00,53.399
859.00,53.371
860.00,53.328
861.00,53.320
862.00,53.330
863.00,53.299
864.00,53.294
865.00,53.293
866.00,53.185
867.00,53.190
868.00,53.246
869.00,53.211
870.00,53.207
871.00,53.175
872.00,53.186
873.00,53.150
874.00,53.174
875.00,53.158
876.00,53.162
877.00,53.139
878.00,53.068
879.00,53.148
880.00,53.159
881.00,53.073
882.00,53.083
883.00,53.054
884.00,52.999
885.00,52.985
886.00,52.974
887.00,52.958
888.00,52.869
889.00,52.889
890.00,52.883
891.00,52.880
892.00,52.809
893.00,52.805
894.00,52.804
895.00,52.816
896.00,52.741
897.00,52.743
898.00,52.722
899.00,52.723
900.00,52.636
901.00,52.672
902.00,52.617
903.00,52.631
904.00,52.568
905.00,52.580
906.00,52.549
907.00,52.598
908.00,52.522
909.00,52.506
910.00,52.489
911.00,52.476
912.00,52.470
913.00,52.400
914.00,52.414
915.00,52.435
916.00,52.393
917.00,52.335
918.00,52.355
919.00,52.341
920.00,52.283
921.00,52.274
922.00,52.284
923.00,52.226
924.00,52.198
925.00,52.214
926.00,52.190
927.00,52.160
928.00,52.121
929.00,52.111
930.00,52.072
931.00,52.040
932.00,52.040
933.00,52.006
934.00,52.007
935.00,51.962
936.00,51.966
937.00,51.965
938.00,51.928
939.00,51.901
940.00,51.909
941.00,51.884
942.00,51.845
943.00,51.845
944.00,51.812
945.00,51.786
946.00,51.795
947.00,51.740
948.00,51.732
949.00,51.730
950.00,51.672
951.00,51.650
952.00,51.672
953.00,51.626
954.00,51.590
955.00,51.577
956.00,51.552
957.00,51.495
958.00,51.502
959.00,51.486
960.00,51.434
961.00,51.427
962.00,51.455
963.00,51.407
964.00,51.412
965.00,51.379
966.00,51.397
967.00,51.395
968.00,51.359
969.00,51.363
970.00,51.371
971.00,51.372
972.00,51.303
973.00,51.354
974.00,51.339
975.00,51.337
976.00,51.318
977.00,51.346
978.00,51.341
979.00,51.283
980.00,51.352
981.00,51.361
982.00,51.308
983.00,51.396
984.00,51.344
985.00,51.322
986.00,51.293
987.00,51.320
988.00,51.289
989.00,51.275
990.00,51.256
991.00,51.275
992.00,51.272
993.00,51.224
994.00,51.224
995.00,51.187
996.00,51.176
997.00,51.161
998.00,51.165
999.00,51.175
1000.00,51.131
1001.00,51.127
1002.00,51.106
1003.00,51.117
1004.00,51.082
1005.00,51.075
1006.00,51.080
1007.00,51.071
1008.00,51.048
1009.00,51.028
1010.00,51.051
1011.00,50.992
1012.00,50.969
1013.00,50.997
1014.00,50.959
1015.00,50.963
1016.00,50.921
1017.00,50.919
1018.00,50.897
1019.00,50.886
1020.00,50.868
1021.00,50.879
1022.00,50.848
1023.00,50.809
1024.00,50.812
1025.00,50.786
1026.00,50.791
1027.00,50.752
1028.00,50.756
1029.00,50.724
1030.00,50.732
1031.00,50.704
1032.00,50.678
1033.00,50.681
1034.00,50.644
1035.00,50.639
1036.00,50.587
1037.00,50.594
1038.00,50.571
1039.00,50.518
1040.00,50.520
1041.00,50.512
1042.00,50.531
1043.00,50.464
1044.00,50.518
1045.00,50.481
1046.00,50.499
1047.00,50.484
1048.00,50.512
1049.00,50.518
1050.00,50.530
1051.00,50.544
1052.00,50.565
1053.00,50.603
1054.00,50.604
1055.00,50.600
1056.00,50.600
1057.00,50.604
1058.00,50.582
1059.00,50.587
1060.00,50.579
1061.00,50.573
1062.00,50.534
1063.00,50.553
1064.00,50.549
1065.00,50.554
1066.00,50.538
1067.00,50.536
1068.00,50.552
1069.00,50.520
1070.00,50.510
1071.00,50.499
1072.00,50.474
1073.00,50.468
1074.00,50.477
1075.00,50.445
1076.00,50.452
1077.00,50.458
1078.00,50.440
1079.00,50.442
1080.00,50.444
1081.00,50.424
1082.00,50.431
1083.00,50.409
1084.00,50.412
1085.00,50.394
1086.00,50.377
1087.00,50.367
1088.00,50.374
1089.00,50.347
1090.00,50.356
1091.00,50.356
1092.00,50.364
1093.00,50.316
1094.00,50.295
1095.00,50.306
1096.00,50.306
1097.00,50.269
1098.00,50.281
1099.00,50.276
1100.00,50.262
1101.00,50.244
1102.00,50.247
1103.00,50.254
1104.00,50.233
1105.00,50.187
1106.00,50.191
1107.00,50.185
1108.00,50.186
1109.00,50.169
1110.00,50.185
1111.00,50.171
1112.00,50.168
1113.00,50.157
1114.00,50.176
1115.00,50.158
1116.00,50.134
1117.00,50.112
1118.00,50.127
1119.00,50.117
1120.00,50.119
1121.00,50.118
1122.00,50.104
1123.00,50.088
1124.00,50.106
1125.00,50.109
1126.00,50.085
1127.00,50.070
1128.00,50.093
1129.00,50.069
1130.00,50.046
1131.00,50.048
1132.00,50.059
1133.00,50.033
1134.00,50.035
1135.00,50.018
1136.00,50.041
1137.00,49.986
1138.00,49.991
1139.00,50.030
1140.00,50.005
1141.00,49.982
1142.00,50.013
1143.00,50.043
1144.00,49.989
1145.00,49.992
1146.00,50.015
1147.00,49.995
1148.00,49.961
1149.00,49.993
1150.00,50.013
1151.00,49.991
1152.00,49.963
1153.00,49.982
1154.00,49.985
1155.00,49.979
1156.00,49.967
1157.00,49.987
1158.00,49.973
1159.00,49.961
1160.00,49.941
1161.00,49.973
1162.00,49.938
1163.00,49.932
1164.00,49.962
1165.00,49.985
1166.00,49.925
1167.00,49.936
1168.00,49.959
1169.00,49.945
1170.00,49.921
1171.00,49.926
1172.00,49.935
1173.00,49.902
1174.00,49.909
1175.00,49.933
1176.00,49.949
1177.00,49.917
1178.00,49.926
1179.00,49.948
1180.00,49.937
1181.00,49.916
1182.00,49.925
1183.00,49.959
1184.00,49.906
1185.00,49.938
1186.00,49.946
1187.00,49.959
1188.00,49.913
1189.00,49.929
1190.00,49.932
1191.00,49.922
1192.00,49.914
1193.00,49.914
1194.00,49.937
1195.00,49.903
1196.00,49.924
1197.00,49.945
1198.00,49.932
1199.00,49.925
1200.00,49.933
1201.00,49.927
1202.00,49.917
1203.00,49.908
1204.00,49.903
1205.00,49.929
1206.00,49.910
1207.00,49.931
1208.00,49.920
1209.00,49.942
1210.00,49.932
1211.00,49.918
1212.00,49.941
1213.00,49.906
1214.00,49.913
1215.00,49.898
1216.00,49.935
1217.00,49.914
1218.00,49.905
1219.00,49.934
1220.00,49.935
1221.00,49.941
1222.00,49.915
1223.00,49.954
1224.00,49.937
1225.00,49.905
1226.00,49.922
1227.00,49.949
1228.00,49.923
1229.00,49.954
1230.00,49.991
1231.00,49.958
1232.00,49.974
1233.00,49.976
1234.00,50.001
1235.00,49.988
1236.00,49.997
1237.00,49.991
1238.00,50.003
1239.00,49.994
1240.00,49.993
1241.00,50.033
1242.00,49.998
1243.00,50.021
1244.00,50.010
1245.00,50.028
1246.00,50.030
1247.00,50.017
1248.00,50.025
1249.00,50.042
1250.00,50.018
1251.00,50.018
1252.00,50.048
1253.00,50.032
1254.00,50.030
1255.00,50.041
1256.00,50.089
1257.00,50.075
1258.00,50.060
1259.00,50.064
1260.00,50.100
1261.00,50.072
1262.00,50.095
1263.00,50.097
1264.00,50.101
1265.00,50.097
1266.00,50.126
1267.00,50.137
1268.00,50.134
1269.00,50.119
1270.00,50.158
1271.00,50.145
1272.00,50.142
1273.00,50.162
1274.00,50.173
1275.00,50.154
1276.00,50.182
1277.00,50.187
1278.00,50.200
1279.00,50.192
1280.00,50.171
1281.00,50.201
1282.00,50.215
1283.00,50.185
1284.00,50.196
1285.00,50.186
1286.00,50.214
1287.00,50.221
1288.00,50.237
1289.00,50.200
1290.00,50.229
1291.00,50.236
1292.00,50.238
1293.00,50.264
1294.00,50.267
1295.00,50.294
1296.00,50.284
1297.00,50.291
1298.00,50.326
1299.00,50.292
1300.00,50.316
1301.00,50.326
1302.00,50.326
1303.00,50.342
1304.00,50.332
1305.00,50.350
1306.00,50.365
1307.00,50.384
1308.00,50.375
1309.00,50.380
1310.00,50.407
1311.00,50.392
1312.00,50.410
1313.00,50.402
1314.00,50.423
1315.00,50.416
1316.00,50.428
1317.00,50.444
1318.00,50.463
1319.00,50.453
1320.00,50.469
1321.00,50.601
1322.00,50.628
1323.00,50.604
1324.00,50.618
1325.00,50.593
1326.00,50.649
1327.00,50.587
1328.00,50.608
1329.00,50.596
1330.00,50.594
1331.00,50.591
1332.00,50.603
1333.00,50.603
1334.00,50.635
1335.00,50.641
1336.00,50.736
1337.00,50.741
1338.00,50.781
1339.00,50.841
1340.00,50.904
1341.00,50.934
1342.00,50.995
1343.00,51.057
1344.00,51.102
1345.00,51.153
1346.00,51.141
1347.00,51.136
1348.00,51.232
1349.00,51.222
1350.00,51.274
1351.00,51.327
1352.00,51.333
1353.00,51.242
1354.00,51.322
1355.00,51.270
1356.00,51.431
1357.00,51.322
1358.00,51.302
1359.00,51.386
1360.00,51.414
1361.00,51.833
1362.00,51.077
1363.00,51.412
1364.00,51.453
1365.00,51.450
1366.00,51.603
1367.00,51.475
1368.00,51.225
1369.00,51.394
1370.00,51.381
1371.00,51.352
1372.00,51.349
1373.00,51.446
1374.00,51.361
1375.00,51.382
1376.00,51.446
1377.00,51.349
1378.00,51.454
1379.00,51.356
1380.00,51.463
1381.00,51.438
1382.00,51.476
1383.00,51.400
1384.00,51.391
1385.00,51.324
1386.00,51.318
1387.00,51.407
1388.00,51.391
1389.00,51.267
1390.00,51.236
1391.00,51.442
1392.00,51.435
1393.00,51.482
1394.00,51.410
1395.00,51.257
1396.00,51.365
1397.00,51.309
1398.00,51.288
1399.00,51.491
1400.00,51.379
1401.00,51.341
1402.00,51.384
1403.00,51.506
1404.00,51.306
1405.00,51.439
1406.00,51.348
1407.00,51.432
1408.00,51.433
1409.00,51.477
1410.00,51.479
1411.00,51.354
1412.00,51.603
1413.00,51.567
1414.00,51.321
1415.00,51.470
1416.00,51.519
1417.00,51.637
1418.00,51.532
1419.00,51.501
1420.00,51.585
1421.00,51.652
1422.00,51.620
1423.00,51.638
1424.00,51.621
1425.00,51.629
1426.00,51.640
1427.00,51.666
1428.00,51.663
1429.00,51.687
1430.00,51.700
1431.00,51.671
1432.00,51.736
1433.00,51.738
1434.00,51.725
1435.00,51.824
1436.00,51.775
1437.00,51.813
1438.00,51.820
1439.00,51.884
1440.00,51.880
1441.00,51.855
1442.00,51.874
1443.00,51.955
1444.00,51.972
1445.00,51.895
1446.00,51.939
1447.00,51.978
1448.00,52.037
1449.00,52.057
1450.00,52.021
1451.00,52.036
1452.00,52.055
1453.00,52.109
1454.00,52.113
1455.00,52.115
1456.00,52.148
1457.00,52.177
1458.00,52.159
1459.00,52.155
1460.00,52.212
1461.00,52.220
1462.00,52.250
1463.00,52.260
1464.00,52.308
1465.00,52.321
1466.00,52.287
1467.00,52.345
1468.00,52.430
1469.00,52.389
1470.00,52.384
1471.00,52.430
1472.00,52.438
1473.00,52.441
1474.00,52.482
1475.00,52.492
1476.00,52.503
1477.00,52.463
1478.00,52.501
1479.00,52.542
1480.00,52.508
1481.00,52.537
1482.00,52.578
1483.00,52.591
1484.00,52.597
1485.00,52.608
1486.00,52.633
1487.00,52.662
1488.00,52.641
1489.00,52.664
1490.00,52.677
1491.00,52.687
1492.00,52.685
1493.00,52.712
1494.00,52.723
1495.00,52.715
1496.00,52.737
1497.00,52.759
1498.00,52.753
1499.00,52.743
1500.00,52.771
1501.00, 
1502.00, 
1503.00, 
1504.00, 
1505.00, 
1506.00, 
1507.00, 
1508.00, 
1509.00, 
1510.00, 
1511.00, 
1512.00, 
1513.00, 
1514.00, 
1515.00, 
1516.00, 
1517.00, 
1518.00, 
1519.00, 
1520.00, 
1521.00, 
1522.00, 
1523.00, 
1524.00, 
1525.00, 
1526.00, 
1527.00, 
1528.00, 
1529.00, 
1530.00, 
1531.00, 
1532.00, 
1533.00, 
1534.00, 
1535.00, 
1536.00, 
1537.00, 
1538.00, 
1539.00, 
1540.00, 
1541.00, 
1542.00, 
1543.00, 
1544.00, 
1545.00, 
1546.00, 
1547.00, 
1548.00, 
1549.00, 
1550.00, 
1551.00, 
1552.00, 
1553.00, 
1554.00, 
1555.00, 
1556.00, 
1557.00, 
1558.00, 
1559.00, 
1560.00, 
1561.00, 
1562.00, 
1563.00, 
1564.00, 
1565.00, 
1566.00, 
1567.00, 
1568.00, 
1569.00, 
1570.00, 
1571.00, 
1572.00, 
1573.00, 
1574.00, 
1575.00, 
1576.00, 
1577.00, 
1578.00, 
1579.00, 
1580.00, 
1581.00, 
1582.00, 
1583.00, 
1584.00, 
1585.00, 
1586.00, 
1587.00, 
1588.00, 
1589.00, 
1590.00, 
1591.00, 
1592.00, 
1593.00, 
1594.00, 
1595.00, 
1596.00, 
1597.00, 
1598.00, 
1599.00, 
1600.00, 
1601.00, 
1602.00, 
1603.00, 
1604.00, 
1605.00, 
1606.00, 
1607.00, 
1608.00, 
1609.00, 
1610.00, 
1611.00, 
1612.00, 
1613.00, 
1614.00, 
1615.00, 
1616.00, 
1617.00, 
1618.00, 
1619.00, 
1620.00, 
1621.00, 
1622.00, 
1623.00, 
1624.00, 
1625.00, 
1626.00, 
1627.00, 
1628.00, 
1629.00, 
1630.00, 
1631.00, 
1632.00, 
1633.00, 
1634.00, 
1635.00, 
1636.00, 
1637.00, 
1638.00, 
1639.00, 
1640.00, 
1641.00, 
1642.00, 
1643.00, 
1644.00, 
1645.00, 
1646.00, 
1647.00, 
1648.00, 
1649.00, 
1650.00, 
1651.00, 
1652.00, 
1653.00, 
1654.00, 
1655.00, 
1656.00, 
1657.00, 
1658.00, 
1659.00, 
1660.00, 
1661.00, 
1662.00, 
1663.00, 
1664.00, 
1665.00, 
1666.00, 
1667.00, 
1668.00, 
1669.00, 
1670.00, 
1671.00, 
1672.00, 
1673.00, 
1674.00, 
1675.00, 
1676.00, 
1677.00, 
1678.00, 
1679.00, 
1680.00, 
1681.00, 
1682.00, 
1683.00, 
1684.00, 
1685.00, 
1686.00, 
1687.00, 
1688.00, 
1689.00, 
1690.00, 
1691.00, 
1692.00, 
1693.00, 
1694.00, 
1695.00, 
1696.00, 
1697.00, 
1698.00, 
1699.00, 
1700.00, 
1701.00, 
1702.00, 
1703.00, 
1704.00, 
1705.00, 
1706.00, 
1707.00, 
1708.00, 
1709.00, 
1710.00, 
1711.00, 
1712.00, 
1713.00, 
1714.00, 
1715.00, 
1716.00, 
1717.00, 
1718.00, 
1719.00, 
1720.00, 
1721.00, 
1722.00, 
1723.00, 
1724.00, 
1725.00, 
1726.00, 
1727.00, 
1728.00, 
1729.00, 
1730.00, 
1731.00, 
1732.00, 
1733.00, 
1734.00, 
1735.00, 
1736.00, 
1737.00, 
1738.00, 
1739.00, 
1740.00, 
1741.00, 
1742.00, 
1743.00, 
1744.00, 
1745.00, 
1746.00, 
1747.00, 
1748.00, 
1749.00, 
1750.00, 
1751.00, 
1752.00, 
1753.00, 
1754.00, 
1755.00, 
1756.00, 
1757.00, 
1758.00, 
1759.00, 
1760.00, 
1761.00, 
1762.00, 
1763.00, 
1764.00, 
1765.00, 
1766.00, 
1767.00, 
1768.00, 
1769.00, 
1770.00, 
1771.00, 
1772.00, 
1773.00, 
1774.00, 
1775.00, 
1776.00, 
1777.00, 
1778.00, 
1779.00, 
1780.00, 
1781.00, 
1782.00, 
1783.00, 
1784.00, 
1785.00, 
1786.00, 
1787.00, 
1788.00, 
1789.00, 
1790.00, 
1791.00, 
1792.00, 
1793.00, 
1794.00, 
1795.00, 
1796.00, 
1797.00, 
1798.00, 
1799.00, 
1800.00, 
1801.00, 
1802.00, 
1803.00, 
1804.00, 
1805.00, 
1806.00, 
1807.00, 
1808.00, 
1809.00, 
1810.00, 
1811.00, 
1812.00, 
1813.00, 
1814.00, 
1815.00, 
1816.00, 
1817.00, 
1818.00, 
1819.00, 
1820.00, 
1821.00, 
1822.00, 
1823.00, 
1824.00, 
1825.00, 
1826.00, 
1827.00, 
1828.00, 
1829.00, 
1830.00, 
1831.00, 
1832.00, 
1833.00, 
1834.00, 
1835.00, 
1836.00, 
1837.00, 
1838.00, 
1839.00, 
1840.00, 
1841.00, 
1842.00, 
1843.00, 
1844.00, 
1845.00, 
1846.00, 
1847.00, 
1848.00, 
1849.00, 
1850.00, 
1851.00, 
1852.00, 
1853.00, 
1854.00, 
1855.00, 
1856.00, 
1857.00, 
1858.00, 
1859.00, 
1860.00, 
1861.00, 
1862.00, 
1863.00, 
1864.00, 
1865.00, 
1866.00, 
1867.00, 
1868.00, 
1869.00, 
1870.00, 
1871.00, 
1872.00, 
1873.00, 
1874.00, 
1875.00, 
1876.00, 
1877.00, 
1878.00, 
1879.00, 
1880.00, 
1881.00, 
1882.00, 
1883.00, 
1884.00, 
1885.00, 
1886.00, 
1887.00, 
1888.00, 
1889.00, 
1890.00, 
1891.00, 
1892.00, 
1893.00, 
1894.00, 
1895.00, 
1896.00, 
1897.00, 
1898.00, 
1899.00, 
1900.00, 
1901.00, 
1902.00, 
1903.00, 
1904.00, 
1905.00, 
1906.00, 
1907.00, 
1908.00, 
1909.00, 
1910.00, 
1911.00, 
1912.00, 
1913.00, 
1914.00, 
1915.00, 
1916.00, 
1917.00, 
1918.00, 
1919.00, 
1920.00, 
1921.00, 
1922.00, 
1923.00, 
1924.00, 
1925.00, 
1926.00, 
1927.00, 
1928.00, 
1929.00, 
1930.00, 
1931.00, 
1932.00, 
1933.00, 
1934.00, 
1935.00, 
1936.00, 
1937.00, 
1938.00, 
1939.00, 
1940.00, 
1941.00, 
1942.00, 
1943.00, 
1944.00, 
1945.00, 
1946.00, 
1947.00, 
1948.00, 
1949.00, 
1950.00, 
1951.00, 
1952.00, 
1953.00, 
1954.00, 
1955.00, 
1956.00, 
1957.00, 
1958.00, 
1959.00, 
1960.00, 
1961.00, 
1962.00, 
1963.00, 
1964.00, 
1965.00, 
1966.00, 
1967.00, 
1968.00, 
1969.00, 
1970.00, 
1971.00, 
1972.00, 
1973.00, 
1974.00, 
1975.00, 
1976.00, 
1977.00, 
1978.00, 
1979.00, 
1980.00, 
1981.00, 
1982.00, 
1983.00, 
1984.00, 
1985.00, 
1986.00, 
1987.00, 
1988.00, 
1989.00, 
1990.00, 
1991.00, 
1992.00, 
1993.00, 
1994.00, 
1995.00, 
1996.00, 
1997.00, 
1998.00, 
1999.00, 
2000.00, 
2001.00, 
2002.00, 
2003.00, 
2004.00, 
2005.00, 
2006.00, 
2007.00, 
2008.00, 
2009.00, 
2010.00, 
2011.00, 
2012.00, 
2013.00, 
2014.00, 
2015.00, 
2016.00, 
2017.00, 
2018.00, 
2019.00, 
2020.00, 
2021.00, 
2022.00, 
2023.00, 
2024.00, 
2025.00, 
2026.00, 
2027.00, 
2028.00, 
2029.00, 
2030.00, 
2031.00, 
2032.00, 
2033.00, 
2034.00, 
2035.00, 
2036.00, 
2037.00, 
2038.00, 
2039.00, 
2040.00, 
2041.00, 
2042.00, 
2043.00, 
2044.00, 
2045.00, 
2046.00, 
2047.00, 
2048.00, 
2049.00, 
2050.00, 
2051.00, 
2052.00, 
2053.00, 
2054.00, 
2055.00, 
2056.00, 
2057.00, 
2058.00, 
2059.00, 
2060.00, 
2061.00, 
2062.00, 
2063.00, 
2064.00, 
2065.00, 
2066.00, 
2067.00, 
2068.00, 
2069.00, 
2070.00, 
2071.00, 
2072.00, 
2073.00, 
2074.00, 
2075.00, 
2076.00, 
2077.00, 
2078.00, 
2079.00, 
2080.00, 
2081.00, 
2082.00, 
2083.00, 
2084.00, 
2085.00, 
2086.00, 
2087.00, 
2088.00, 
2089.00, 
2090.00, 
2091.00, 
2092.00, 
2093.00, 
2094.00, 
2095.00, 
2096.00, 
2097.00, 
2098.00, 
2099.00, 
2100.00, 
2101.00, 
2102.00, 
2103.00, 
2104.00, 
2105.00, 
2106.00, 
2107.00, 
2108.00, 
2109.00, 
2110.00, 
2111.00, 
2112.00, 
2113.00, 
2114.00, 
2115.00, 
2116.00, 
2117.00, 
2118.00, 
2119.00, 
2120.00, 
2121.00, 
2122.00, 
2123.00, 
2124.00, 
2125.00, 
2126.00, 
2127.00, 
2128.00, 
2129.00, 
2130.00, 
2131.00, 
2132.00, 
2133.00, 
2134.00, 
2135.00, 
2136.00, 
2137.00, 
2138.00, 
2139.00, 
2140.00, 
2141.00, 
2142.00, 
2143.00, 
2144.00, 
2145.00, 
2146.00, 
2147.00, 
2148.00, 
2149.00, 
2150.00, 
2151.00, 
2152.00, 
2153.00, 
2154.00, 
2155.00, 
2156.00, 
2157.00, 
2158.00, 
2159.00, 
2160.00, 
2161.00, 
2162.00, 
2163.00, 
2164.00, 
2165.00, 
2166.00, 
2167.00, 
2168.00, 
2169.00, 
2170.00, 
2171.00, 
2172.00, 
2173.00, 
2174.00, 
2175.00, 
2176.00, 
2177.00, 
2178.00, 
2179.00, 
2180.00, 
2181.00, 
2182.00, 
2183.00, 
2184.00, 
2185.00, 
2186.00, 
2187.00, 
2188.00, 
2189.00, 
2190.00, 
2191.00, 
2192.00, 
2193.00, 
2194.00, 
2195.00, 
2196.00, 
2197.00, 
2198.00, 
2199.00, 
2200.00, 
2201.00, 
2202.00, 
2203.00, 
2204.00, 
2205.00, 
2206.00, 
2207.00, 
2208.00, 
2209.00, 
2210.00, 
2211.00, 
2212.00, 
2213.00, 
2214.00, 
2215.00, 
2216.00, 
2217.00, 
2218.00, 
2219.00, 
2220.00, 
2221.00, 
2222.00, 
2223.00, 
2224.00, 
2225.00, 
2226.00, 
2227.00, 
2228.00, 
2229.00, 
2230.00, 
2231.00, 
2232.00, 
2233.00, 
2234.00, 
2235.00, 
2236.00, 
2237.00, 
2238.00, 
2239.00, 
2240.00, 
2241.00, 
2242.00, 
2243.00, 
2244.00, 
2245.00, 
2246.00, 
2247.00, 
2248.00, 
2249.00, 
2250.00, 
2251.00, 
2252.00, 
2253.00, 
2254.00, 
2255.00, 
2256.00, 
2257.00, 
2258.00, 
2259.00, 
2260.00, 
2261.00, 
2262.00, 
2263.00, 
2264.00, 
2265.00, 
2266.00, 
2267.00, 
2268.00, 
2269.00, 
2270.00, 
2271.00, 
2272.00, 
2273.00, 
2274.00, 
2275.00, 
2276.00, 
2277.00, 
2278.00, 
2279.00, 
2280.00, 
2281.00, 
2282.00, 
2283.00, 
2284.00, 
2285.00, 
2286.00, 
2287.00, 
2288.00, 
2289.00, 
2290.00, 
2291.00, 
2292.00, 
2293.00, 
2294.00, 
2295.00, 
2296.00, 
2297.00, 
2298.00, 
2299.00, 
2300.00, 
2301.00, 
2302.00, 
2303.00, 
2304.00, 
2305.00, 
2306.00, 
2307.00, 
2308.00, 
2309.00, 
2310.00, 
2311.00, 
2312.00, 
2313.00, 
2314.00, 
2315.00, 
2316.00, 
2317.00, 
2318.00, 
2319.00, 
2320.00, 
2321.00, 
2322.00, 
2323.00, 
2324.00, 
2325.00, 
2326.00, 
2327.00, 
2328.00, 
2329.00, 
2330.00, 
2331.00, 
2332.00, 
2333.00, 
2334.00, 
2335.00, 
2336.00, 
2337.00, 
2338.00, 
2339.00, 
2340.00, 
2341.00, 
2342.00, 
2343.00, 
2344.00, 
2345.00, 
2346.00, 
2347.00, 
2348.00, 
2349.00, 
2350.00, 
2351.00, 
2352.00, 
2353.00, 
2354.00, 
2355.00, 
2356.00, 
2357.00, 
2358.00, 
2359.00, 
2360.00, 
2361.00, 
2362.00, 
2363.00, 
2364.00, 
2365.00, 
2366.00, 
2367.00, 
2368.00, 
2369.00, 
2370.00, 
2371.00, 
2372.00, 
2373.00, 
2374.00, 
2375.00, 
2376.00, 
2377.00, 
2378.00, 
2379.00, 
2380.00, 
2381.00, 
2382.00, 
2383.00, 
2384.00, 
2385.00, 
2386.00, 
2387.00, 
2388.00, 
2389.00, 
2390.00, 
2391.00, 
2392.00, 
2393.00, 
2394.00, 
2395.00, 
2396.00, 
2397.00, 
2398.00, 
2399.00, 
2400.00, 
2401.00, 
2402.00, 
2403.00, 
2404.00, 
2405.00, 
2406.00, 
2407.00, 
2408.00, 
2409.00, 
2410.00, 
2411.00, 
2412.00, 
2413.00, 
2414.00, 
2415.00, 
2416.00, 
2417.00, 
2418.00, 
2419.00, 
2420.00, 
2421.00, 
2422.00, 
2423.00, 
2424.00, 
2425.00, 
2426.00, 
2427.00, 
2428.00, 
2429.00, 
2430.00, 
2431.00, 
2432.00, 
2433.00, 
2434.00, 
2435.00, 
2436.00, 
2437.00, 
2438.00, 
2439.00, 
2440.00, 
2441.00, 
2442.00, 
2443.00, 
2444.00, 
2445.00, 
2446.00, 
2447.00, 
2448.00, 
2449.00, 
2450.00, 
2451.00, 
2452.00, 
2453.00, 
2454.00, 
2455.00, 
2456.00, 
2457.00, 
2458.00, 
2459.00, 
2460.00, 
2461.00, 
2462.00, 
2463.00, 
2464.00, 
2465.00, 
2466.00, 
2467.00, 
2468.00, 
2469.00, 
2470.00, 
2471.00, 
2472.00, 
2473.00, 
2474.00, 
2475.00, 
2476.00, 
2477.00, 
2478.00, 
2479.00, 
2480.00, 
2481.00, 
2482.00, 
2483.00, 
2484.00, 
2485.00, 
2486.00, 
2487.00, 
2488.00, 
2489.00, 
2490.00, 
2491.00, 
2492.00, 
2493.00, 
2494.00, 
2495.00, 
2496.00, 
2497.00, 
2498.00, 
2499.00, 
2500.00, 
2501.00, 
2502.00, 
2503.00, 
2504.00, 
2505.00, 
2506.00, 
2507.00, 
2508.00, 
2509.00, 
2510.00, 
2511.00, 
2512.00, 
2513.00, 
2514.00, 
2515.00, 
2516.00, 
2517.00, 
2518.00, 
2519.00, 
2520.00, 
2521.00, 
2522.00, 
2523.00, 
2524.00, 
2525.00, 
2526.00, 
2527.00, 
2528.00, 
2529.00, 
2530.00, 
2531.00, 
2532.00, 
2533.00, 
2534.00, 
2535.00, 
2536.00, 
2537.00, 
2538.00, 
2539.00, 
2540.00, 
2541.00, 
2542.00, 
2543.00, 
2544.00, 
2545.00, 
2546.00, 
2547.00, 
2548.00, 
2549.00, 
2550.00, 
2551.00, 
2552.00, 
2553.00, 
2554.00, 
2555.00, 
2556.00, 
2557.00, 
2558.00, 
2559.00, 
2560.00, 
2561.00, 
2562.00, 
2563.00, 
2564.00, 
2565.00, 
2566.00, 
2567.00, 
2568.00, 
2569.00, 
2570.00, 
2571.00, 
2572.00, 
2573.00, 
2574.00, 
2575.00, 
2576.00, 
2577.00, 
2578.00, 
2579.00, 
2580.00, 
2581.00, 
2582.00, 
2583.00, 
2584.00, 
2585.00, 
2586.00, 
2587.00, 
2588.00, 
2589.00, 
2590.00, 
2591.00, 
2592.00, 
2593.00, 
2594.00, 
2595.00, 
2596.00, 
2597.00, 
2598.00, 
2599.00, 
2600.00, 
