"2cP1 - RawData"
"Wavelength nm.","T%"
200.00,0.002
201.00,0.001
202.00,0.001
203.00,0.003
204.00,0.003
205.00,0.005
206.00,0.001
207.00,0.003
208.00,0.001
209.00,-0.000
210.00,0.002
211.00,-0.000
212.00,0.003
213.00,0.003
214.00,0.002
215.00,0.003
216.00,0.001
217.00,0.001
218.00,0.003
219.00,0.002
220.00,0.000
221.00,0.001
222.00,0.002
223.00,-0.002
224.00,0.000
225.00,0.003
226.00,0.004
227.00,0.001
228.00,0.001
229.00,0.001
230.00,0.002
231.00,0.001
232.00,0.002
233.00,0.001
234.00,-0.000
235.00,0.001
236.00,0.000
237.00,0.002
238.00,0.001
239.00,0.001
240.00,0.001
241.00,0.001
242.00,0.002
243.00,-0.000
244.00,0.002
245.00,-0.001
246.00,0.001
247.00,0.001
248.00,0.001
249.00,0.001
250.00,-0.000
251.00,0.001
252.00,0.000
253.00,-0.000
254.00,0.001
255.00,-0.000
256.00,0.000
257.00,0.002
258.00,-0.000
259.00,-0.000
260.00,0.001
261.00,0.000
262.00,0.002
263.00,0.001
264.00,0.001
265.00,-0.000
266.00,-0.000
267.00,-0.001
268.00,-0.001
269.00,0.000
270.00,-0.001
271.00,0.000
272.00,0.001
273.00,0.001
274.00,-0.001
275.00,-0.001
276.00,0.000
277.00,0.000
278.00,-0.001
279.00,0.001
280.00,-0.000
281.00,-0.002
282.00,0.002
283.00,-0.002
284.00,0.001
285.00,0.001
286.00,0.001
287.00,0.002
288.00,-0.002
289.00,0.002
290.00,0.002
291.00,-0.001
292.00,0.001
293.00,0.002
294.00,-0.002
295.00,0.001
296.00,0.001
297.00,0.001
298.00,0.002
299.00,0.002
300.00,0.003
301.00,0.004
302.00,0.007
303.00,0.011
304.00,0.016
305.00,0.025
306.00,0.038
307.00,0.056
308.00,0.090
309.00,0.141
310.00,0.198
311.00,0.265
312.00,0.363
313.00,0.494
314.00,0.648
315.00,0.850
316.00,1.069
317.00,1.360
318.00,1.671
319.00,2.076
320.00,2.521
321.00,3.013
322.00,3.578
323.00,4.234
324.00,4.864
325.00,5.564
326.00,6.192
327.00,7.106
328.00,7.960
329.00,8.808
330.00,9.699
331.00,10.612
332.00,11.395
333.00,12.525
334.00,13.433
335.00,14.389
336.00,15.342
337.00,16.335
338.00,17.304
339.00,18.160
340.00,19.074
341.00,19.965
342.00,20.747
343.00,21.561
344.00,22.348
345.00,23.042
346.00,23.764
347.00,24.455
348.00,25.176
349.00,25.774
350.00,26.292
351.00,26.878
352.00,27.333
353.00,27.839
354.00,28.332
355.00,28.719
356.00,29.147
357.00,29.562
358.00,29.903
359.00,30.279
360.00,30.482
361.00,30.837
362.00,31.166
363.00,31.409
364.00,31.623
365.00,31.872
366.00,32.053
367.00,32.208
368.00,32.350
369.00,32.490
370.00,32.619
371.00,32.752
372.00,32.751
373.00,32.793
374.00,32.793
375.00,32.875
376.00,32.893
377.00,32.902
378.00,32.865
379.00,32.921
380.00,32.859
381.00,32.861
382.00,32.870
383.00,32.984
384.00,33.102
385.00,33.186
386.00,33.289
387.00,33.376
388.00,33.471
389.00,33.571
390.00,33.638
391.00,33.737
392.00,33.744
393.00,33.815
394.00,33.930
395.00,33.908
396.00,33.964
397.00,34.042
398.00,34.089
399.00,34.128
400.00,34.151
401.00,34.194
402.00,34.174
403.00,34.262
404.00,34.265
405.00,34.262
406.00,34.258
407.00,34.240
408.00,34.283
409.00,34.213
410.00,34.180
411.00,34.153
412.00,34.156
413.00,34.180
414.00,34.153
415.00,34.183
416.00,34.209
417.00,34.174
418.00,34.217
419.00,34.244
420.00,34.284
421.00,34.364
422.00,34.433
423.00,34.489
424.00,34.431
425.00,34.493
426.00,34.531
427.00,34.557
428.00,34.614
429.00,34.653
430.00,34.696
431.00,34.708
432.00,34.768
433.00,34.813
434.00,34.882
435.00,34.868
436.00,34.963
437.00,34.996
438.00,35.051
439.00,35.110
440.00,35.147
441.00,35.264
442.00,35.348
443.00,35.378
444.00,35.477
445.00,35.536
446.00,35.606
447.00,35.691
448.00,35.745
449.00,35.840
450.00,35.925
451.00,35.999
452.00,36.109
453.00,36.210
454.00,36.264
455.00,36.308
456.00,36.442
457.00,36.512
458.00,36.625
459.00,36.710
460.00,36.833
461.00,36.914
462.00,37.001
463.00,37.141
464.00,37.224
465.00,37.332
466.00,37.425
467.00,37.548
468.00,37.615
469.00,37.675
470.00,37.688
471.00,37.805
472.00,37.865
473.00,37.915
474.00,38.031
475.00,38.103
476.00,38.194
477.00,38.290
478.00,38.366
479.00,38.461
480.00,38.585
481.00,38.723
482.00,38.818
483.00,38.938
484.00,39.020
485.00,39.097
486.00,39.263
487.00,39.311
488.00,39.454
489.00,39.632
490.00,39.719
491.00,39.799
492.00,39.897
493.00,40.028
494.00,40.075
495.00,40.119
496.00,40.210
497.00,40.257
498.00,40.404
499.00,40.402
500.00,40.586
501.00,40.671
502.00,40.734
503.00,40.847
504.00,40.948
505.00,41.044
506.00,41.165
507.00,41.262
508.00,41.244
509.00,41.435
510.00,41.564
511.00,41.527
512.00,41.598
513.00,41.748
514.00,41.824
515.00,42.018
516.00,42.099
517.00,42.166
518.00,42.197
519.00,42.259
520.00,42.326
521.00,42.371
522.00,42.416
523.00,42.503
524.00,42.538
525.00,42.595
526.00,42.673
527.00,42.690
528.00,42.784
529.00,42.901
530.00,42.930
531.00,43.094
532.00,43.135
533.00,43.192
534.00,43.211
535.00,43.268
536.00,43.383
537.00,43.398
538.00,43.490
539.00,43.534
540.00,43.574
541.00,43.612
542.00,43.685
543.00,43.768
544.00,43.811
545.00,43.815
546.00,43.843
547.00,43.974
548.00,44.006
549.00,44.040
550.00,44.127
551.00,44.212
552.00,44.174
553.00,44.279
554.00,44.411
555.00,44.401
556.00,44.373
557.00,44.466
558.00,44.478
559.00,44.541
560.00,44.640
561.00,44.622
562.00,44.716
563.00,44.694
564.00,44.778
565.00,44.789
566.00,44.783
567.00,44.800
568.00,44.819
569.00,44.870
570.00,44.899
571.00,44.905
572.00,44.951
573.00,44.969
574.00,45.031
575.00,45.063
576.00,45.044
577.00,45.125
578.00,45.169
579.00,45.186
580.00,45.240
581.00,45.366
582.00,45.359
583.00,45.447
584.00,45.593
585.00,45.532
586.00,45.542
587.00,45.681
588.00,45.657
589.00,45.662
590.00,45.797
591.00,45.793
592.00,45.787
593.00,45.853
594.00,45.900
595.00,45.943
596.00,45.936
597.00,46.019
598.00,46.168
599.00,46.094
600.00,46.004
601.00,46.150
602.00,46.142
603.00,46.204
604.00,46.234
605.00,46.250
606.00,46.320
607.00,46.321
608.00,46.343
609.00,46.330
610.00,46.310
611.00,46.365
612.00,46.385
613.00,46.418
614.00,46.427
615.00,46.450
616.00,46.540
617.00,46.531
618.00,46.523
619.00,46.556
620.00,46.581
621.00,46.563
622.00,46.493
623.00,46.746
624.00,46.830
625.00,46.805
626.00,46.862
627.00,46.801
628.00,46.769
629.00,46.894
630.00,46.990
631.00,47.007
632.00,46.976
633.00,47.044
634.00,47.056
635.00,47.114
636.00,47.118
637.00,47.235
638.00,47.428
639.00,47.392
640.00,47.278
641.00,47.209
642.00,47.246
643.00,47.467
644.00,47.542
645.00,47.515
646.00,47.550
647.00,47.605
648.00,47.647
649.00,47.748
650.00,47.707
651.00,47.814
652.00,47.858
653.00,47.911
654.00,47.820
655.00,47.861
656.00,47.991
657.00,48.185
658.00,48.047
659.00,48.133
660.00,48.164
661.00,48.000
662.00,48.246
663.00,48.257
664.00,48.273
665.00,48.338
666.00,48.413
667.00,48.457
668.00,48.409
669.00,48.440
670.00,48.590
671.00,48.581
672.00,48.560
673.00,48.748
674.00,48.772
675.00,48.697
676.00,48.734
677.00,48.830
678.00,48.819
679.00,48.849
680.00,48.869
681.00,48.937
682.00,49.017
683.00,49.080
684.00,49.055
685.00,49.143
686.00,49.105
687.00,49.225
688.00,49.218
689.00,49.202
690.00,49.275
691.00,49.282
692.00,49.282
693.00,49.348
694.00,49.243
695.00,49.390
696.00,49.508
697.00,49.483
698.00,49.428
699.00,49.363
700.00,49.666
701.00,49.700
702.00,49.569
703.00,49.736
704.00,49.681
705.00,49.772
706.00,49.833
707.00,49.820
708.00,49.722
709.00,49.945
710.00,49.910
711.00,49.788
712.00,49.803
713.00,50.006
714.00,49.967
715.00,49.923
716.00,50.039
717.00,50.076
718.00,49.988
719.00,50.094
720.00,50.114
721.00,54.413
722.00,54.497
723.00,54.453
724.00,54.356
725.00,54.354
726.00,54.301
727.00,54.205
728.00,54.164
729.00,54.158
730.00,54.184
731.00,54.151
732.00,54.163
733.00,54.196
734.00,54.188
735.00,54.158
736.00,54.144
737.00,54.178
738.00,54.081
739.00,54.135
740.00,54.084
741.00,54.137
742.00,54.070
743.00,54.023
744.00,54.059
745.00,54.022
746.00,53.991
747.00,53.889
748.00,53.842
749.00,53.808
750.00,53.842
751.00,53.768
752.00,53.776
753.00,53.785
754.00,53.737
755.00,53.608
756.00,53.661
757.00,53.617
758.00,53.639
759.00,53.623
760.00,53.553
761.00,53.560
762.00,53.625
763.00,53.611
764.00,53.536
765.00,53.517
766.00,53.514
767.00,53.522
768.00,53.528
769.00,53.450
770.00,53.492
771.00,53.359
772.00,53.404
773.00,53.385
774.00,53.402
775.00,53.348
776.00,53.288
777.00,53.350
778.00,53.286
779.00,53.337
780.00,53.283
781.00,53.237
782.00,53.192
783.00,53.205
784.00,53.171
785.00,53.114
786.00,53.169
787.00,53.126
788.00,53.120
789.00,53.064
790.00,53.055
791.00,53.081
792.00,52.924
793.00,52.898
794.00,52.980
795.00,52.921
796.00,52.942
797.00,52.777
798.00,52.817
799.00,52.813
800.00,52.755
801.00,52.744
802.00,52.766
803.00,52.749
804.00,52.603
805.00,52.567
806.00,52.578
807.00,52.619
808.00,52.545
809.00,52.555
810.00,52.572
811.00,52.450
812.00,52.495
813.00,52.435
814.00,52.404
815.00,52.411
816.00,52.429
817.00,52.401
818.00,52.312
819.00,52.335
820.00,52.208
821.00,52.276
822.00,52.240
823.00,52.208
824.00,52.197
825.00,52.191
826.00,52.033
827.00,52.116
828.00,52.173
829.00,52.082
830.00,52.099
831.00,54.525
832.00,54.511
833.00,54.472
834.00,54.484
835.00,54.431
836.00,54.434
837.00,54.377
838.00,54.388
839.00,54.336
840.00,54.283
841.00,54.262
842.00,54.320
843.00,54.213
844.00,54.223
845.00,54.197
846.00,54.193
847.00,54.146
848.00,54.073
849.00,54.088
850.00,53.975
851.00,53.956
852.00,53.923
853.00,53.990
854.00,53.868
855.00,53.812
856.00,53.822
857.00,53.768
858.00,53.740
859.00,53.707
860.00,53.694
861.00,53.670
862.00,53.637
863.00,53.636
864.00,53.654
865.00,53.650
866.00,53.587
867.00,53.569
868.00,53.560
869.00,53.513
870.00,53.536
871.00,53.512
872.00,53.495
873.00,53.463
874.00,53.498
875.00,53.475
876.00,53.443
877.00,53.433
878.00,53.394
879.00,53.391
880.00,53.345
881.00,53.376
882.00,53.365
883.00,53.250
884.00,53.216
885.00,53.261
886.00,53.259
887.00,53.211
888.00,53.176
889.00,53.163
890.00,53.147
891.00,53.101
892.00,53.095
893.00,53.086
894.00,53.055
895.00,53.034
896.00,53.034
897.00,53.016
898.00,52.972
899.00,52.978
900.00,52.959
901.00,52.942
902.00,52.918
903.00,52.926
904.00,52.873
905.00,52.840
906.00,52.864
907.00,52.860
908.00,52.741
909.00,52.759
910.00,52.917
911.00,52.732
912.00,52.701
913.00,52.696
914.00,52.638
915.00,52.665
916.00,52.636
917.00,52.593
918.00,52.603
919.00,52.556
920.00,52.537
921.00,52.542
922.00,52.502
923.00,52.470
924.00,52.448
925.00,52.445
926.00,52.425
927.00,52.379
928.00,52.379
929.00,52.359
930.00,52.313
931.00,52.287
932.00,52.283
933.00,52.267
934.00,52.244
935.00,52.230
936.00,52.228
937.00,52.189
938.00,52.131
939.00,52.161
940.00,52.137
941.00,52.123
942.00,52.063
943.00,52.086
944.00,52.041
945.00,52.024
946.00,52.009
947.00,51.992
948.00,51.970
949.00,51.938
950.00,51.924
951.00,51.929
952.00,51.871
953.00,51.816
954.00,51.861
955.00,51.796
956.00,51.756
957.00,51.726
958.00,51.730
959.00,51.699
960.00,51.678
961.00,51.671
962.00,51.684
963.00,51.628
964.00,51.617
965.00,51.595
966.00,51.602
967.00,51.573
968.00,51.571
969.00,51.564
970.00,51.576
971.00,51.579
972.00,51.529
973.00,51.579
974.00,51.569
975.00,51.559
976.00,51.556
977.00,51.557
978.00,51.570
979.00,51.529
980.00,51.556
981.00,51.556
982.00,51.559
983.00,51.532
984.00,51.575
985.00,51.551
986.00,51.510
987.00,51.527
988.00,51.499
989.00,51.499
990.00,51.461
991.00,51.454
992.00,51.458
993.00,51.420
994.00,51.412
995.00,51.411
996.00,51.402
997.00,51.364
998.00,51.369
999.00,51.359
1000.00,51.318
1001.00,51.329
1002.00,51.318
1003.00,51.326
1004.00,51.286
1005.00,51.283
1006.00,51.300
1007.00,51.267
1008.00,51.226
1009.00,51.233
1010.00,51.225
1011.00,51.186
1012.00,51.198
1013.00,51.169
1014.00,51.144
1015.00,51.184
1016.00,51.132
1017.00,51.145
1018.00,51.103
1019.00,51.078
1020.00,51.067
1021.00,51.052
1022.00,51.014
1023.00,51.006
1024.00,50.994
1025.00,50.968
1026.00,50.969
1027.00,50.942
1028.00,50.971
1029.00,50.930
1030.00,50.929
1031.00,50.907
1032.00,50.868
1033.00,50.858
1034.00,50.848
1035.00,50.812
1036.00,50.768
1037.00,50.770
1038.00,50.744
1039.00,50.739
1040.00,50.721
1041.00,50.681
1042.00,50.695
1043.00,50.659
1044.00,50.665
1045.00,50.650
1046.00,50.656
1047.00,50.658
1048.00,50.669
1049.00,50.680
1050.00,50.702
1051.00,50.701
1052.00,50.706
1053.00,50.719
1054.00,50.719
1055.00,50.715
1056.00,50.729
1057.00,50.725
1058.00,50.726
1059.00,50.737
1060.00,50.744
1061.00,50.789
1062.00,50.702
1063.00,50.719
1064.00,50.717
1065.00,50.711
1066.00,50.670
1067.00,50.671
1068.00,50.677
1069.00,50.670
1070.00,50.634
1071.00,50.621
1072.00,50.637
1073.00,50.630
1074.00,50.608
1075.00,50.622
1076.00,50.610
1077.00,50.570
1078.00,50.556
1079.00,50.552
1080.00,50.556
1081.00,50.544
1082.00,50.538
1083.00,50.532
1084.00,50.528
1085.00,50.507
1086.00,50.512
1087.00,50.498
1088.00,50.474
1089.00,50.465
1090.00,50.452
1091.00,50.461
1092.00,50.456
1093.00,50.416
1094.00,50.425
1095.00,50.405
1096.00,50.399
1097.00,50.393
1098.00,50.391
1099.00,50.364
1100.00,50.362
1101.00,50.346
1102.00,50.349
1103.00,50.337
1104.00,50.322
1105.00,50.337
1106.00,50.326
1107.00,50.293
1108.00,50.317
1109.00,50.285
1110.00,50.267
1111.00,50.266
1112.00,50.265
1113.00,50.256
1114.00,50.251
1115.00,50.245
1116.00,50.253
1117.00,50.225
1118.00,50.201
1119.00,50.209
1120.00,50.214
1121.00,50.190
1122.00,50.242
1123.00,50.181
1124.00,50.185
1125.00,50.173
1126.00,50.155
1127.00,50.164
1128.00,50.135
1129.00,50.114
1130.00,50.116
1131.00,50.109
1132.00,50.123
1133.00,50.097
1134.00,50.071
1135.00,50.155
1136.00,50.089
1137.00,50.064
1138.00,50.068
1139.00,50.062
1140.00,50.056
1141.00,50.066
1142.00,50.059
1143.00,50.056
1144.00,50.044
1145.00,50.050
1146.00,50.061
1147.00,50.037
1148.00,50.022
1149.00,50.037
1150.00,50.036
1151.00,50.015
1152.00,50.026
1153.00,50.002
1154.00,49.982
1155.00,49.984
1156.00,49.979
1157.00,50.002
1158.00,49.993
1159.00,49.989
1160.00,49.989
1161.00,49.985
1162.00,49.966
1163.00,49.981
1164.00,49.967
1165.00,49.955
1166.00,49.956
1167.00,49.960
1168.00,49.959
1169.00,49.960
1170.00,49.955
1171.00,49.956
1172.00,49.944
1173.00,49.933
1174.00,49.958
1175.00,49.939
1176.00,49.937
1177.00,49.930
1178.00,49.937
1179.00,49.940
1180.00,49.928
1181.00,49.936
1182.00,49.949
1183.00,49.929
1184.00,49.907
1185.00,49.939
1186.00,49.914
1187.00,49.908
1188.00,49.902
1189.00,49.914
1190.00,49.912
1191.00,49.904
1192.00,49.909
1193.00,49.906
1194.00,49.902
1195.00,49.876
1196.00,49.919
1197.00,49.914
1198.00,49.886
1199.00,49.883
1200.00,49.886
1201.00,49.896
1202.00,49.896
1203.00,49.889
1204.00,49.902
1205.00,49.901
1206.00,49.892
1207.00,49.918
1208.00,49.885
1209.00,49.876
1210.00,49.883
1211.00,49.891
1212.00,49.898
1213.00,49.882
1214.00,49.884
1215.00,49.883
1216.00,49.879
1217.00,49.869
1218.00,49.889
1219.00,49.874
1220.00,49.857
1221.00,49.874
1222.00,49.862
1223.00,49.875
1224.00,49.870
1225.00,49.863
1226.00,49.861
1227.00,49.857
1228.00,49.861
1229.00,49.899
1230.00,49.897
1231.00,49.880
1232.00,49.909
1233.00,49.894
1234.00,49.912
1235.00,49.907
1236.00,49.902
1237.00,49.918
1238.00,49.911
1239.00,49.908
1240.00,49.912
1241.00,49.906
1242.00,49.903
1243.00,49.925
1244.00,49.889
1245.00,49.924
1246.00,49.940
1247.00,49.930
1248.00,49.932
1249.00,49.930
1250.00,49.922
1251.00,49.946
1252.00,49.935
1253.00,49.927
1254.00,49.953
1255.00,49.946
1256.00,49.930
1257.00,49.922
1258.00,49.955
1259.00,49.979
1260.00,49.992
1261.00,49.971
1262.00,49.991
1263.00,49.976
1264.00,49.966
1265.00,49.977
1266.00,49.978
1267.00,49.995
1268.00,50.008
1269.00,49.990
1270.00,50.023
1271.00,49.998
1272.00,49.997
1273.00,50.019
1274.00,50.033
1275.00,50.011
1276.00,50.025
1277.00,50.020
1278.00,50.047
1279.00,50.037
1280.00,50.023
1281.00,50.049
1282.00,50.060
1283.00,50.038
1284.00,50.052
1285.00,50.022
1286.00,50.031
1287.00,50.061
1288.00,50.044
1289.00,50.045
1290.00,50.065
1291.00,50.052
1292.00,50.063
1293.00,50.059
1294.00,50.061
1295.00,50.108
1296.00,50.084
1297.00,50.098
1298.00,50.117
1299.00,50.092
1300.00,50.112
1301.00,50.114
1302.00,50.125
1303.00,50.144
1304.00,50.108
1305.00,50.120
1306.00,50.165
1307.00,50.151
1308.00,50.143
1309.00,50.151
1310.00,50.151
1311.00,50.152
1312.00,50.169
1313.00,50.162
1314.00,50.198
1315.00,50.174
1316.00,50.191
1317.00,50.219
1318.00,50.212
1319.00,50.213
1320.00,50.239
1321.00,50.373
1322.00,50.373
1323.00,50.361
1324.00,50.363
1325.00,50.359
1326.00,50.380
1327.00,50.374
1328.00,50.397
1329.00,50.376
1330.00,50.368
1331.00,50.399
1332.00,50.381
1333.00,50.379
1334.00,50.417
1335.00,50.432
1336.00,50.469
1337.00,50.491
1338.00,50.544
1339.00,50.608
1340.00,50.651
1341.00,50.712
1342.00,50.781
1343.00,50.810
1344.00,50.843
1345.00,50.929
1346.00,50.894
1347.00,50.889
1348.00,51.017
1349.00,51.010
1350.00,51.056
1351.00,51.046
1352.00,51.091
1353.00,51.083
1354.00,51.056
1355.00,51.046
1356.00,51.039
1357.00,51.057
1358.00,51.091
1359.00,51.138
1360.00,51.139
1361.00,51.354
1362.00,51.116
1363.00,51.155
1364.00,51.101
1365.00,51.101
1366.00,51.179
1367.00,51.062
1368.00,50.997
1369.00,51.150
1370.00,51.041
1371.00,50.964
1372.00,51.054
1373.00,51.082
1374.00,51.071
1375.00,51.068
1376.00,51.056
1377.00,51.056
1378.00,51.301
1379.00,50.996
1380.00,51.069
1381.00,51.032
1382.00,51.049
1383.00,51.055
1384.00,51.029
1385.00,51.046
1386.00,51.031
1387.00,51.012
1388.00,51.004
1389.00,51.059
1390.00,51.003
1391.00,51.041
1392.00,51.048
1393.00,51.207
1394.00,51.114
1395.00,50.927
1396.00,51.027
1397.00,51.079
1398.00,51.037
1399.00,50.987
1400.00,50.968
1401.00,51.009
1402.00,51.051
1403.00,51.002
1404.00,51.005
1405.00,51.075
1406.00,51.081
1407.00,51.319
1408.00,51.067
1409.00,51.010
1410.00,51.131
1411.00,51.116
1412.00,51.204
1413.00,51.127
1414.00,51.055
1415.00,51.132
1416.00,51.190
1417.00,51.183
1418.00,51.136
1419.00,51.153
1420.00,51.202
1421.00,51.246
1422.00,51.212
1423.00,51.191
1424.00,51.249
1425.00,51.262
1426.00,51.266
1427.00,51.266
1428.00,51.267
1429.00,51.298
1430.00,51.304
1431.00,51.265
1432.00,51.333
1433.00,51.328
1434.00,51.331
1435.00,51.396
1436.00,51.363
1437.00,51.407
1438.00,51.397
1439.00,51.442
1440.00,51.464
1441.00,51.440
1442.00,51.423
1443.00,51.482
1444.00,51.515
1445.00,51.441
1446.00,51.497
1447.00,51.529
1448.00,51.584
1449.00,51.604
1450.00,51.535
1451.00,51.566
1452.00,51.590
1453.00,51.586
1454.00,51.592
1455.00,51.628
1456.00,51.642
1457.00,51.657
1458.00,51.676
1459.00,51.685
1460.00,51.729
1461.00,51.714
1462.00,51.738
1463.00,51.763
1464.00,51.753
1465.00,51.776
1466.00,51.769
1467.00,51.812
1468.00,51.860
1469.00,51.874
1470.00,51.866
1471.00,51.886
1472.00,51.903
1473.00,51.903
1474.00,51.919
1475.00,51.897
1476.00,51.932
1477.00,51.925
1478.00,51.936
1479.00,51.973
1480.00,51.960
1481.00,51.958
1482.00,52.006
1483.00,52.003
1484.00,52.019
1485.00,52.052
1486.00,52.042
1487.00,52.061
1488.00,52.070
1489.00,52.085
1490.00,52.103
1491.00,52.106
1492.00,52.110
1493.00,52.143
1494.00,52.137
1495.00,52.141
1496.00,52.150
1497.00,52.157
1498.00,52.168
1499.00,52.166
1500.00,52.184
1501.00, 
1502.00, 
1503.00, 
1504.00, 
1505.00, 
1506.00, 
1507.00, 
1508.00, 
1509.00, 
1510.00, 
1511.00, 
1512.00, 
1513.00, 
1514.00, 
1515.00, 
1516.00, 
1517.00, 
1518.00, 
1519.00, 
1520.00, 
1521.00, 
1522.00, 
1523.00, 
1524.00, 
1525.00, 
1526.00, 
1527.00, 
1528.00, 
1529.00, 
1530.00, 
1531.00, 
1532.00, 
1533.00, 
1534.00, 
1535.00, 
1536.00, 
1537.00, 
1538.00, 
1539.00, 
1540.00, 
1541.00, 
1542.00, 
1543.00, 
1544.00, 
1545.00, 
1546.00, 
1547.00, 
1548.00, 
1549.00, 
1550.00, 
1551.00, 
1552.00, 
1553.00, 
1554.00, 
1555.00, 
1556.00, 
1557.00, 
1558.00, 
1559.00, 
1560.00, 
1561.00, 
1562.00, 
1563.00, 
1564.00, 
1565.00, 
1566.00, 
1567.00, 
1568.00, 
1569.00, 
1570.00, 
1571.00, 
1572.00, 
1573.00, 
1574.00, 
1575.00, 
1576.00, 
1577.00, 
1578.00, 
1579.00, 
1580.00, 
1581.00, 
1582.00, 
1583.00, 
1584.00, 
1585.00, 
1586.00, 
1587.00, 
1588.00, 
1589.00, 
1590.00, 
1591.00, 
1592.00, 
1593.00, 
1594.00, 
1595.00, 
1596.00, 
1597.00, 
1598.00, 
1599.00, 
1600.00, 
1601.00, 
1602.00, 
1603.00, 
1604.00, 
1605.00, 
1606.00, 
1607.00, 
1608.00, 
1609.00, 
1610.00, 
1611.00, 
1612.00, 
1613.00, 
1614.00, 
1615.00, 
1616.00, 
1617.00, 
1618.00, 
1619.00, 
1620.00, 
1621.00, 
1622.00, 
1623.00, 
1624.00, 
1625.00, 
1626.00, 
1627.00, 
1628.00, 
1629.00, 
1630.00, 
1631.00, 
1632.00, 
1633.00, 
1634.00, 
1635.00, 
1636.00, 
1637.00, 
1638.00, 
1639.00, 
1640.00, 
1641.00, 
1642.00, 
1643.00, 
1644.00, 
1645.00, 
1646.00, 
1647.00, 
1648.00, 
1649.00, 
1650.00, 
1651.00, 
1652.00, 
1653.00, 
1654.00, 
1655.00, 
1656.00, 
1657.00, 
1658.00, 
1659.00, 
1660.00, 
1661.00, 
1662.00, 
1663.00, 
1664.00, 
1665.00, 
1666.00, 
1667.00, 
1668.00, 
1669.00, 
1670.00, 
1671.00, 
1672.00, 
1673.00, 
1674.00, 
1675.00, 
1676.00, 
1677.00, 
1678.00, 
1679.00, 
1680.00, 
1681.00, 
1682.00, 
1683.00, 
1684.00, 
1685.00, 
1686.00, 
1687.00, 
1688.00, 
1689.00, 
1690.00, 
1691.00, 
1692.00, 
1693.00, 
1694.00, 
1695.00, 
1696.00, 
1697.00, 
1698.00, 
1699.00, 
1700.00, 
1701.00, 
1702.00, 
1703.00, 
1704.00, 
1705.00, 
1706.00, 
1707.00, 
1708.00, 
1709.00, 
1710.00, 
1711.00, 
1712.00, 
1713.00, 
1714.00, 
1715.00, 
1716.00, 
1717.00, 
1718.00, 
1719.00, 
1720.00, 
1721.00, 
1722.00, 
1723.00, 
1724.00, 
1725.00, 
1726.00, 
1727.00, 
1728.00, 
1729.00, 
1730.00, 
1731.00, 
1732.00, 
1733.00, 
1734.00, 
1735.00, 
1736.00, 
1737.00, 
1738.00, 
1739.00, 
1740.00, 
1741.00, 
1742.00, 
1743.00, 
1744.00, 
1745.00, 
1746.00, 
1747.00, 
1748.00, 
1749.00, 
1750.00, 
1751.00, 
1752.00, 
1753.00, 
1754.00, 
1755.00, 
1756.00, 
1757.00, 
1758.00, 
1759.00, 
1760.00, 
1761.00, 
1762.00, 
1763.00, 
1764.00, 
1765.00, 
1766.00, 
1767.00, 
1768.00, 
1769.00, 
1770.00, 
1771.00, 
1772.00, 
1773.00, 
1774.00, 
1775.00, 
1776.00, 
1777.00, 
1778.00, 
1779.00, 
1780.00, 
1781.00, 
1782.00, 
1783.00, 
1784.00, 
1785.00, 
1786.00, 
1787.00, 
1788.00, 
1789.00, 
1790.00, 
1791.00, 
1792.00, 
1793.00, 
1794.00, 
1795.00, 
1796.00, 
1797.00, 
1798.00, 
1799.00, 
1800.00, 
1801.00, 
1802.00, 
1803.00, 
1804.00, 
1805.00, 
1806.00, 
1807.00, 
1808.00, 
1809.00, 
1810.00, 
1811.00, 
1812.00, 
1813.00, 
1814.00, 
1815.00, 
1816.00, 
1817.00, 
1818.00, 
1819.00, 
1820.00, 
1821.00, 
1822.00, 
1823.00, 
1824.00, 
1825.00, 
1826.00, 
1827.00, 
1828.00, 
1829.00, 
1830.00, 
1831.00, 
1832.00, 
1833.00, 
1834.00, 
1835.00, 
1836.00, 
1837.00, 
1838.00, 
1839.00, 
1840.00, 
1841.00, 
1842.00, 
1843.00, 
1844.00, 
1845.00, 
1846.00, 
1847.00, 
1848.00, 
1849.00, 
1850.00, 
1851.00, 
1852.00, 
1853.00, 
1854.00, 
1855.00, 
1856.00, 
1857.00, 
1858.00, 
1859.00, 
1860.00, 
1861.00, 
1862.00, 
1863.00, 
1864.00, 
1865.00, 
1866.00, 
1867.00, 
1868.00, 
1869.00, 
1870.00, 
1871.00, 
1872.00, 
1873.00, 
1874.00, 
1875.00, 
1876.00, 
1877.00, 
1878.00, 
1879.00, 
1880.00, 
1881.00, 
1882.00, 
1883.00, 
1884.00, 
1885.00, 
1886.00, 
1887.00, 
1888.00, 
1889.00, 
1890.00, 
1891.00, 
1892.00, 
1893.00, 
1894.00, 
1895.00, 
1896.00, 
1897.00, 
1898.00, 
1899.00, 
1900.00, 
1901.00, 
1902.00, 
1903.00, 
1904.00, 
1905.00, 
1906.00, 
1907.00, 
1908.00, 
1909.00, 
1910.00, 
1911.00, 
1912.00, 
1913.00, 
1914.00, 
1915.00, 
1916.00, 
1917.00, 
1918.00, 
1919.00, 
1920.00, 
1921.00, 
1922.00, 
1923.00, 
1924.00, 
1925.00, 
1926.00, 
1927.00, 
1928.00, 
1929.00, 
1930.00, 
1931.00, 
1932.00, 
1933.00, 
1934.00, 
1935.00, 
1936.00, 
1937.00, 
1938.00, 
1939.00, 
1940.00, 
1941.00, 
1942.00, 
1943.00, 
1944.00, 
1945.00, 
1946.00, 
1947.00, 
1948.00, 
1949.00, 
1950.00, 
1951.00, 
1952.00, 
1953.00, 
1954.00, 
1955.00, 
1956.00, 
1957.00, 
1958.00, 
1959.00, 
1960.00, 
1961.00, 
1962.00, 
1963.00, 
1964.00, 
1965.00, 
1966.00, 
1967.00, 
1968.00, 
1969.00, 
1970.00, 
1971.00, 
1972.00, 
1973.00, 
1974.00, 
1975.00, 
1976.00, 
1977.00, 
1978.00, 
1979.00, 
1980.00, 
1981.00, 
1982.00, 
1983.00, 
1984.00, 
1985.00, 
1986.00, 
1987.00, 
1988.00, 
1989.00, 
1990.00, 
1991.00, 
1992.00, 
1993.00, 
1994.00, 
1995.00, 
1996.00, 
1997.00, 
1998.00, 
1999.00, 
2000.00, 
2001.00, 
2002.00, 
2003.00, 
2004.00, 
2005.00, 
2006.00, 
2007.00, 
2008.00, 
2009.00, 
2010.00, 
2011.00, 
2012.00, 
2013.00, 
2014.00, 
2015.00, 
2016.00, 
2017.00, 
2018.00, 
2019.00, 
2020.00, 
2021.00, 
2022.00, 
2023.00, 
2024.00, 
2025.00, 
2026.00, 
2027.00, 
2028.00, 
2029.00, 
2030.00, 
2031.00, 
2032.00, 
2033.00, 
2034.00, 
2035.00, 
2036.00, 
2037.00, 
2038.00, 
2039.00, 
2040.00, 
2041.00, 
2042.00, 
2043.00, 
2044.00, 
2045.00, 
2046.00, 
2047.00, 
2048.00, 
2049.00, 
2050.00, 
2051.00, 
2052.00, 
2053.00, 
2054.00, 
2055.00, 
2056.00, 
2057.00, 
2058.00, 
2059.00, 
2060.00, 
2061.00, 
2062.00, 
2063.00, 
2064.00, 
2065.00, 
2066.00, 
2067.00, 
2068.00, 
2069.00, 
2070.00, 
2071.00, 
2072.00, 
2073.00, 
2074.00, 
2075.00, 
2076.00, 
2077.00, 
2078.00, 
2079.00, 
2080.00, 
2081.00, 
2082.00, 
2083.00, 
2084.00, 
2085.00, 
2086.00, 
2087.00, 
2088.00, 
2089.00, 
2090.00, 
2091.00, 
2092.00, 
2093.00, 
2094.00, 
2095.00, 
2096.00, 
2097.00, 
2098.00, 
2099.00, 
2100.00, 
2101.00, 
2102.00, 
2103.00, 
2104.00, 
2105.00, 
2106.00, 
2107.00, 
2108.00, 
2109.00, 
2110.00, 
2111.00, 
2112.00, 
2113.00, 
2114.00, 
2115.00, 
2116.00, 
2117.00, 
2118.00, 
2119.00, 
2120.00, 
2121.00, 
2122.00, 
2123.00, 
2124.00, 
2125.00, 
2126.00, 
2127.00, 
2128.00, 
2129.00, 
2130.00, 
2131.00, 
2132.00, 
2133.00, 
2134.00, 
2135.00, 
2136.00, 
2137.00, 
2138.00, 
2139.00, 
2140.00, 
2141.00, 
2142.00, 
2143.00, 
2144.00, 
2145.00, 
2146.00, 
2147.00, 
2148.00, 
2149.00, 
2150.00, 
2151.00, 
2152.00, 
2153.00, 
2154.00, 
2155.00, 
2156.00, 
2157.00, 
2158.00, 
2159.00, 
2160.00, 
2161.00, 
2162.00, 
2163.00, 
2164.00, 
2165.00, 
2166.00, 
2167.00, 
2168.00, 
2169.00, 
2170.00, 
2171.00, 
2172.00, 
2173.00, 
2174.00, 
2175.00, 
2176.00, 
2177.00, 
2178.00, 
2179.00, 
2180.00, 
2181.00, 
2182.00, 
2183.00, 
2184.00, 
2185.00, 
2186.00, 
2187.00, 
2188.00, 
2189.00, 
2190.00, 
2191.00, 
2192.00, 
2193.00, 
2194.00, 
2195.00, 
2196.00, 
2197.00, 
2198.00, 
2199.00, 
2200.00, 
2201.00, 
2202.00, 
2203.00, 
2204.00, 
2205.00, 
2206.00, 
2207.00, 
2208.00, 
2209.00, 
2210.00, 
2211.00, 
2212.00, 
2213.00, 
2214.00, 
2215.00, 
2216.00, 
2217.00, 
2218.00, 
2219.00, 
2220.00, 
2221.00, 
2222.00, 
2223.00, 
2224.00, 
2225.00, 
2226.00, 
2227.00, 
2228.00, 
2229.00, 
2230.00, 
2231.00, 
2232.00, 
2233.00, 
2234.00, 
2235.00, 
2236.00, 
2237.00, 
2238.00, 
2239.00, 
2240.00, 
2241.00, 
2242.00, 
2243.00, 
2244.00, 
2245.00, 
2246.00, 
2247.00, 
2248.00, 
2249.00, 
2250.00, 
2251.00, 
2252.00, 
2253.00, 
2254.00, 
2255.00, 
2256.00, 
2257.00, 
2258.00, 
2259.00, 
2260.00, 
2261.00, 
2262.00, 
2263.00, 
2264.00, 
2265.00, 
2266.00, 
2267.00, 
2268.00, 
2269.00, 
2270.00, 
2271.00, 
2272.00, 
2273.00, 
2274.00, 
2275.00, 
2276.00, 
2277.00, 
2278.00, 
2279.00, 
2280.00, 
2281.00, 
2282.00, 
2283.00, 
2284.00, 
2285.00, 
2286.00, 
2287.00, 
2288.00, 
2289.00, 
2290.00, 
2291.00, 
2292.00, 
2293.00, 
2294.00, 
2295.00, 
2296.00, 
2297.00, 
2298.00, 
2299.00, 
2300.00, 
2301.00, 
2302.00, 
2303.00, 
2304.00, 
2305.00, 
2306.00, 
2307.00, 
2308.00, 
2309.00, 
2310.00, 
2311.00, 
2312.00, 
2313.00, 
2314.00, 
2315.00, 
2316.00, 
2317.00, 
2318.00, 
2319.00, 
2320.00, 
2321.00, 
2322.00, 
2323.00, 
2324.00, 
2325.00, 
2326.00, 
2327.00, 
2328.00, 
2329.00, 
2330.00, 
2331.00, 
2332.00, 
2333.00, 
2334.00, 
2335.00, 
2336.00, 
2337.00, 
2338.00, 
2339.00, 
2340.00, 
2341.00, 
2342.00, 
2343.00, 
2344.00, 
2345.00, 
2346.00, 
2347.00, 
2348.00, 
2349.00, 
2350.00, 
2351.00, 
2352.00, 
2353.00, 
2354.00, 
2355.00, 
2356.00, 
2357.00, 
2358.00, 
2359.00, 
2360.00, 
2361.00, 
2362.00, 
2363.00, 
2364.00, 
2365.00, 
2366.00, 
2367.00, 
2368.00, 
2369.00, 
2370.00, 
2371.00, 
2372.00, 
2373.00, 
2374.00, 
2375.00, 
2376.00, 
2377.00, 
2378.00, 
2379.00, 
2380.00, 
2381.00, 
2382.00, 
2383.00, 
2384.00, 
2385.00, 
2386.00, 
2387.00, 
2388.00, 
2389.00, 
2390.00, 
2391.00, 
2392.00, 
2393.00, 
2394.00, 
2395.00, 
2396.00, 
2397.00, 
2398.00, 
2399.00, 
2400.00, 
2401.00, 
2402.00, 
2403.00, 
2404.00, 
2405.00, 
2406.00, 
2407.00, 
2408.00, 
2409.00, 
2410.00, 
2411.00, 
2412.00, 
2413.00, 
2414.00, 
2415.00, 
2416.00, 
2417.00, 
2418.00, 
2419.00, 
2420.00, 
2421.00, 
2422.00, 
2423.00, 
2424.00, 
2425.00, 
2426.00, 
2427.00, 
2428.00, 
2429.00, 
2430.00, 
2431.00, 
2432.00, 
2433.00, 
2434.00, 
2435.00, 
2436.00, 
2437.00, 
2438.00, 
2439.00, 
2440.00, 
2441.00, 
2442.00, 
2443.00, 
2444.00, 
2445.00, 
2446.00, 
2447.00, 
2448.00, 
2449.00, 
2450.00, 
2451.00, 
2452.00, 
2453.00, 
2454.00, 
2455.00, 
2456.00, 
2457.00, 
2458.00, 
2459.00, 
2460.00, 
2461.00, 
2462.00, 
2463.00, 
2464.00, 
2465.00, 
2466.00, 
2467.00, 
2468.00, 
2469.00, 
2470.00, 
2471.00, 
2472.00, 
2473.00, 
2474.00, 
2475.00, 
2476.00, 
2477.00, 
2478.00, 
2479.00, 
2480.00, 
2481.00, 
2482.00, 
2483.00, 
2484.00, 
2485.00, 
2486.00, 
2487.00, 
2488.00, 
2489.00, 
2490.00, 
2491.00, 
2492.00, 
2493.00, 
2494.00, 
2495.00, 
2496.00, 
2497.00, 
2498.00, 
2499.00, 
2500.00, 
2501.00, 
2502.00, 
2503.00, 
2504.00, 
2505.00, 
2506.00, 
2507.00, 
2508.00, 
2509.00, 
2510.00, 
2511.00, 
2512.00, 
2513.00, 
2514.00, 
2515.00, 
2516.00, 
2517.00, 
2518.00, 
2519.00, 
2520.00, 
2521.00, 
2522.00, 
2523.00, 
2524.00, 
2525.00, 
2526.00, 
2527.00, 
2528.00, 
2529.00, 
2530.00, 
2531.00, 
2532.00, 
2533.00, 
2534.00, 
2535.00, 
2536.00, 
2537.00, 
2538.00, 
2539.00, 
2540.00, 
2541.00, 
2542.00, 
2543.00, 
2544.00, 
2545.00, 
2546.00, 
2547.00, 
2548.00, 
2549.00, 
2550.00, 
2551.00, 
2552.00, 
2553.00, 
2554.00, 
2555.00, 
2556.00, 
2557.00, 
2558.00, 
2559.00, 
2560.00, 
2561.00, 
2562.00, 
2563.00, 
2564.00, 
2565.00, 
2566.00, 
2567.00, 
2568.00, 
2569.00, 
2570.00, 
2571.00, 
2572.00, 
2573.00, 
2574.00, 
2575.00, 
2576.00, 
2577.00, 
2578.00, 
2579.00, 
2580.00, 
2581.00, 
2582.00, 
2583.00, 
2584.00, 
2585.00, 
2586.00, 
2587.00, 
2588.00, 
2589.00, 
2590.00, 
2591.00, 
2592.00, 
2593.00, 
2594.00, 
2595.00, 
2596.00, 
2597.00, 
2598.00, 
2599.00, 
2600.00, 
