"2cP5 - RawData"
"Wavelength nm.","T%"
200.00,0.001
201.00,0.002
202.00,-0.001
203.00,0.004
204.00,0.003
205.00,0.001
206.00,0.001
207.00,0.001
208.00,0.003
209.00,0.002
210.00,0.001
211.00,0.004
212.00,0.002
213.00,0.003
214.00,-0.001
215.00,0.002
216.00,-0.000
217.00,0.003
218.00,0.004
219.00,0.003
220.00,0.002
221.00,0.003
222.00,0.002
223.00,0.000
224.00,0.002
225.00,0.002
226.00,-0.000
227.00,0.000
228.00,0.000
229.00,-0.000
230.00,-0.001
231.00,0.001
232.00,0.001
233.00,0.001
234.00,0.002
235.00,0.001
236.00,-0.000
237.00,0.002
238.00,0.001
239.00,0.001
240.00,0.002
241.00,-0.001
242.00,-0.000
243.00,-0.001
244.00,0.001
245.00,0.002
246.00,-0.001
247.00,0.001
248.00,0.000
249.00,0.001
250.00,0.002
251.00,0.001
252.00,0.002
253.00,0.001
254.00,-0.000
255.00,0.001
256.00,-0.000
257.00,0.000
258.00,-0.000
259.00,-0.000
260.00,0.001
261.00,0.001
262.00,0.001
263.00,0.001
264.00,0.001
265.00,0.001
266.00,0.002
267.00,0.001
268.00,0.000
269.00,0.001
270.00,0.001
271.00,-0.000
272.00,-0.000
273.00,-0.001
274.00,0.001
275.00,0.001
276.00,0.001
277.00,-0.001
278.00,-0.000
279.00,0.001
280.00,-0.000
281.00,-0.000
282.00,-0.000
283.00,0.002
284.00,0.000
285.00,0.001
286.00,0.001
287.00,0.002
288.00,0.002
289.00,0.000
290.00,-0.000
291.00,-0.001
292.00,0.002
293.00,-0.000
294.00,0.000
295.00,-0.002
296.00,0.000
297.00,-0.001
298.00,0.001
299.00,0.002
300.00,0.002
301.00,0.005
302.00,0.005
303.00,0.009
304.00,0.012
305.00,0.021
306.00,0.033
307.00,0.048
308.00,0.079
309.00,0.120
310.00,0.163
311.00,0.215
312.00,0.299
313.00,0.408
314.00,0.536
315.00,0.701
316.00,0.891
317.00,1.139
318.00,1.392
319.00,1.703
320.00,2.082
321.00,2.496
322.00,2.960
323.00,3.468
324.00,4.024
325.00,4.599
326.00,5.191
327.00,5.834
328.00,6.533
329.00,7.226
330.00,7.942
331.00,8.661
332.00,9.454
333.00,10.263
334.00,11.008
335.00,11.817
336.00,12.559
337.00,13.379
338.00,14.096
339.00,14.808
340.00,15.548
341.00,16.233
342.00,16.879
343.00,17.543
344.00,18.176
345.00,18.711
346.00,19.341
347.00,19.831
348.00,20.405
349.00,20.862
350.00,21.282
351.00,21.721
352.00,22.077
353.00,22.459
354.00,22.856
355.00,23.123
356.00,23.466
357.00,23.776
358.00,24.042
359.00,24.313
360.00,24.546
361.00,24.757
362.00,24.972
363.00,25.152
364.00,25.320
365.00,25.435
366.00,25.580
367.00,25.676
368.00,25.778
369.00,25.842
370.00,25.950
371.00,25.990
372.00,25.984
373.00,26.014
374.00,26.018
375.00,26.040
376.00,26.010
377.00,25.999
378.00,25.942
379.00,25.950
380.00,25.926
381.00,25.922
382.00,25.958
383.00,25.968
384.00,26.042
385.00,26.102
386.00,26.149
387.00,26.193
388.00,26.276
389.00,26.335
390.00,26.336
391.00,26.441
392.00,26.464
393.00,26.476
394.00,26.541
395.00,26.556
396.00,26.554
397.00,26.596
398.00,26.569
399.00,26.640
400.00,26.622
401.00,26.671
402.00,26.713
403.00,26.668
404.00,26.671
405.00,26.630
406.00,26.677
407.00,26.643
408.00,26.716
409.00,26.643
410.00,26.595
411.00,26.585
412.00,26.600
413.00,26.683
414.00,26.661
415.00,26.651
416.00,26.692
417.00,26.674
418.00,26.709
419.00,26.752
420.00,26.748
421.00,26.860
422.00,26.932
423.00,26.932
424.00,26.968
425.00,27.004
426.00,27.051
427.00,27.093
428.00,27.164
429.00,27.189
430.00,27.258
431.00,27.320
432.00,27.353
433.00,27.423
434.00,27.468
435.00,27.512
436.00,27.611
437.00,27.671
438.00,27.759
439.00,27.834
440.00,27.884
441.00,27.995
442.00,28.111
443.00,28.152
444.00,28.228
445.00,28.348
446.00,28.414
447.00,28.531
448.00,28.610
449.00,28.789
450.00,28.864
451.00,28.945
452.00,29.084
453.00,29.154
454.00,29.279
455.00,29.362
456.00,29.474
457.00,29.597
458.00,29.717
459.00,29.835
460.00,29.978
461.00,30.114
462.00,30.216
463.00,30.333
464.00,30.470
465.00,30.576
466.00,30.706
467.00,30.789
468.00,30.891
469.00,31.050
470.00,31.108
471.00,31.261
472.00,31.393
473.00,31.446
474.00,31.551
475.00,31.708
476.00,31.820
477.00,31.890
478.00,32.036
479.00,32.168
480.00,32.288
481.00,32.435
482.00,32.607
483.00,32.782
484.00,32.866
485.00,33.045
486.00,33.193
487.00,33.267
488.00,33.408
489.00,33.621
490.00,33.776
491.00,33.839
492.00,33.942
493.00,34.098
494.00,34.203
495.00,34.261
496.00,34.429
497.00,34.487
498.00,34.591
499.00,34.753
500.00,34.905
501.00,34.968
502.00,35.080
503.00,35.177
504.00,35.218
505.00,35.533
506.00,35.623
507.00,35.644
508.00,35.735
509.00,35.895
510.00,35.970
511.00,36.139
512.00,36.278
513.00,36.295
514.00,36.493
515.00,36.651
516.00,36.677
517.00,36.813
518.00,36.907
519.00,36.984
520.00,37.059
521.00,37.144
522.00,37.227
523.00,37.340
524.00,37.375
525.00,37.469
526.00,37.587
527.00,37.622
528.00,37.702
529.00,37.799
530.00,37.867
531.00,37.986
532.00,38.131
533.00,38.107
534.00,38.199
535.00,38.310
536.00,38.433
537.00,38.450
538.00,38.548
539.00,38.624
540.00,38.655
541.00,38.718
542.00,38.797
543.00,38.828
544.00,38.901
545.00,38.898
546.00,38.952
547.00,39.066
548.00,39.140
549.00,39.165
550.00,39.268
551.00,39.323
552.00,39.341
553.00,39.433
554.00,39.567
555.00,39.586
556.00,39.550
557.00,39.618
558.00,39.660
559.00,39.728
560.00,39.850
561.00,39.886
562.00,39.843
563.00,39.882
564.00,40.030
565.00,39.943
566.00,40.073
567.00,40.062
568.00,40.079
569.00,40.141
570.00,40.171
571.00,40.186
572.00,40.236
573.00,40.233
574.00,40.287
575.00,40.372
576.00,40.390
577.00,40.392
578.00,40.353
579.00,40.457
580.00,40.561
581.00,40.627
582.00,40.700
583.00,40.735
584.00,40.797
585.00,40.925
586.00,40.952
587.00,40.913
588.00,40.947
589.00,41.004
590.00,41.124
591.00,41.150
592.00,41.138
593.00,41.159
594.00,41.221
595.00,41.285
596.00,41.326
597.00,41.376
598.00,41.465
599.00,41.448
600.00,41.364
601.00,41.518
602.00,41.592
603.00,41.663
604.00,41.667
605.00,41.739
606.00,41.747
607.00,41.694
608.00,41.748
609.00,41.712
610.00,41.765
611.00,41.848
612.00,41.865
613.00,41.928
614.00,41.959
615.00,41.937
616.00,42.002
617.00,42.044
618.00,42.065
619.00,42.118
620.00,42.144
621.00,42.174
622.00,42.238
623.00,42.300
624.00,42.419
625.00,42.446
626.00,42.479
627.00,42.523
628.00,42.620
629.00,42.587
630.00,42.660
631.00,42.742
632.00,42.758
633.00,42.807
634.00,42.811
635.00,42.969
636.00,43.040
637.00,43.146
638.00,43.251
639.00,43.269
640.00,43.312
641.00,43.286
642.00,43.360
643.00,43.431
644.00,43.517
645.00,43.563
646.00,43.561
647.00,43.686
648.00,43.791
649.00,43.890
650.00,43.863
651.00,44.005
652.00,44.007
653.00,44.124
654.00,44.159
655.00,44.126
656.00,44.223
657.00,44.324
658.00,44.379
659.00,44.552
660.00,44.613
661.00,44.596
662.00,44.824
663.00,44.753
664.00,44.863
665.00,44.942
666.00,44.963
667.00,45.098
668.00,45.110
669.00,45.216
670.00,45.260
671.00,45.424
672.00,45.350
673.00,45.538
674.00,45.665
675.00,45.615
676.00,45.631
677.00,45.751
678.00,45.701
679.00,45.831
680.00,46.000
681.00,46.080
682.00,46.138
683.00,46.221
684.00,46.422
685.00,46.500
686.00,46.429
687.00,46.479
688.00,46.479
689.00,46.521
690.00,46.660
691.00,46.716
692.00,46.763
693.00,46.913
694.00,46.753
695.00,46.813
696.00,47.039
697.00,47.055
698.00,47.137
699.00,47.273
700.00,47.387
701.00,47.403
702.00,47.470
703.00,47.570
704.00,47.594
705.00,47.669
706.00,47.877
707.00,47.756
708.00,47.715
709.00,48.019
710.00,47.944
711.00,47.886
712.00,47.964
713.00,48.075
714.00,48.111
715.00,48.207
716.00,48.278
717.00,48.239
718.00,48.206
719.00,48.335
720.00,48.372
721.00,52.980
722.00,53.019
723.00,53.079
724.00,53.043
725.00,52.993
726.00,53.030
727.00,53.008
728.00,53.025
729.00,53.084
730.00,53.115
731.00,53.075
732.00,53.112
733.00,53.065
734.00,53.178
735.00,53.130
736.00,53.187
737.00,53.240
738.00,53.215
739.00,53.255
740.00,53.244
741.00,53.345
742.00,53.350
743.00,53.343
744.00,53.306
745.00,53.295
746.00,53.290
747.00,53.326
748.00,53.263
749.00,53.237
750.00,53.291
751.00,53.192
752.00,53.326
753.00,53.248
754.00,53.146
755.00,53.064
756.00,53.224
757.00,53.283
758.00,53.254
759.00,53.246
760.00,53.247
761.00,53.272
762.00,53.285
763.00,53.286
764.00,53.247
765.00,53.214
766.00,53.230
767.00,53.278
768.00,53.323
769.00,53.197
770.00,53.323
771.00,53.316
772.00,53.257
773.00,53.275
774.00,53.232
775.00,53.275
776.00,53.263
777.00,53.278
778.00,53.282
779.00,53.335
780.00,53.235
781.00,53.347
782.00,53.246
783.00,53.235
784.00,53.259
785.00,53.194
786.00,53.231
787.00,53.143
788.00,53.174
789.00,53.201
790.00,53.100
791.00,53.211
792.00,53.171
793.00,53.135
794.00,53.162
795.00,53.080
796.00,53.155
797.00,53.030
798.00,52.960
799.00,53.063
800.00,52.972
801.00,52.973
802.00,52.948
803.00,53.035
804.00,52.942
805.00,52.933
806.00,52.855
807.00,52.892
808.00,52.824
809.00,52.796
810.00,52.770
811.00,52.835
812.00,52.894
813.00,52.793
814.00,52.818
815.00,52.786
816.00,52.768
817.00,52.748
818.00,52.654
819.00,52.771
820.00,52.647
821.00,52.633
822.00,52.666
823.00,52.623
824.00,52.620
825.00,52.550
826.00,52.439
827.00,52.518
828.00,52.540
829.00,52.474
830.00,52.581
831.00,54.692
832.00,54.634
833.00,54.575
834.00,54.640
835.00,54.587
836.00,54.605
837.00,54.549
838.00,54.539
839.00,54.556
840.00,54.493
841.00,54.496
842.00,54.449
843.00,54.405
844.00,54.402
845.00,54.396
846.00,54.376
847.00,54.319
848.00,54.321
849.00,54.310
850.00,54.215
851.00,54.191
852.00,54.188
853.00,54.171
854.00,54.131
855.00,54.088
856.00,54.045
857.00,54.192
858.00,54.072
859.00,54.016
860.00,53.967
861.00,53.940
862.00,53.975
863.00,53.910
864.00,53.923
865.00,53.944
866.00,53.916
867.00,53.863
868.00,53.893
869.00,53.889
870.00,53.874
871.00,53.819
872.00,53.796
873.00,53.793
874.00,53.844
875.00,53.862
876.00,53.705
877.00,53.804
878.00,53.790
879.00,53.718
880.00,53.678
881.00,53.724
882.00,53.734
883.00,53.682
884.00,53.647
885.00,53.632
886.00,53.627
887.00,53.599
888.00,53.526
889.00,53.572
890.00,53.558
891.00,53.503
892.00,53.438
893.00,53.464
894.00,53.468
895.00,53.456
896.00,53.391
897.00,53.392
898.00,53.349
899.00,53.360
900.00,53.332
901.00,53.354
902.00,53.333
903.00,53.335
904.00,53.308
905.00,53.270
906.00,53.224
907.00,53.239
908.00,53.212
909.00,53.182
910.00,53.169
911.00,53.137
912.00,53.139
913.00,53.116
914.00,53.047
915.00,53.080
916.00,53.032
917.00,52.984
918.00,53.020
919.00,52.969
920.00,52.954
921.00,52.947
922.00,52.964
923.00,52.930
924.00,52.912
925.00,52.884
926.00,52.872
927.00,52.852
928.00,52.828
929.00,52.792
930.00,52.842
931.00,52.737
932.00,52.748
933.00,52.726
934.00,52.712
935.00,52.682
936.00,52.658
937.00,52.661
938.00,52.662
939.00,52.619
940.00,52.612
941.00,52.593
942.00,52.554
943.00,52.548
944.00,52.515
945.00,52.500
946.00,52.632
947.00,52.468
948.00,52.477
949.00,52.429
950.00,52.406
951.00,52.408
952.00,52.374
953.00,52.340
954.00,52.302
955.00,52.303
956.00,52.282
957.00,52.237
958.00,52.231
959.00,52.221
960.00,52.189
961.00,52.156
962.00,52.169
963.00,52.133
964.00,52.115
965.00,52.082
966.00,52.114
967.00,52.096
968.00,52.072
969.00,52.065
970.00,52.079
971.00,52.083
972.00,52.002
973.00,52.074
974.00,52.097
975.00,52.064
976.00,52.043
977.00,52.071
978.00,52.098
979.00,52.029
980.00,52.045
981.00,52.080
982.00,52.065
983.00,52.004
984.00,52.037
985.00,52.059
986.00,52.006
987.00,52.005
988.00,52.001
989.00,51.994
990.00,51.939
991.00,51.956
992.00,51.991
993.00,51.945
994.00,51.911
995.00,51.916
996.00,51.931
997.00,51.868
998.00,51.870
999.00,51.889
1000.00,51.849
1001.00,51.833
1002.00,51.810
1003.00,51.838
1004.00,51.791
1005.00,51.757
1006.00,51.815
1007.00,51.838
1008.00,51.758
1009.00,51.750
1010.00,51.764
1011.00,51.727
1012.00,51.693
1013.00,51.694
1014.00,51.704
1015.00,51.682
1016.00,51.650
1017.00,51.666
1018.00,51.627
1019.00,51.624
1020.00,51.658
1021.00,51.607
1022.00,51.573
1023.00,51.527
1024.00,51.532
1025.00,51.525
1026.00,51.512
1027.00,51.459
1028.00,51.499
1029.00,51.468
1030.00,51.440
1031.00,51.438
1032.00,51.425
1033.00,51.407
1034.00,51.373
1035.00,51.355
1036.00,51.325
1037.00,51.312
1038.00,51.286
1039.00,51.273
1040.00,51.251
1041.00,51.207
1042.00,51.230
1043.00,51.191
1044.00,51.206
1045.00,51.174
1046.00,51.212
1047.00,51.236
1048.00,51.211
1049.00,51.215
1050.00,51.244
1051.00,51.261
1052.00,51.262
1053.00,51.278
1054.00,51.299
1055.00,51.294
1056.00,51.281
1057.00,51.283
1058.00,51.285
1059.00,51.273
1060.00,51.260
1061.00,51.277
1062.00,51.262
1063.00,51.235
1064.00,51.224
1065.00,51.263
1066.00,51.238
1067.00,51.229
1068.00,51.260
1069.00,51.225
1070.00,51.188
1071.00,51.137
1072.00,51.191
1073.00,51.176
1074.00,51.143
1075.00,51.142
1076.00,51.159
1077.00,51.126
1078.00,51.088
1079.00,51.106
1080.00,51.126
1081.00,51.074
1082.00,51.076
1083.00,51.096
1084.00,51.098
1085.00,51.048
1086.00,51.062
1087.00,51.071
1088.00,51.032
1089.00,51.012
1090.00,51.026
1091.00,51.029
1092.00,51.008
1093.00,50.982
1094.00,50.987
1095.00,50.970
1096.00,50.954
1097.00,50.943
1098.00,50.954
1099.00,50.938
1100.00,50.935
1101.00,50.912
1102.00,50.914
1103.00,50.911
1104.00,50.889
1105.00,50.889
1106.00,50.881
1107.00,50.856
1108.00,50.870
1109.00,50.864
1110.00,50.855
1111.00,50.829
1112.00,50.828
1113.00,50.829
1114.00,50.824
1115.00,50.816
1116.00,50.812
1117.00,50.790
1118.00,50.764
1119.00,50.767
1120.00,50.797
1121.00,50.754
1122.00,50.729
1123.00,50.730
1124.00,50.746
1125.00,50.728
1126.00,50.722
1127.00,50.745
1128.00,50.728
1129.00,50.676
1130.00,50.687
1131.00,50.714
1132.00,50.702
1133.00,50.681
1134.00,50.651
1135.00,50.642
1136.00,50.643
1137.00,50.625
1138.00,50.642
1139.00,50.658
1140.00,50.641
1141.00,50.638
1142.00,50.650
1143.00,50.655
1144.00,50.626
1145.00,50.613
1146.00,50.612
1147.00,50.603
1148.00,50.585
1149.00,50.602
1150.00,50.622
1151.00,50.599
1152.00,50.588
1153.00,50.601
1154.00,50.586
1155.00,50.572
1156.00,50.577
1157.00,50.581
1158.00,50.559
1159.00,50.574
1160.00,50.552
1161.00,50.568
1162.00,50.552
1163.00,50.564
1164.00,50.575
1165.00,50.558
1166.00,50.547
1167.00,50.540
1168.00,50.545
1169.00,50.531
1170.00,50.523
1171.00,50.528
1172.00,50.525
1173.00,50.519
1174.00,50.532
1175.00,50.529
1176.00,50.537
1177.00,50.515
1178.00,50.510
1179.00,50.507
1180.00,50.495
1181.00,50.509
1182.00,50.508
1183.00,50.519
1184.00,50.492
1185.00,50.507
1186.00,50.494
1187.00,50.517
1188.00,50.494
1189.00,50.495
1190.00,50.488
1191.00,50.490
1192.00,50.495
1193.00,50.464
1194.00,50.497
1195.00,50.487
1196.00,50.499
1197.00,50.502
1198.00,50.494
1199.00,50.484
1200.00,50.479
1201.00,50.489
1202.00,50.490
1203.00,50.470
1204.00,50.460
1205.00,50.482
1206.00,50.484
1207.00,50.473
1208.00,50.459
1209.00,50.497
1210.00,50.474
1211.00,50.467
1212.00,50.472
1213.00,50.443
1214.00,50.456
1215.00,50.433
1216.00,50.456
1217.00,50.457
1218.00,50.449
1219.00,50.466
1220.00,50.470
1221.00,50.467
1222.00,50.443
1223.00,50.469
1224.00,50.458
1225.00,50.445
1226.00,50.435
1227.00,50.449
1228.00,50.464
1229.00,50.498
1230.00,50.502
1231.00,50.493
1232.00,50.513
1233.00,50.487
1234.00,50.489
1235.00,50.491
1236.00,50.491
1237.00,50.481
1238.00,50.498
1239.00,50.514
1240.00,50.486
1241.00,50.493
1242.00,50.507
1243.00,50.522
1244.00,50.488
1245.00,50.496
1246.00,50.516
1247.00,50.485
1248.00,50.486
1249.00,50.525
1250.00,50.511
1251.00,50.504
1252.00,50.519
1253.00,50.534
1254.00,50.550
1255.00,50.534
1256.00,50.529
1257.00,50.518
1258.00,50.546
1259.00,50.514
1260.00,50.565
1261.00,50.555
1262.00,50.539
1263.00,50.554
1264.00,50.556
1265.00,50.557
1266.00,50.568
1267.00,50.575
1268.00,50.590
1269.00,50.561
1270.00,50.564
1271.00,50.577
1272.00,50.581
1273.00,50.579
1274.00,50.612
1275.00,50.604
1276.00,50.594
1277.00,50.599
1278.00,50.612
1279.00,50.605
1280.00,50.582
1281.00,50.608
1282.00,50.639
1283.00,50.619
1284.00,50.628
1285.00,50.627
1286.00,50.644
1287.00,50.644
1288.00,50.664
1289.00,50.622
1290.00,50.640
1291.00,50.639
1292.00,50.621
1293.00,50.656
1294.00,50.659
1295.00,50.675
1296.00,50.675
1297.00,50.684
1298.00,50.702
1299.00,50.680
1300.00,50.698
1301.00,50.709
1302.00,50.718
1303.00,50.703
1304.00,50.692
1305.00,50.726
1306.00,50.715
1307.00,50.734
1308.00,50.744
1309.00,50.741
1310.00,50.756
1311.00,50.751
1312.00,50.765
1313.00,50.743
1314.00,50.761
1315.00,50.774
1316.00,50.793
1317.00,50.793
1318.00,50.815
1319.00,50.834
1320.00,50.831
1321.00,50.980
1322.00,50.979
1323.00,50.943
1324.00,50.997
1325.00,50.955
1326.00,50.968
1327.00,50.929
1328.00,50.941
1329.00,50.941
1330.00,50.940
1331.00,50.941
1332.00,50.970
1333.00,50.957
1334.00,50.970
1335.00,51.004
1336.00,51.064
1337.00,51.065
1338.00,51.116
1339.00,51.164
1340.00,51.231
1341.00,51.266
1342.00,51.337
1343.00,51.429
1344.00,51.438
1345.00,51.464
1346.00,51.483
1347.00,51.492
1348.00,51.582
1349.00,51.568
1350.00,51.605
1351.00,51.627
1352.00,51.622
1353.00,51.670
1354.00,51.641
1355.00,51.500
1356.00,51.741
1357.00,51.624
1358.00,51.705
1359.00,51.640
1360.00,51.642
1361.00,52.214
1362.00,51.780
1363.00,51.581
1364.00,51.824
1365.00,51.692
1366.00,51.693
1367.00,51.738
1368.00,51.626
1369.00,51.593
1370.00,51.645
1371.00,51.706
1372.00,51.653
1373.00,51.618
1374.00,51.638
1375.00,51.630
1376.00,51.660
1377.00,51.610
1378.00,51.720
1379.00,51.667
1380.00,51.666
1381.00,51.662
1382.00,51.586
1383.00,51.592
1384.00,51.564
1385.00,51.539
1386.00,51.422
1387.00,51.587
1388.00,51.604
1389.00,51.661
1390.00,51.573
1391.00,51.622
1392.00,51.654
1393.00,51.888
1394.00,51.666
1395.00,51.504
1396.00,51.581
1397.00,51.670
1398.00,51.640
1399.00,51.619
1400.00,51.251
1401.00,51.645
1402.00,51.678
1403.00,51.672
1404.00,51.620
1405.00,51.653
1406.00,51.663
1407.00,51.869
1408.00,51.670
1409.00,51.715
1410.00,51.706
1411.00,51.662
1412.00,51.832
1413.00,51.756
1414.00,51.576
1415.00,51.737
1416.00,51.771
1417.00,51.781
1418.00,51.753
1419.00,51.726
1420.00,51.799
1421.00,51.869
1422.00,51.820
1423.00,51.793
1424.00,51.814
1425.00,51.840
1426.00,51.880
1427.00,51.871
1428.00,51.861
1429.00,51.887
1430.00,51.905
1431.00,51.872
1432.00,51.935
1433.00,51.943
1434.00,51.932
1435.00,51.980
1436.00,51.958
1437.00,52.016
1438.00,51.998
1439.00,52.036
1440.00,52.066
1441.00,52.053
1442.00,52.060
1443.00,52.126
1444.00,52.141
1445.00,52.057
1446.00,52.062
1447.00,52.147
1448.00,52.200
1449.00,52.191
1450.00,52.127
1451.00,52.188
1452.00,52.212
1453.00,52.217
1454.00,52.219
1455.00,52.256
1456.00,52.269
1457.00,52.273
1458.00,52.302
1459.00,52.298
1460.00,52.326
1461.00,52.330
1462.00,52.393
1463.00,52.362
1464.00,52.376
1465.00,52.411
1466.00,52.386
1467.00,52.415
1468.00,52.455
1469.00,52.451
1470.00,52.450
1471.00,52.468
1472.00,52.477
1473.00,52.499
1474.00,52.514
1475.00,52.527
1476.00,52.548
1477.00,52.515
1478.00,52.534
1479.00,52.570
1480.00,52.568
1481.00,52.567
1482.00,52.610
1483.00,52.620
1484.00,52.641
1485.00,52.647
1486.00,52.665
1487.00,52.687
1488.00,52.677
1489.00,52.672
1490.00,52.705
1491.00,52.736
1492.00,52.719
1493.00,52.734
1494.00,52.758
1495.00,52.770
1496.00,52.752
1497.00,52.785
1498.00,52.810
1499.00,52.781
1500.00,52.807
1501.00, 
1502.00, 
1503.00, 
1504.00, 
1505.00, 
1506.00, 
1507.00, 
1508.00, 
1509.00, 
1510.00, 
1511.00, 
1512.00, 
1513.00, 
1514.00, 
1515.00, 
1516.00, 
1517.00, 
1518.00, 
1519.00, 
1520.00, 
1521.00, 
1522.00, 
1523.00, 
1524.00, 
1525.00, 
1526.00, 
1527.00, 
1528.00, 
1529.00, 
1530.00, 
1531.00, 
1532.00, 
1533.00, 
1534.00, 
1535.00, 
1536.00, 
1537.00, 
1538.00, 
1539.00, 
1540.00, 
1541.00, 
1542.00, 
1543.00, 
1544.00, 
1545.00, 
1546.00, 
1547.00, 
1548.00, 
1549.00, 
1550.00, 
1551.00, 
1552.00, 
1553.00, 
1554.00, 
1555.00, 
1556.00, 
1557.00, 
1558.00, 
1559.00, 
1560.00, 
1561.00, 
1562.00, 
1563.00, 
1564.00, 
1565.00, 
1566.00, 
1567.00, 
1568.00, 
1569.00, 
1570.00, 
1571.00, 
1572.00, 
1573.00, 
1574.00, 
1575.00, 
1576.00, 
1577.00, 
1578.00, 
1579.00, 
1580.00, 
1581.00, 
1582.00, 
1583.00, 
1584.00, 
1585.00, 
1586.00, 
1587.00, 
1588.00, 
1589.00, 
1590.00, 
1591.00, 
1592.00, 
1593.00, 
1594.00, 
1595.00, 
1596.00, 
1597.00, 
1598.00, 
1599.00, 
1600.00, 
1601.00, 
1602.00, 
1603.00, 
1604.00, 
1605.00, 
1606.00, 
1607.00, 
1608.00, 
1609.00, 
1610.00, 
1611.00, 
1612.00, 
1613.00, 
1614.00, 
1615.00, 
1616.00, 
1617.00, 
1618.00, 
1619.00, 
1620.00, 
1621.00, 
1622.00, 
1623.00, 
1624.00, 
1625.00, 
1626.00, 
1627.00, 
1628.00, 
1629.00, 
1630.00, 
1631.00, 
1632.00, 
1633.00, 
1634.00, 
1635.00, 
1636.00, 
1637.00, 
1638.00, 
1639.00, 
1640.00, 
1641.00, 
1642.00, 
1643.00, 
1644.00, 
1645.00, 
1646.00, 
1647.00, 
1648.00, 
1649.00, 
1650.00, 
1651.00, 
1652.00, 
1653.00, 
1654.00, 
1655.00, 
1656.00, 
1657.00, 
1658.00, 
1659.00, 
1660.00, 
1661.00, 
1662.00, 
1663.00, 
1664.00, 
1665.00, 
1666.00, 
1667.00, 
1668.00, 
1669.00, 
1670.00, 
1671.00, 
1672.00, 
1673.00, 
1674.00, 
1675.00, 
1676.00, 
1677.00, 
1678.00, 
1679.00, 
1680.00, 
1681.00, 
1682.00, 
1683.00, 
1684.00, 
1685.00, 
1686.00, 
1687.00, 
1688.00, 
1689.00, 
1690.00, 
1691.00, 
1692.00, 
1693.00, 
1694.00, 
1695.00, 
1696.00, 
1697.00, 
1698.00, 
1699.00, 
1700.00, 
1701.00, 
1702.00, 
1703.00, 
1704.00, 
1705.00, 
1706.00, 
1707.00, 
1708.00, 
1709.00, 
1710.00, 
1711.00, 
1712.00, 
1713.00, 
1714.00, 
1715.00, 
1716.00, 
1717.00, 
1718.00, 
1719.00, 
1720.00, 
1721.00, 
1722.00, 
1723.00, 
1724.00, 
1725.00, 
1726.00, 
1727.00, 
1728.00, 
1729.00, 
1730.00, 
1731.00, 
1732.00, 
1733.00, 
1734.00, 
1735.00, 
1736.00, 
1737.00, 
1738.00, 
1739.00, 
1740.00, 
1741.00, 
1742.00, 
1743.00, 
1744.00, 
1745.00, 
1746.00, 
1747.00, 
1748.00, 
1749.00, 
1750.00, 
1751.00, 
1752.00, 
1753.00, 
1754.00, 
1755.00, 
1756.00, 
1757.00, 
1758.00, 
1759.00, 
1760.00, 
1761.00, 
1762.00, 
1763.00, 
1764.00, 
1765.00, 
1766.00, 
1767.00, 
1768.00, 
1769.00, 
1770.00, 
1771.00, 
1772.00, 
1773.00, 
1774.00, 
1775.00, 
1776.00, 
1777.00, 
1778.00, 
1779.00, 
1780.00, 
1781.00, 
1782.00, 
1783.00, 
1784.00, 
1785.00, 
1786.00, 
1787.00, 
1788.00, 
1789.00, 
1790.00, 
1791.00, 
1792.00, 
1793.00, 
1794.00, 
1795.00, 
1796.00, 
1797.00, 
1798.00, 
1799.00, 
1800.00, 
1801.00, 
1802.00, 
1803.00, 
1804.00, 
1805.00, 
1806.00, 
1807.00, 
1808.00, 
1809.00, 
1810.00, 
1811.00, 
1812.00, 
1813.00, 
1814.00, 
1815.00, 
1816.00, 
1817.00, 
1818.00, 
1819.00, 
1820.00, 
1821.00, 
1822.00, 
1823.00, 
1824.00, 
1825.00, 
1826.00, 
1827.00, 
1828.00, 
1829.00, 
1830.00, 
1831.00, 
1832.00, 
1833.00, 
1834.00, 
1835.00, 
1836.00, 
1837.00, 
1838.00, 
1839.00, 
1840.00, 
1841.00, 
1842.00, 
1843.00, 
1844.00, 
1845.00, 
1846.00, 
1847.00, 
1848.00, 
1849.00, 
1850.00, 
1851.00, 
1852.00, 
1853.00, 
1854.00, 
1855.00, 
1856.00, 
1857.00, 
1858.00, 
1859.00, 
1860.00, 
1861.00, 
1862.00, 
1863.00, 
1864.00, 
1865.00, 
1866.00, 
1867.00, 
1868.00, 
1869.00, 
1870.00, 
1871.00, 
1872.00, 
1873.00, 
1874.00, 
1875.00, 
1876.00, 
1877.00, 
1878.00, 
1879.00, 
1880.00, 
1881.00, 
1882.00, 
1883.00, 
1884.00, 
1885.00, 
1886.00, 
1887.00, 
1888.00, 
1889.00, 
1890.00, 
1891.00, 
1892.00, 
1893.00, 
1894.00, 
1895.00, 
1896.00, 
1897.00, 
1898.00, 
1899.00, 
1900.00, 
1901.00, 
1902.00, 
1903.00, 
1904.00, 
1905.00, 
1906.00, 
1907.00, 
1908.00, 
1909.00, 
1910.00, 
1911.00, 
1912.00, 
1913.00, 
1914.00, 
1915.00, 
1916.00, 
1917.00, 
1918.00, 
1919.00, 
1920.00, 
1921.00, 
1922.00, 
1923.00, 
1924.00, 
1925.00, 
1926.00, 
1927.00, 
1928.00, 
1929.00, 
1930.00, 
1931.00, 
1932.00, 
1933.00, 
1934.00, 
1935.00, 
1936.00, 
1937.00, 
1938.00, 
1939.00, 
1940.00, 
1941.00, 
1942.00, 
1943.00, 
1944.00, 
1945.00, 
1946.00, 
1947.00, 
1948.00, 
1949.00, 
1950.00, 
1951.00, 
1952.00, 
1953.00, 
1954.00, 
1955.00, 
1956.00, 
1957.00, 
1958.00, 
1959.00, 
1960.00, 
1961.00, 
1962.00, 
1963.00, 
1964.00, 
1965.00, 
1966.00, 
1967.00, 
1968.00, 
1969.00, 
1970.00, 
1971.00, 
1972.00, 
1973.00, 
1974.00, 
1975.00, 
1976.00, 
1977.00, 
1978.00, 
1979.00, 
1980.00, 
1981.00, 
1982.00, 
1983.00, 
1984.00, 
1985.00, 
1986.00, 
1987.00, 
1988.00, 
1989.00, 
1990.00, 
1991.00, 
1992.00, 
1993.00, 
1994.00, 
1995.00, 
1996.00, 
1997.00, 
1998.00, 
1999.00, 
2000.00, 
2001.00, 
2002.00, 
2003.00, 
2004.00, 
2005.00, 
2006.00, 
2007.00, 
2008.00, 
2009.00, 
2010.00, 
2011.00, 
2012.00, 
2013.00, 
2014.00, 
2015.00, 
2016.00, 
2017.00, 
2018.00, 
2019.00, 
2020.00, 
2021.00, 
2022.00, 
2023.00, 
2024.00, 
2025.00, 
2026.00, 
2027.00, 
2028.00, 
2029.00, 
2030.00, 
2031.00, 
2032.00, 
2033.00, 
2034.00, 
2035.00, 
2036.00, 
2037.00, 
2038.00, 
2039.00, 
2040.00, 
2041.00, 
2042.00, 
2043.00, 
2044.00, 
2045.00, 
2046.00, 
2047.00, 
2048.00, 
2049.00, 
2050.00, 
2051.00, 
2052.00, 
2053.00, 
2054.00, 
2055.00, 
2056.00, 
2057.00, 
2058.00, 
2059.00, 
2060.00, 
2061.00, 
2062.00, 
2063.00, 
2064.00, 
2065.00, 
2066.00, 
2067.00, 
2068.00, 
2069.00, 
2070.00, 
2071.00, 
2072.00, 
2073.00, 
2074.00, 
2075.00, 
2076.00, 
2077.00, 
2078.00, 
2079.00, 
2080.00, 
2081.00, 
2082.00, 
2083.00, 
2084.00, 
2085.00, 
2086.00, 
2087.00, 
2088.00, 
2089.00, 
2090.00, 
2091.00, 
2092.00, 
2093.00, 
2094.00, 
2095.00, 
2096.00, 
2097.00, 
2098.00, 
2099.00, 
2100.00, 
2101.00, 
2102.00, 
2103.00, 
2104.00, 
2105.00, 
2106.00, 
2107.00, 
2108.00, 
2109.00, 
2110.00, 
2111.00, 
2112.00, 
2113.00, 
2114.00, 
2115.00, 
2116.00, 
2117.00, 
2118.00, 
2119.00, 
2120.00, 
2121.00, 
2122.00, 
2123.00, 
2124.00, 
2125.00, 
2126.00, 
2127.00, 
2128.00, 
2129.00, 
2130.00, 
2131.00, 
2132.00, 
2133.00, 
2134.00, 
2135.00, 
2136.00, 
2137.00, 
2138.00, 
2139.00, 
2140.00, 
2141.00, 
2142.00, 
2143.00, 
2144.00, 
2145.00, 
2146.00, 
2147.00, 
2148.00, 
2149.00, 
2150.00, 
2151.00, 
2152.00, 
2153.00, 
2154.00, 
2155.00, 
2156.00, 
2157.00, 
2158.00, 
2159.00, 
2160.00, 
2161.00, 
2162.00, 
2163.00, 
2164.00, 
2165.00, 
2166.00, 
2167.00, 
2168.00, 
2169.00, 
2170.00, 
2171.00, 
2172.00, 
2173.00, 
2174.00, 
2175.00, 
2176.00, 
2177.00, 
2178.00, 
2179.00, 
2180.00, 
2181.00, 
2182.00, 
2183.00, 
2184.00, 
2185.00, 
2186.00, 
2187.00, 
2188.00, 
2189.00, 
2190.00, 
2191.00, 
2192.00, 
2193.00, 
2194.00, 
2195.00, 
2196.00, 
2197.00, 
2198.00, 
2199.00, 
2200.00, 
2201.00, 
2202.00, 
2203.00, 
2204.00, 
2205.00, 
2206.00, 
2207.00, 
2208.00, 
2209.00, 
2210.00, 
2211.00, 
2212.00, 
2213.00, 
2214.00, 
2215.00, 
2216.00, 
2217.00, 
2218.00, 
2219.00, 
2220.00, 
2221.00, 
2222.00, 
2223.00, 
2224.00, 
2225.00, 
2226.00, 
2227.00, 
2228.00, 
2229.00, 
2230.00, 
2231.00, 
2232.00, 
2233.00, 
2234.00, 
2235.00, 
2236.00, 
2237.00, 
2238.00, 
2239.00, 
2240.00, 
2241.00, 
2242.00, 
2243.00, 
2244.00, 
2245.00, 
2246.00, 
2247.00, 
2248.00, 
2249.00, 
2250.00, 
2251.00, 
2252.00, 
2253.00, 
2254.00, 
2255.00, 
2256.00, 
2257.00, 
2258.00, 
2259.00, 
2260.00, 
2261.00, 
2262.00, 
2263.00, 
2264.00, 
2265.00, 
2266.00, 
2267.00, 
2268.00, 
2269.00, 
2270.00, 
2271.00, 
2272.00, 
2273.00, 
2274.00, 
2275.00, 
2276.00, 
2277.00, 
2278.00, 
2279.00, 
2280.00, 
2281.00, 
2282.00, 
2283.00, 
2284.00, 
2285.00, 
2286.00, 
2287.00, 
2288.00, 
2289.00, 
2290.00, 
2291.00, 
2292.00, 
2293.00, 
2294.00, 
2295.00, 
2296.00, 
2297.00, 
2298.00, 
2299.00, 
2300.00, 
2301.00, 
2302.00, 
2303.00, 
2304.00, 
2305.00, 
2306.00, 
2307.00, 
2308.00, 
2309.00, 
2310.00, 
2311.00, 
2312.00, 
2313.00, 
2314.00, 
2315.00, 
2316.00, 
2317.00, 
2318.00, 
2319.00, 
2320.00, 
2321.00, 
2322.00, 
2323.00, 
2324.00, 
2325.00, 
2326.00, 
2327.00, 
2328.00, 
2329.00, 
2330.00, 
2331.00, 
2332.00, 
2333.00, 
2334.00, 
2335.00, 
2336.00, 
2337.00, 
2338.00, 
2339.00, 
2340.00, 
2341.00, 
2342.00, 
2343.00, 
2344.00, 
2345.00, 
2346.00, 
2347.00, 
2348.00, 
2349.00, 
2350.00, 
2351.00, 
2352.00, 
2353.00, 
2354.00, 
2355.00, 
2356.00, 
2357.00, 
2358.00, 
2359.00, 
2360.00, 
2361.00, 
2362.00, 
2363.00, 
2364.00, 
2365.00, 
2366.00, 
2367.00, 
2368.00, 
2369.00, 
2370.00, 
2371.00, 
2372.00, 
2373.00, 
2374.00, 
2375.00, 
2376.00, 
2377.00, 
2378.00, 
2379.00, 
2380.00, 
2381.00, 
2382.00, 
2383.00, 
2384.00, 
2385.00, 
2386.00, 
2387.00, 
2388.00, 
2389.00, 
2390.00, 
2391.00, 
2392.00, 
2393.00, 
2394.00, 
2395.00, 
2396.00, 
2397.00, 
2398.00, 
2399.00, 
2400.00, 
2401.00, 
2402.00, 
2403.00, 
2404.00, 
2405.00, 
2406.00, 
2407.00, 
2408.00, 
2409.00, 
2410.00, 
2411.00, 
2412.00, 
2413.00, 
2414.00, 
2415.00, 
2416.00, 
2417.00, 
2418.00, 
2419.00, 
2420.00, 
2421.00, 
2422.00, 
2423.00, 
2424.00, 
2425.00, 
2426.00, 
2427.00, 
2428.00, 
2429.00, 
2430.00, 
2431.00, 
2432.00, 
2433.00, 
2434.00, 
2435.00, 
2436.00, 
2437.00, 
2438.00, 
2439.00, 
2440.00, 
2441.00, 
2442.00, 
2443.00, 
2444.00, 
2445.00, 
2446.00, 
2447.00, 
2448.00, 
2449.00, 
2450.00, 
2451.00, 
2452.00, 
2453.00, 
2454.00, 
2455.00, 
2456.00, 
2457.00, 
2458.00, 
2459.00, 
2460.00, 
2461.00, 
2462.00, 
2463.00, 
2464.00, 
2465.00, 
2466.00, 
2467.00, 
2468.00, 
2469.00, 
2470.00, 
2471.00, 
2472.00, 
2473.00, 
2474.00, 
2475.00, 
2476.00, 
2477.00, 
2478.00, 
2479.00, 
2480.00, 
2481.00, 
2482.00, 
2483.00, 
2484.00, 
2485.00, 
2486.00, 
2487.00, 
2488.00, 
2489.00, 
2490.00, 
2491.00, 
2492.00, 
2493.00, 
2494.00, 
2495.00, 
2496.00, 
2497.00, 
2498.00, 
2499.00, 
2500.00, 
2501.00, 
2502.00, 
2503.00, 
2504.00, 
2505.00, 
2506.00, 
2507.00, 
2508.00, 
2509.00, 
2510.00, 
2511.00, 
2512.00, 
2513.00, 
2514.00, 
2515.00, 
2516.00, 
2517.00, 
2518.00, 
2519.00, 
2520.00, 
2521.00, 
2522.00, 
2523.00, 
2524.00, 
2525.00, 
2526.00, 
2527.00, 
2528.00, 
2529.00, 
2530.00, 
2531.00, 
2532.00, 
2533.00, 
2534.00, 
2535.00, 
2536.00, 
2537.00, 
2538.00, 
2539.00, 
2540.00, 
2541.00, 
2542.00, 
2543.00, 
2544.00, 
2545.00, 
2546.00, 
2547.00, 
2548.00, 
2549.00, 
2550.00, 
2551.00, 
2552.00, 
2553.00, 
2554.00, 
2555.00, 
2556.00, 
2557.00, 
2558.00, 
2559.00, 
2560.00, 
2561.00, 
2562.00, 
2563.00, 
2564.00, 
2565.00, 
2566.00, 
2567.00, 
2568.00, 
2569.00, 
2570.00, 
2571.00, 
2572.00, 
2573.00, 
2574.00, 
2575.00, 
2576.00, 
2577.00, 
2578.00, 
2579.00, 
2580.00, 
2581.00, 
2582.00, 
2583.00, 
2584.00, 
2585.00, 
2586.00, 
2587.00, 
2588.00, 
2589.00, 
2590.00, 
2591.00, 
2592.00, 
2593.00, 
2594.00, 
2595.00, 
2596.00, 
2597.00, 
2598.00, 
2599.00, 
2600.00, 
