"1cP4 - RawData"
"Wavelength nm.","T%"
200.00,0.001
201.00,0.002
202.00,0.002
203.00,0.001
204.00,0.001
205.00,0.001
206.00,0.001
207.00,-0.004
208.00,-0.003
209.00,0.002
210.00,0.002
211.00,0.002
212.00,0.000
213.00,-0.001
214.00,0.002
215.00,0.002
216.00,0.002
217.00,-0.000
218.00,0.002
219.00,0.003
220.00,0.003
221.00,-0.000
222.00,0.002
223.00,0.001
224.00,0.003
225.00,0.000
226.00,0.000
227.00,0.002
228.00,-0.002
229.00,0.003
230.00,0.001
231.00,0.000
232.00,0.001
233.00,0.000
234.00,-0.001
235.00,-0.001
236.00,-0.002
237.00,0.000
238.00,0.002
239.00,-0.000
240.00,-0.001
241.00,-0.001
242.00,0.000
243.00,0.000
244.00,0.000
245.00,0.001
246.00,0.001
247.00,-0.002
248.00,0.001
249.00,0.001
250.00,0.001
251.00,0.001
252.00,-0.001
253.00,0.001
254.00,-0.001
255.00,0.001
256.00,-0.000
257.00,-0.000
258.00,0.003
259.00,0.000
260.00,-0.001
261.00,0.001
262.00,0.001
263.00,0.000
264.00,-0.000
265.00,-0.001
266.00,0.001
267.00,-0.000
268.00,-0.001
269.00,0.000
270.00,0.001
271.00,0.001
272.00,-0.001
273.00,0.000
274.00,0.001
275.00,-0.000
276.00,0.002
277.00,0.000
278.00,0.001
279.00,-0.000
280.00,0.001
281.00,0.001
282.00,-0.001
283.00,0.000
284.00,-0.000
285.00,0.001
286.00,-0.002
287.00,0.000
288.00,-0.000
289.00,0.000
290.00,-0.000
291.00,-0.001
292.00,-0.000
293.00,0.000
294.00,0.001
295.00,0.001
296.00,0.000
297.00,0.003
298.00,-0.001
299.00,0.000
300.00,0.000
301.00,0.003
302.00,0.002
303.00,0.001
304.00,0.003
305.00,0.002
306.00,0.002
307.00,0.001
308.00,0.007
309.00,0.013
310.00,0.015
311.00,0.027
312.00,0.038
313.00,0.058
314.00,0.090
315.00,0.125
316.00,0.189
317.00,0.268
318.00,0.367
319.00,0.495
320.00,0.658
321.00,0.859
322.00,1.090
323.00,1.373
324.00,1.702
325.00,2.040
326.00,2.436
327.00,2.869
328.00,3.370
329.00,3.865
330.00,4.462
331.00,5.038
332.00,5.654
333.00,6.314
334.00,6.917
335.00,7.634
336.00,8.324
337.00,9.035
338.00,9.745
339.00,10.367
340.00,11.095
341.00,11.659
342.00,12.357
343.00,12.992
344.00,13.565
345.00,14.174
346.00,14.741
347.00,15.224
348.00,15.737
349.00,16.179
350.00,16.638
351.00,17.030
352.00,17.378
353.00,17.742
354.00,18.096
355.00,18.399
356.00,18.722
357.00,18.979
358.00,19.248
359.00,19.526
360.00,19.763
361.00,19.918
362.00,20.116
363.00,20.319
364.00,20.336
365.00,20.504
366.00,20.617
367.00,20.705
368.00,20.728
369.00,20.775
370.00,20.919
371.00,20.884
372.00,20.804
373.00,20.771
374.00,20.820
375.00,20.801
376.00,20.703
377.00,20.550
378.00,20.499
379.00,20.392
380.00,20.358
381.00,20.375
382.00,20.329
383.00,20.381
384.00,20.450
385.00,20.493
386.00,20.503
387.00,20.593
388.00,20.697
389.00,20.714
390.00,20.687
391.00,20.791
392.00,20.761
393.00,20.815
394.00,20.850
395.00,20.883
396.00,20.867
397.00,20.890
398.00,20.870
399.00,20.902
400.00,20.898
401.00,20.894
402.00,20.886
403.00,20.844
404.00,20.838
405.00,20.803
406.00,20.811
407.00,20.782
408.00,20.779
409.00,20.709
410.00,20.670
411.00,20.669
412.00,20.641
413.00,20.686
414.00,20.636
415.00,20.650
416.00,20.686
417.00,20.665
418.00,20.694
419.00,20.765
420.00,20.838
421.00,20.795
422.00,20.833
423.00,20.862
424.00,20.923
425.00,20.945
426.00,20.957
427.00,21.032
428.00,21.006
429.00,21.066
430.00,21.159
431.00,21.188
432.00,21.233
433.00,21.294
434.00,21.328
435.00,21.416
436.00,21.448
437.00,21.535
438.00,21.587
439.00,21.645
440.00,21.727
441.00,21.793
442.00,21.872
443.00,21.982
444.00,22.095
445.00,22.168
446.00,22.293
447.00,22.440
448.00,22.453
449.00,22.545
450.00,22.653
451.00,22.720
452.00,22.838
453.00,22.989
454.00,23.076
455.00,23.216
456.00,23.332
457.00,23.462
458.00,23.559
459.00,23.687
460.00,23.798
461.00,23.949
462.00,24.114
463.00,24.193
464.00,24.334
465.00,24.464
466.00,24.606
467.00,24.739
468.00,24.802
469.00,24.969
470.00,25.025
471.00,25.120
472.00,25.287
473.00,25.373
474.00,25.487
475.00,25.612
476.00,25.740
477.00,25.863
478.00,25.982
479.00,26.211
480.00,26.232
481.00,26.428
482.00,26.510
483.00,26.749
484.00,26.926
485.00,27.045
486.00,27.187
487.00,27.356
488.00,27.474
489.00,27.677
490.00,27.828
491.00,27.951
492.00,28.192
493.00,28.337
494.00,28.322
495.00,28.471
496.00,28.623
497.00,28.743
498.00,28.908
499.00,29.045
500.00,29.169
501.00,29.264
502.00,29.376
503.00,29.548
504.00,29.588
505.00,29.751
506.00,29.888
507.00,29.938
508.00,30.097
509.00,30.240
510.00,30.401
511.00,30.426
512.00,30.581
513.00,30.764
514.00,30.797
515.00,31.017
516.00,31.173
517.00,31.170
518.00,31.151
519.00,31.320
520.00,31.520
521.00,31.631
522.00,31.766
523.00,31.735
524.00,31.891
525.00,32.004
526.00,32.091
527.00,32.176
528.00,32.202
529.00,32.437
530.00,32.555
531.00,32.675
532.00,32.754
533.00,32.867
534.00,32.948
535.00,33.052
536.00,33.135
537.00,33.195
538.00,33.290
539.00,33.308
540.00,33.385
541.00,33.448
542.00,33.498
543.00,33.608
544.00,33.694
545.00,33.745
546.00,33.746
547.00,33.889
548.00,33.988
549.00,34.042
550.00,34.132
551.00,34.255
552.00,34.297
553.00,34.330
554.00,34.399
555.00,34.431
556.00,34.508
557.00,34.610
558.00,34.615
559.00,34.700
560.00,34.770
561.00,34.811
562.00,34.939
563.00,34.953
564.00,34.943
565.00,34.998
566.00,35.065
567.00,35.052
568.00,35.129
569.00,35.237
570.00,35.228
571.00,35.323
572.00,35.328
573.00,35.275
574.00,35.370
575.00,35.370
576.00,35.410
577.00,35.433
578.00,35.559
579.00,35.622
580.00,35.626
581.00,35.770
582.00,35.848
583.00,35.842
584.00,35.928
585.00,35.999
586.00,36.031
587.00,36.062
588.00,36.119
589.00,36.081
590.00,36.175
591.00,36.197
592.00,36.176
593.00,36.173
594.00,36.322
595.00,36.480
596.00,36.444
597.00,36.479
598.00,36.598
599.00,36.601
600.00,36.628
601.00,36.662
602.00,36.693
603.00,36.754
604.00,36.805
605.00,36.887
606.00,36.806
607.00,36.890
608.00,37.083
609.00,37.141
610.00,37.022
611.00,37.234
612.00,37.123
613.00,37.235
614.00,37.289
615.00,37.299
616.00,37.429
617.00,37.436
618.00,37.391
619.00,37.538
620.00,37.551
621.00,37.629
622.00,37.689
623.00,37.765
624.00,37.842
625.00,37.938
626.00,38.015
627.00,38.081
628.00,38.056
629.00,38.120
630.00,38.159
631.00,38.230
632.00,38.322
633.00,38.462
634.00,38.522
635.00,38.631
636.00,38.665
637.00,38.659
638.00,38.752
639.00,38.897
640.00,38.899
641.00,38.974
642.00,39.061
643.00,39.111
644.00,39.199
645.00,39.268
646.00,39.456
647.00,39.495
648.00,39.560
649.00,39.624
650.00,39.677
651.00,39.840
652.00,39.918
653.00,39.850
654.00,39.985
655.00,40.184
656.00,40.404
657.00,40.197
658.00,40.317
659.00,40.512
660.00,40.651
661.00,40.611
662.00,40.686
663.00,40.812
664.00,41.158
665.00,41.291
666.00,41.134
667.00,41.300
668.00,41.324
669.00,41.527
670.00,41.834
671.00,41.758
672.00,41.766
673.00,41.834
674.00,41.942
675.00,42.107
676.00,42.308
677.00,42.417
678.00,42.277
679.00,42.422
680.00,42.567
681.00,42.734
682.00,42.731
683.00,42.826
684.00,43.036
685.00,43.097
686.00,43.033
687.00,43.113
688.00,43.123
689.00,43.251
690.00,43.567
691.00,43.756
692.00,43.571
693.00,43.711
694.00,43.821
695.00,43.941
696.00,44.075
697.00,44.024
698.00,44.223
699.00,44.468
700.00,44.463
701.00,44.435
702.00,44.555
703.00,44.910
704.00,44.740
705.00,44.800
706.00,44.965
707.00,44.612
708.00,45.006
709.00,45.470
710.00,45.286
711.00,45.220
712.00,45.354
713.00,45.527
714.00,45.557
715.00,45.529
716.00,45.583
717.00,45.758
718.00,45.848
719.00,45.864
720.00,45.896
721.00,50.285
722.00,50.350
723.00,50.357
724.00,50.386
725.00,50.430
726.00,50.382
727.00,50.428
728.00,50.483
729.00,50.562
730.00,50.571
731.00,50.616
732.00,50.599
733.00,50.665
734.00,50.718
735.00,50.727
736.00,50.847
737.00,50.823
738.00,50.853
739.00,50.923
740.00,50.886
741.00,50.937
742.00,51.002
743.00,50.960
744.00,51.019
745.00,51.133
746.00,51.056
747.00,51.101
748.00,51.147
749.00,51.075
750.00,51.075
751.00,51.058
752.00,51.117
753.00,51.161
754.00,51.123
755.00,51.092
756.00,51.124
757.00,51.161
758.00,51.266
759.00,51.225
760.00,51.180
761.00,51.158
762.00,51.279
763.00,51.293
764.00,51.265
765.00,51.301
766.00,51.276
767.00,51.382
768.00,51.348
769.00,51.349
770.00,51.357
771.00,51.356
772.00,51.379
773.00,51.419
774.00,51.496
775.00,51.494
776.00,51.444
777.00,51.447
778.00,51.403
779.00,51.532
780.00,51.380
781.00,51.417
782.00,51.515
783.00,51.477
784.00,51.451
785.00,51.427
786.00,51.477
787.00,51.443
788.00,51.415
789.00,51.444
790.00,51.398
791.00,51.507
792.00,51.433
793.00,51.444
794.00,51.389
795.00,51.371
796.00,51.432
797.00,51.350
798.00,51.346
799.00,51.290
800.00,51.254
801.00,51.267
802.00,51.253
803.00,51.284
804.00,51.277
805.00,51.267
806.00,51.300
807.00,51.239
808.00,51.262
809.00,51.176
810.00,51.173
811.00,51.245
812.00,51.220
813.00,51.204
814.00,51.240
815.00,51.132
816.00,51.174
817.00,51.188
818.00,51.132
819.00,51.063
820.00,51.004
821.00,51.075
822.00,51.074
823.00,51.002
824.00,51.146
825.00,50.927
826.00,50.985
827.00,51.041
828.00,51.020
829.00,51.058
830.00,50.927
831.00,53.269
832.00,53.252
833.00,53.193
834.00,53.195
835.00,53.160
836.00,53.193
837.00,53.152
838.00,53.147
839.00,53.173
840.00,53.100
841.00,53.120
842.00,53.081
843.00,53.082
844.00,52.994
845.00,52.994
846.00,53.058
847.00,53.009
848.00,53.036
849.00,52.916
850.00,52.933
851.00,52.883
852.00,52.895
853.00,52.804
854.00,52.828
855.00,52.756
856.00,52.742
857.00,52.714
858.00,52.708
859.00,52.683
860.00,52.682
861.00,52.713
862.00,52.664
863.00,52.628
864.00,52.660
865.00,52.607
866.00,52.612
867.00,52.606
868.00,52.580
869.00,52.530
870.00,52.554
871.00,52.531
872.00,52.544
873.00,52.525
874.00,52.524
875.00,52.484
876.00,52.483
877.00,52.476
878.00,52.472
879.00,52.433
880.00,52.448
881.00,52.424
882.00,52.436
883.00,52.380
884.00,52.373
885.00,52.327
886.00,52.299
887.00,52.321
888.00,52.306
889.00,52.285
890.00,52.305
891.00,52.260
892.00,52.234
893.00,52.236
894.00,52.256
895.00,52.167
896.00,52.158
897.00,52.136
898.00,52.122
899.00,52.128
900.00,52.083
901.00,52.094
902.00,52.078
903.00,52.054
904.00,52.048
905.00,52.035
906.00,52.051
907.00,52.002
908.00,51.957
909.00,51.949
910.00,51.915
911.00,51.910
912.00,51.896
913.00,51.867
914.00,51.838
915.00,51.799
916.00,51.789
917.00,51.796
918.00,51.782
919.00,51.737
920.00,51.699
921.00,51.735
922.00,51.725
923.00,51.665
924.00,51.646
925.00,51.650
926.00,51.614
927.00,51.609
928.00,51.567
929.00,51.591
930.00,51.543
931.00,51.531
932.00,51.490
933.00,51.549
934.00,51.391
935.00,51.468
936.00,51.462
937.00,51.426
938.00,51.413
939.00,51.395
940.00,51.371
941.00,51.362
942.00,51.355
943.00,51.342
944.00,51.295
945.00,51.296
946.00,51.281
947.00,51.231
948.00,51.209
949.00,51.201
950.00,51.185
951.00,51.168
952.00,51.136
953.00,51.113
954.00,51.120
955.00,51.063
956.00,51.057
957.00,51.021
958.00,51.020
959.00,50.968
960.00,50.971
961.00,50.974
962.00,50.967
963.00,50.907
964.00,50.916
965.00,50.921
966.00,50.903
967.00,50.889
968.00,50.874
969.00,50.901
970.00,50.880
971.00,50.878
972.00,50.834
973.00,50.884
974.00,50.895
975.00,50.870
976.00,50.878
977.00,50.869
978.00,50.903
979.00,50.905
980.00,50.868
981.00,50.872
982.00,50.835
983.00,50.850
984.00,50.814
985.00,50.835
986.00,50.807
987.00,50.834
988.00,50.793
989.00,50.789
990.00,50.789
991.00,50.760
992.00,50.782
993.00,50.741
994.00,50.729
995.00,50.713
996.00,50.724
997.00,50.716
998.00,50.689
999.00,50.699
1000.00,50.642
1001.00,50.652
1002.00,50.635
1003.00,50.634
1004.00,50.612
1005.00,50.564
1006.00,50.612
1007.00,50.569
1008.00,50.565
1009.00,50.540
1010.00,50.552
1011.00,50.541
1012.00,50.523
1013.00,50.519
1014.00,50.493
1015.00,50.516
1016.00,50.466
1017.00,50.458
1018.00,50.444
1019.00,50.417
1020.00,50.406
1021.00,50.373
1022.00,50.382
1023.00,50.333
1024.00,50.339
1025.00,50.334
1026.00,50.315
1027.00,50.288
1028.00,50.288
1029.00,50.282
1030.00,50.241
1031.00,50.264
1032.00,50.222
1033.00,50.224
1034.00,50.194
1035.00,50.151
1036.00,50.124
1037.00,50.107
1038.00,50.085
1039.00,50.059
1040.00,50.063
1041.00,50.028
1042.00,50.032
1043.00,50.021
1044.00,50.046
1045.00,50.030
1046.00,50.008
1047.00,50.052
1048.00,50.065
1049.00,50.059
1050.00,50.063
1051.00,50.094
1052.00,50.098
1053.00,50.085
1054.00,50.093
1055.00,50.116
1056.00,50.124
1057.00,50.117
1058.00,50.099
1059.00,50.107
1060.00,50.120
1061.00,50.104
1062.00,50.082
1063.00,50.085
1064.00,50.098
1065.00,50.076
1066.00,50.060
1067.00,50.063
1068.00,50.081
1069.00,50.050
1070.00,50.031
1071.00,50.019
1072.00,50.050
1073.00,50.019
1074.00,50.020
1075.00,50.003
1076.00,50.008
1077.00,49.976
1078.00,49.968
1079.00,49.963
1080.00,49.957
1081.00,49.949
1082.00,49.937
1083.00,49.921
1084.00,49.908
1085.00,49.950
1086.00,49.941
1087.00,49.925
1088.00,49.915
1089.00,49.913
1090.00,49.901
1091.00,49.902
1092.00,49.900
1093.00,49.871
1094.00,49.860
1095.00,49.843
1096.00,49.832
1097.00,49.839
1098.00,49.824
1099.00,49.815
1100.00,49.807
1101.00,49.822
1102.00,49.811
1103.00,49.800
1104.00,49.788
1105.00,49.764
1106.00,49.758
1107.00,49.758
1108.00,49.746
1109.00,49.746
1110.00,49.719
1111.00,49.733
1112.00,49.714
1113.00,49.703
1114.00,49.696
1115.00,49.689
1116.00,49.703
1117.00,49.694
1118.00,49.668
1119.00,49.668
1120.00,49.668
1121.00,49.670
1122.00,49.652
1123.00,49.649
1124.00,49.646
1125.00,49.644
1126.00,49.621
1127.00,49.627
1128.00,49.606
1129.00,49.579
1130.00,49.576
1131.00,49.578
1132.00,49.572
1133.00,49.595
1134.00,49.569
1135.00,49.569
1136.00,49.571
1137.00,49.566
1138.00,49.560
1139.00,49.568
1140.00,49.564
1141.00,49.568
1142.00,49.543
1143.00,49.545
1144.00,49.538
1145.00,49.526
1146.00,49.534
1147.00,49.524
1148.00,49.508
1149.00,49.539
1150.00,49.533
1151.00,49.528
1152.00,49.517
1153.00,49.513
1154.00,49.493
1155.00,49.517
1156.00,49.501
1157.00,49.497
1158.00,49.489
1159.00,49.499
1160.00,49.485
1161.00,49.495
1162.00,49.499
1163.00,49.502
1164.00,49.510
1165.00,49.514
1166.00,49.519
1167.00,49.497
1168.00,49.516
1169.00,49.507
1170.00,49.497
1171.00,49.488
1172.00,49.492
1173.00,49.489
1174.00,49.500
1175.00,49.496
1176.00,49.484
1177.00,49.481
1178.00,49.484
1179.00,49.484
1180.00,49.478
1181.00,49.493
1182.00,49.487
1183.00,49.478
1184.00,49.478
1185.00,49.472
1186.00,49.459
1187.00,49.463
1188.00,49.483
1189.00,49.491
1190.00,49.485
1191.00,49.484
1192.00,49.496
1193.00,49.487
1194.00,49.484
1195.00,49.460
1196.00,49.501
1197.00,49.494
1198.00,49.475
1199.00,49.464
1200.00,49.471
1201.00,49.492
1202.00,49.457
1203.00,49.465
1204.00,49.452
1205.00,49.483
1206.00,49.464
1207.00,49.475
1208.00,49.462
1209.00,49.468
1210.00,49.472
1211.00,49.465
1212.00,49.491
1213.00,49.437
1214.00,49.475
1215.00,49.457
1216.00,49.477
1217.00,49.485
1218.00,49.454
1219.00,49.486
1220.00,49.463
1221.00,49.507
1222.00,49.479
1223.00,49.523
1224.00,49.522
1225.00,49.490
1226.00,49.508
1227.00,49.489
1228.00,49.508
1229.00,49.505
1230.00,49.530
1231.00,49.524
1232.00,49.539
1233.00,49.536
1234.00,49.537
1235.00,49.537
1236.00,49.581
1237.00,49.601
1238.00,49.569
1239.00,49.562
1240.00,49.561
1241.00,49.573
1242.00,49.566
1243.00,49.581
1244.00,49.545
1245.00,49.596
1246.00,49.600
1247.00,49.573
1248.00,49.577
1249.00,49.595
1250.00,49.611
1251.00,49.600
1252.00,49.615
1253.00,49.584
1254.00,49.623
1255.00,49.608
1256.00,49.604
1257.00,49.602
1258.00,49.635
1259.00,49.619
1260.00,49.626
1261.00,49.658
1262.00,49.654
1263.00,49.666
1264.00,49.675
1265.00,49.665
1266.00,49.659
1267.00,49.651
1268.00,49.679
1269.00,49.698
1270.00,49.708
1271.00,49.705
1272.00,49.705
1273.00,49.733
1274.00,49.723
1275.00,49.727
1276.00,49.715
1277.00,49.713
1278.00,49.726
1279.00,49.725
1280.00,49.709
1281.00,49.732
1282.00,49.743
1283.00,49.761
1284.00,49.765
1285.00,49.752
1286.00,49.772
1287.00,49.781
1288.00,49.791
1289.00,49.773
1290.00,49.818
1291.00,49.804
1292.00,49.816
1293.00,49.804
1294.00,49.825
1295.00,49.848
1296.00,49.854
1297.00,49.848
1298.00,49.899
1299.00,49.855
1300.00,49.873
1301.00,49.881
1302.00,49.907
1303.00,49.896
1304.00,49.874
1305.00,49.906
1306.00,49.915
1307.00,49.912
1308.00,49.914
1309.00,49.920
1310.00,49.916
1311.00,49.902
1312.00,49.941
1313.00,49.928
1314.00,49.956
1315.00,49.981
1316.00,49.968
1317.00,50.009
1318.00,50.009
1319.00,50.015
1320.00,50.011
1321.00,50.185
1322.00,50.165
1323.00,50.157
1324.00,50.158
1325.00,50.158
1326.00,50.188
1327.00,50.180
1328.00,50.184
1329.00,50.172
1330.00,50.195
1331.00,50.185
1332.00,50.172
1333.00,50.185
1334.00,50.223
1335.00,50.230
1336.00,50.257
1337.00,50.273
1338.00,50.351
1339.00,50.387
1340.00,50.427
1341.00,50.501
1342.00,50.551
1343.00,50.625
1344.00,50.661
1345.00,50.727
1346.00,50.782
1347.00,50.765
1348.00,50.792
1349.00,50.825
1350.00,50.852
1351.00,50.867
1352.00,50.887
1353.00,50.932
1354.00,50.892
1355.00,50.851
1356.00,50.918
1357.00,50.911
1358.00,50.939
1359.00,50.899
1360.00,51.000
1361.00,51.019
1362.00,50.843
1363.00,50.954
1364.00,51.015
1365.00,50.935
1366.00,50.997
1367.00,50.953
1368.00,50.886
1369.00,50.968
1370.00,50.966
1371.00,50.881
1372.00,50.904
1373.00,50.942
1374.00,50.928
1375.00,50.952
1376.00,50.989
1377.00,50.792
1378.00,51.057
1379.00,50.952
1380.00,50.987
1381.00,50.962
1382.00,50.971
1383.00,50.989
1384.00,50.908
1385.00,50.979
1386.00,50.966
1387.00,50.911
1388.00,50.904
1389.00,50.940
1390.00,51.010
1391.00,50.906
1392.00,50.906
1393.00,50.953
1394.00,50.955
1395.00,50.856
1396.00,50.887
1397.00,50.976
1398.00,50.964
1399.00,50.870
1400.00,50.898
1401.00,50.918
1402.00,51.008
1403.00,50.971
1404.00,50.988
1405.00,50.997
1406.00,51.031
1407.00,51.019
1408.00,51.026
1409.00,51.008
1410.00,51.066
1411.00,51.024
1412.00,51.106
1413.00,51.020
1414.00,51.051
1415.00,51.094
1416.00,51.100
1417.00,51.104
1418.00,51.083
1419.00,51.112
1420.00,51.135
1421.00,51.177
1422.00,51.161
1423.00,51.194
1424.00,51.195
1425.00,51.220
1426.00,51.233
1427.00,51.252
1428.00,51.250
1429.00,51.291
1430.00,51.305
1431.00,51.309
1432.00,51.311
1433.00,51.328
1434.00,51.330
1435.00,51.387
1436.00,51.393
1437.00,51.402
1438.00,51.416
1439.00,51.427
1440.00,51.454
1441.00,51.457
1442.00,51.457
1443.00,51.503
1444.00,51.536
1445.00,51.526
1446.00,51.550
1447.00,51.580
1448.00,51.636
1449.00,51.610
1450.00,51.630
1451.00,51.644
1452.00,51.693
1453.00,51.671
1454.00,51.706
1455.00,51.729
1456.00,51.755
1457.00,51.739
1458.00,51.758
1459.00,51.785
1460.00,51.830
1461.00,51.822
1462.00,51.859
1463.00,51.873
1464.00,51.867
1465.00,51.875
1466.00,51.892
1467.00,51.906
1468.00,51.958
1469.00,51.929
1470.00,51.960
1471.00,51.974
1472.00,51.974
1473.00,52.011
1474.00,52.035
1475.00,52.040
1476.00,52.065
1477.00,52.058
1478.00,52.084
1479.00,52.081
1480.00,52.105
1481.00,52.112
1482.00,52.143
1483.00,52.157
1484.00,52.176
1485.00,52.181
1486.00,52.185
1487.00,52.224
1488.00,52.236
1489.00,52.223
1490.00,52.241
1491.00,52.268
1492.00,52.292
1493.00,52.286
1494.00,52.319
1495.00,52.300
1496.00,52.330
1497.00,52.308
1498.00,52.336
1499.00,52.348
1500.00,52.356
1501.00, 
1502.00, 
1503.00, 
1504.00, 
1505.00, 
1506.00, 
1507.00, 
1508.00, 
1509.00, 
1510.00, 
1511.00, 
1512.00, 
1513.00, 
1514.00, 
1515.00, 
1516.00, 
1517.00, 
1518.00, 
1519.00, 
1520.00, 
1521.00, 
1522.00, 
1523.00, 
1524.00, 
1525.00, 
1526.00, 
1527.00, 
1528.00, 
1529.00, 
1530.00, 
1531.00, 
1532.00, 
1533.00, 
1534.00, 
1535.00, 
1536.00, 
1537.00, 
1538.00, 
1539.00, 
1540.00, 
1541.00, 
1542.00, 
1543.00, 
1544.00, 
1545.00, 
1546.00, 
1547.00, 
1548.00, 
1549.00, 
1550.00, 
1551.00, 
1552.00, 
1553.00, 
1554.00, 
1555.00, 
1556.00, 
1557.00, 
1558.00, 
1559.00, 
1560.00, 
1561.00, 
1562.00, 
1563.00, 
1564.00, 
1565.00, 
1566.00, 
1567.00, 
1568.00, 
1569.00, 
1570.00, 
1571.00, 
1572.00, 
1573.00, 
1574.00, 
1575.00, 
1576.00, 
1577.00, 
1578.00, 
1579.00, 
1580.00, 
1581.00, 
1582.00, 
1583.00, 
1584.00, 
1585.00, 
1586.00, 
1587.00, 
1588.00, 
1589.00, 
1590.00, 
1591.00, 
1592.00, 
1593.00, 
1594.00, 
1595.00, 
1596.00, 
1597.00, 
1598.00, 
1599.00, 
1600.00, 
1601.00, 
1602.00, 
1603.00, 
1604.00, 
1605.00, 
1606.00, 
1607.00, 
1608.00, 
1609.00, 
1610.00, 
1611.00, 
1612.00, 
1613.00, 
1614.00, 
1615.00, 
1616.00, 
1617.00, 
1618.00, 
1619.00, 
1620.00, 
1621.00, 
1622.00, 
1623.00, 
1624.00, 
1625.00, 
1626.00, 
1627.00, 
1628.00, 
1629.00, 
1630.00, 
1631.00, 
1632.00, 
1633.00, 
1634.00, 
1635.00, 
1636.00, 
1637.00, 
1638.00, 
1639.00, 
1640.00, 
1641.00, 
1642.00, 
1643.00, 
1644.00, 
1645.00, 
1646.00, 
1647.00, 
1648.00, 
1649.00, 
1650.00, 
1651.00, 
1652.00, 
1653.00, 
1654.00, 
1655.00, 
1656.00, 
1657.00, 
1658.00, 
1659.00, 
1660.00, 
1661.00, 
1662.00, 
1663.00, 
1664.00, 
1665.00, 
1666.00, 
1667.00, 
1668.00, 
1669.00, 
1670.00, 
1671.00, 
1672.00, 
1673.00, 
1674.00, 
1675.00, 
1676.00, 
1677.00, 
1678.00, 
1679.00, 
1680.00, 
1681.00, 
1682.00, 
1683.00, 
1684.00, 
1685.00, 
1686.00, 
1687.00, 
1688.00, 
1689.00, 
1690.00, 
1691.00, 
1692.00, 
1693.00, 
1694.00, 
1695.00, 
1696.00, 
1697.00, 
1698.00, 
1699.00, 
1700.00, 
1701.00, 
1702.00, 
1703.00, 
1704.00, 
1705.00, 
1706.00, 
1707.00, 
1708.00, 
1709.00, 
1710.00, 
1711.00, 
1712.00, 
1713.00, 
1714.00, 
1715.00, 
1716.00, 
1717.00, 
1718.00, 
1719.00, 
1720.00, 
1721.00, 
1722.00, 
1723.00, 
1724.00, 
1725.00, 
1726.00, 
1727.00, 
1728.00, 
1729.00, 
1730.00, 
1731.00, 
1732.00, 
1733.00, 
1734.00, 
1735.00, 
1736.00, 
1737.00, 
1738.00, 
1739.00, 
1740.00, 
1741.00, 
1742.00, 
1743.00, 
1744.00, 
1745.00, 
1746.00, 
1747.00, 
1748.00, 
1749.00, 
1750.00, 
1751.00, 
1752.00, 
1753.00, 
1754.00, 
1755.00, 
1756.00, 
1757.00, 
1758.00, 
1759.00, 
1760.00, 
1761.00, 
1762.00, 
1763.00, 
1764.00, 
1765.00, 
1766.00, 
1767.00, 
1768.00, 
1769.00, 
1770.00, 
1771.00, 
1772.00, 
1773.00, 
1774.00, 
1775.00, 
1776.00, 
1777.00, 
1778.00, 
1779.00, 
1780.00, 
1781.00, 
1782.00, 
1783.00, 
1784.00, 
1785.00, 
1786.00, 
1787.00, 
1788.00, 
1789.00, 
1790.00, 
1791.00, 
1792.00, 
1793.00, 
1794.00, 
1795.00, 
1796.00, 
1797.00, 
1798.00, 
1799.00, 
1800.00, 
1801.00, 
1802.00, 
1803.00, 
1804.00, 
1805.00, 
1806.00, 
1807.00, 
1808.00, 
1809.00, 
1810.00, 
1811.00, 
1812.00, 
1813.00, 
1814.00, 
1815.00, 
1816.00, 
1817.00, 
1818.00, 
1819.00, 
1820.00, 
1821.00, 
1822.00, 
1823.00, 
1824.00, 
1825.00, 
1826.00, 
1827.00, 
1828.00, 
1829.00, 
1830.00, 
1831.00, 
1832.00, 
1833.00, 
1834.00, 
1835.00, 
1836.00, 
1837.00, 
1838.00, 
1839.00, 
1840.00, 
1841.00, 
1842.00, 
1843.00, 
1844.00, 
1845.00, 
1846.00, 
1847.00, 
1848.00, 
1849.00, 
1850.00, 
1851.00, 
1852.00, 
1853.00, 
1854.00, 
1855.00, 
1856.00, 
1857.00, 
1858.00, 
1859.00, 
1860.00, 
1861.00, 
1862.00, 
1863.00, 
1864.00, 
1865.00, 
1866.00, 
1867.00, 
1868.00, 
1869.00, 
1870.00, 
1871.00, 
1872.00, 
1873.00, 
1874.00, 
1875.00, 
1876.00, 
1877.00, 
1878.00, 
1879.00, 
1880.00, 
1881.00, 
1882.00, 
1883.00, 
1884.00, 
1885.00, 
1886.00, 
1887.00, 
1888.00, 
1889.00, 
1890.00, 
1891.00, 
1892.00, 
1893.00, 
1894.00, 
1895.00, 
1896.00, 
1897.00, 
1898.00, 
1899.00, 
1900.00, 
1901.00, 
1902.00, 
1903.00, 
1904.00, 
1905.00, 
1906.00, 
1907.00, 
1908.00, 
1909.00, 
1910.00, 
1911.00, 
1912.00, 
1913.00, 
1914.00, 
1915.00, 
1916.00, 
1917.00, 
1918.00, 
1919.00, 
1920.00, 
1921.00, 
1922.00, 
1923.00, 
1924.00, 
1925.00, 
1926.00, 
1927.00, 
1928.00, 
1929.00, 
1930.00, 
1931.00, 
1932.00, 
1933.00, 
1934.00, 
1935.00, 
1936.00, 
1937.00, 
1938.00, 
1939.00, 
1940.00, 
1941.00, 
1942.00, 
1943.00, 
1944.00, 
1945.00, 
1946.00, 
1947.00, 
1948.00, 
1949.00, 
1950.00, 
1951.00, 
1952.00, 
1953.00, 
1954.00, 
1955.00, 
1956.00, 
1957.00, 
1958.00, 
1959.00, 
1960.00, 
1961.00, 
1962.00, 
1963.00, 
1964.00, 
1965.00, 
1966.00, 
1967.00, 
1968.00, 
1969.00, 
1970.00, 
1971.00, 
1972.00, 
1973.00, 
1974.00, 
1975.00, 
1976.00, 
1977.00, 
1978.00, 
1979.00, 
1980.00, 
1981.00, 
1982.00, 
1983.00, 
1984.00, 
1985.00, 
1986.00, 
1987.00, 
1988.00, 
1989.00, 
1990.00, 
1991.00, 
1992.00, 
1993.00, 
1994.00, 
1995.00, 
1996.00, 
1997.00, 
1998.00, 
1999.00, 
2000.00, 
2001.00, 
2002.00, 
2003.00, 
2004.00, 
2005.00, 
2006.00, 
2007.00, 
2008.00, 
2009.00, 
2010.00, 
2011.00, 
2012.00, 
2013.00, 
2014.00, 
2015.00, 
2016.00, 
2017.00, 
2018.00, 
2019.00, 
2020.00, 
2021.00, 
2022.00, 
2023.00, 
2024.00, 
2025.00, 
2026.00, 
2027.00, 
2028.00, 
2029.00, 
2030.00, 
2031.00, 
2032.00, 
2033.00, 
2034.00, 
2035.00, 
2036.00, 
2037.00, 
2038.00, 
2039.00, 
2040.00, 
2041.00, 
2042.00, 
2043.00, 
2044.00, 
2045.00, 
2046.00, 
2047.00, 
2048.00, 
2049.00, 
2050.00, 
2051.00, 
2052.00, 
2053.00, 
2054.00, 
2055.00, 
2056.00, 
2057.00, 
2058.00, 
2059.00, 
2060.00, 
2061.00, 
2062.00, 
2063.00, 
2064.00, 
2065.00, 
2066.00, 
2067.00, 
2068.00, 
2069.00, 
2070.00, 
2071.00, 
2072.00, 
2073.00, 
2074.00, 
2075.00, 
2076.00, 
2077.00, 
2078.00, 
2079.00, 
2080.00, 
2081.00, 
2082.00, 
2083.00, 
2084.00, 
2085.00, 
2086.00, 
2087.00, 
2088.00, 
2089.00, 
2090.00, 
2091.00, 
2092.00, 
2093.00, 
2094.00, 
2095.00, 
2096.00, 
2097.00, 
2098.00, 
2099.00, 
2100.00, 
2101.00, 
2102.00, 
2103.00, 
2104.00, 
2105.00, 
2106.00, 
2107.00, 
2108.00, 
2109.00, 
2110.00, 
2111.00, 
2112.00, 
2113.00, 
2114.00, 
2115.00, 
2116.00, 
2117.00, 
2118.00, 
2119.00, 
2120.00, 
2121.00, 
2122.00, 
2123.00, 
2124.00, 
2125.00, 
2126.00, 
2127.00, 
2128.00, 
2129.00, 
2130.00, 
2131.00, 
2132.00, 
2133.00, 
2134.00, 
2135.00, 
2136.00, 
2137.00, 
2138.00, 
2139.00, 
2140.00, 
2141.00, 
2142.00, 
2143.00, 
2144.00, 
2145.00, 
2146.00, 
2147.00, 
2148.00, 
2149.00, 
2150.00, 
2151.00, 
2152.00, 
2153.00, 
2154.00, 
2155.00, 
2156.00, 
2157.00, 
2158.00, 
2159.00, 
2160.00, 
2161.00, 
2162.00, 
2163.00, 
2164.00, 
2165.00, 
2166.00, 
2167.00, 
2168.00, 
2169.00, 
2170.00, 
2171.00, 
2172.00, 
2173.00, 
2174.00, 
2175.00, 
2176.00, 
2177.00, 
2178.00, 
2179.00, 
2180.00, 
2181.00, 
2182.00, 
2183.00, 
2184.00, 
2185.00, 
2186.00, 
2187.00, 
2188.00, 
2189.00, 
2190.00, 
2191.00, 
2192.00, 
2193.00, 
2194.00, 
2195.00, 
2196.00, 
2197.00, 
2198.00, 
2199.00, 
2200.00, 
2201.00, 
2202.00, 
2203.00, 
2204.00, 
2205.00, 
2206.00, 
2207.00, 
2208.00, 
2209.00, 
2210.00, 
2211.00, 
2212.00, 
2213.00, 
2214.00, 
2215.00, 
2216.00, 
2217.00, 
2218.00, 
2219.00, 
2220.00, 
2221.00, 
2222.00, 
2223.00, 
2224.00, 
2225.00, 
2226.00, 
2227.00, 
2228.00, 
2229.00, 
2230.00, 
2231.00, 
2232.00, 
2233.00, 
2234.00, 
2235.00, 
2236.00, 
2237.00, 
2238.00, 
2239.00, 
2240.00, 
2241.00, 
2242.00, 
2243.00, 
2244.00, 
2245.00, 
2246.00, 
2247.00, 
2248.00, 
2249.00, 
2250.00, 
2251.00, 
2252.00, 
2253.00, 
2254.00, 
2255.00, 
2256.00, 
2257.00, 
2258.00, 
2259.00, 
2260.00, 
2261.00, 
2262.00, 
2263.00, 
2264.00, 
2265.00, 
2266.00, 
2267.00, 
2268.00, 
2269.00, 
2270.00, 
2271.00, 
2272.00, 
2273.00, 
2274.00, 
2275.00, 
2276.00, 
2277.00, 
2278.00, 
2279.00, 
2280.00, 
2281.00, 
2282.00, 
2283.00, 
2284.00, 
2285.00, 
2286.00, 
2287.00, 
2288.00, 
2289.00, 
2290.00, 
2291.00, 
2292.00, 
2293.00, 
2294.00, 
2295.00, 
2296.00, 
2297.00, 
2298.00, 
2299.00, 
2300.00, 
2301.00, 
2302.00, 
2303.00, 
2304.00, 
2305.00, 
2306.00, 
2307.00, 
2308.00, 
2309.00, 
2310.00, 
2311.00, 
2312.00, 
2313.00, 
2314.00, 
2315.00, 
2316.00, 
2317.00, 
2318.00, 
2319.00, 
2320.00, 
2321.00, 
2322.00, 
2323.00, 
2324.00, 
2325.00, 
2326.00, 
2327.00, 
2328.00, 
2329.00, 
2330.00, 
2331.00, 
2332.00, 
2333.00, 
2334.00, 
2335.00, 
2336.00, 
2337.00, 
2338.00, 
2339.00, 
2340.00, 
2341.00, 
2342.00, 
2343.00, 
2344.00, 
2345.00, 
2346.00, 
2347.00, 
2348.00, 
2349.00, 
2350.00, 
2351.00, 
2352.00, 
2353.00, 
2354.00, 
2355.00, 
2356.00, 
2357.00, 
2358.00, 
2359.00, 
2360.00, 
2361.00, 
2362.00, 
2363.00, 
2364.00, 
2365.00, 
2366.00, 
2367.00, 
2368.00, 
2369.00, 
2370.00, 
2371.00, 
2372.00, 
2373.00, 
2374.00, 
2375.00, 
2376.00, 
2377.00, 
2378.00, 
2379.00, 
2380.00, 
2381.00, 
2382.00, 
2383.00, 
2384.00, 
2385.00, 
2386.00, 
2387.00, 
2388.00, 
2389.00, 
2390.00, 
2391.00, 
2392.00, 
2393.00, 
2394.00, 
2395.00, 
2396.00, 
2397.00, 
2398.00, 
2399.00, 
2400.00, 
2401.00, 
2402.00, 
2403.00, 
2404.00, 
2405.00, 
2406.00, 
2407.00, 
2408.00, 
2409.00, 
2410.00, 
2411.00, 
2412.00, 
2413.00, 
2414.00, 
2415.00, 
2416.00, 
2417.00, 
2418.00, 
2419.00, 
2420.00, 
2421.00, 
2422.00, 
2423.00, 
2424.00, 
2425.00, 
2426.00, 
2427.00, 
2428.00, 
2429.00, 
2430.00, 
2431.00, 
2432.00, 
2433.00, 
2434.00, 
2435.00, 
2436.00, 
2437.00, 
2438.00, 
2439.00, 
2440.00, 
2441.00, 
2442.00, 
2443.00, 
2444.00, 
2445.00, 
2446.00, 
2447.00, 
2448.00, 
2449.00, 
2450.00, 
2451.00, 
2452.00, 
2453.00, 
2454.00, 
2455.00, 
2456.00, 
2457.00, 
2458.00, 
2459.00, 
2460.00, 
2461.00, 
2462.00, 
2463.00, 
2464.00, 
2465.00, 
2466.00, 
2467.00, 
2468.00, 
2469.00, 
2470.00, 
2471.00, 
2472.00, 
2473.00, 
2474.00, 
2475.00, 
2476.00, 
2477.00, 
2478.00, 
2479.00, 
2480.00, 
2481.00, 
2482.00, 
2483.00, 
2484.00, 
2485.00, 
2486.00, 
2487.00, 
2488.00, 
2489.00, 
2490.00, 
2491.00, 
2492.00, 
2493.00, 
2494.00, 
2495.00, 
2496.00, 
2497.00, 
2498.00, 
2499.00, 
2500.00, 
2501.00, 
2502.00, 
2503.00, 
2504.00, 
2505.00, 
2506.00, 
2507.00, 
2508.00, 
2509.00, 
2510.00, 
2511.00, 
2512.00, 
2513.00, 
2514.00, 
2515.00, 
2516.00, 
2517.00, 
2518.00, 
2519.00, 
2520.00, 
2521.00, 
2522.00, 
2523.00, 
2524.00, 
2525.00, 
2526.00, 
2527.00, 
2528.00, 
2529.00, 
2530.00, 
2531.00, 
2532.00, 
2533.00, 
2534.00, 
2535.00, 
2536.00, 
2537.00, 
2538.00, 
2539.00, 
2540.00, 
2541.00, 
2542.00, 
2543.00, 
2544.00, 
2545.00, 
2546.00, 
2547.00, 
2548.00, 
2549.00, 
2550.00, 
2551.00, 
2552.00, 
2553.00, 
2554.00, 
2555.00, 
2556.00, 
2557.00, 
2558.00, 
2559.00, 
2560.00, 
2561.00, 
2562.00, 
2563.00, 
2564.00, 
2565.00, 
2566.00, 
2567.00, 
2568.00, 
2569.00, 
2570.00, 
2571.00, 
2572.00, 
2573.00, 
2574.00, 
2575.00, 
2576.00, 
2577.00, 
2578.00, 
2579.00, 
2580.00, 
2581.00, 
2582.00, 
2583.00, 
2584.00, 
2585.00, 
2586.00, 
2587.00, 
2588.00, 
2589.00, 
2590.00, 
2591.00, 
2592.00, 
2593.00, 
2594.00, 
2595.00, 
2596.00, 
2597.00, 
2598.00, 
2599.00, 
2600.00, 
