"1cP4 - RawData"
"Wavelength nm.","T%"
200.00,0.001
201.00,0.001
202.00,-0.003
203.00,0.003
204.00,-0.001
205.00,-0.001
206.00,0.001
207.00,0.001
208.00,0.001
209.00,0.000
210.00,0.002
211.00,0.003
212.00,0.002
213.00,-0.001
214.00,0.001
215.00,-0.001
216.00,-0.001
217.00,0.001
218.00,-0.001
219.00,0.000
220.00,0.003
221.00,-0.001
222.00,0.002
223.00,0.003
224.00,0.001
225.00,0.002
226.00,0.001
227.00,-0.001
228.00,-0.001
229.00,-0.001
230.00,0.002
231.00,-0.000
232.00,-0.001
233.00,0.002
234.00,-0.000
235.00,0.001
236.00,0.002
237.00,-0.001
238.00,-0.001
239.00,-0.000
240.00,0.002
241.00,-0.002
242.00,-0.000
243.00,-0.000
244.00,0.001
245.00,-0.001
246.00,0.001
247.00,-0.000
248.00,0.001
249.00,0.000
250.00,-0.000
251.00,-0.000
252.00,-0.002
253.00,-0.000
254.00,0.003
255.00,0.000
256.00,-0.001
257.00,0.001
258.00,-0.000
259.00,-0.001
260.00,0.000
261.00,0.001
262.00,0.001
263.00,-0.001
264.00,-0.000
265.00,0.000
266.00,0.000
267.00,-0.000
268.00,0.000
269.00,-0.001
270.00,-0.001
271.00,0.001
272.00,0.000
273.00,-0.002
274.00,-0.001
275.00,0.001
276.00,-0.001
277.00,0.001
278.00,0.001
279.00,-0.000
280.00,0.001
281.00,-0.000
282.00,0.001
283.00,0.000
284.00,0.001
285.00,0.002
286.00,-0.001
287.00,0.001
288.00,0.000
289.00,-0.001
290.00,-0.000
291.00,0.002
292.00,-0.001
293.00,-0.000
294.00,0.001
295.00,-0.001
296.00,0.000
297.00,-0.001
298.00,0.002
299.00,0.001
300.00,0.000
301.00,-0.001
302.00,0.000
303.00,0.001
304.00,-0.000
305.00,0.001
306.00,0.002
307.00,0.001
308.00,0.009
309.00,0.012
310.00,0.019
311.00,0.026
312.00,0.040
313.00,0.065
314.00,0.098
315.00,0.150
316.00,0.214
317.00,0.303
318.00,0.410
319.00,0.558
320.00,0.735
321.00,0.967
322.00,1.221
323.00,1.557
324.00,1.917
325.00,2.325
326.00,2.741
327.00,3.249
328.00,3.823
329.00,4.389
330.00,5.039
331.00,5.678
332.00,6.369
333.00,7.160
334.00,7.872
335.00,8.667
336.00,9.458
337.00,10.272
338.00,11.053
339.00,11.767
340.00,12.569
341.00,13.311
342.00,14.050
343.00,14.788
344.00,15.422
345.00,16.156
346.00,16.776
347.00,17.357
348.00,17.904
349.00,18.478
350.00,18.937
351.00,19.369
352.00,19.848
353.00,20.284
354.00,20.681
355.00,21.049
356.00,21.386
357.00,21.665
358.00,21.981
359.00,22.372
360.00,22.604
361.00,22.805
362.00,23.021
363.00,23.237
364.00,23.360
365.00,23.461
366.00,23.640
367.00,23.782
368.00,23.814
369.00,23.884
370.00,23.995
371.00,23.959
372.00,23.962
373.00,23.949
374.00,23.983
375.00,23.950
376.00,23.834
377.00,23.793
378.00,23.702
379.00,23.577
380.00,23.570
381.00,23.575
382.00,23.588
383.00,23.605
384.00,23.701
385.00,23.793
386.00,23.804
387.00,23.910
388.00,24.044
389.00,24.055
390.00,24.130
391.00,24.180
392.00,24.227
393.00,24.246
394.00,24.290
395.00,24.368
396.00,24.328
397.00,24.411
398.00,24.412
399.00,24.407
400.00,24.435
401.00,24.429
402.00,24.383
403.00,24.390
404.00,24.367
405.00,24.398
406.00,24.361
407.00,24.347
408.00,24.379
409.00,24.216
410.00,24.218
411.00,24.215
412.00,24.211
413.00,24.234
414.00,24.189
415.00,24.188
416.00,24.272
417.00,24.250
418.00,24.242
419.00,24.338
420.00,24.356
421.00,24.356
422.00,24.409
423.00,24.426
424.00,24.458
425.00,24.492
426.00,24.552
427.00,24.618
428.00,24.629
429.00,24.697
430.00,24.725
431.00,24.828
432.00,24.835
433.00,24.863
434.00,24.925
435.00,24.984
436.00,25.064
437.00,25.141
438.00,25.213
439.00,25.270
440.00,25.356
441.00,25.418
442.00,25.510
443.00,25.591
444.00,25.693
445.00,25.771
446.00,25.851
447.00,25.929
448.00,26.045
449.00,26.185
450.00,26.304
451.00,26.375
452.00,26.448
453.00,26.588
454.00,26.681
455.00,26.803
456.00,26.888
457.00,27.006
458.00,27.130
459.00,27.286
460.00,27.403
461.00,27.520
462.00,27.644
463.00,27.739
464.00,27.921
465.00,28.066
466.00,28.221
467.00,28.266
468.00,28.422
469.00,28.663
470.00,28.585
471.00,28.727
472.00,28.877
473.00,28.927
474.00,29.048
475.00,29.169
476.00,29.272
477.00,29.371
478.00,29.502
479.00,29.684
480.00,29.806
481.00,29.908
482.00,30.051
483.00,30.232
484.00,30.398
485.00,30.519
486.00,30.651
487.00,30.849
488.00,30.969
489.00,31.135
490.00,31.262
491.00,31.357
492.00,31.622
493.00,31.750
494.00,31.732
495.00,31.900
496.00,31.948
497.00,32.112
498.00,32.261
499.00,32.374
500.00,32.544
501.00,32.642
502.00,32.752
503.00,32.884
504.00,32.962
505.00,33.093
506.00,33.213
507.00,33.276
508.00,33.403
509.00,33.594
510.00,33.674
511.00,33.776
512.00,33.933
513.00,34.070
514.00,34.187
515.00,34.290
516.00,34.400
517.00,34.452
518.00,34.612
519.00,34.685
520.00,34.715
521.00,34.791
522.00,34.880
523.00,34.962
524.00,35.026
525.00,35.115
526.00,35.262
527.00,35.281
528.00,35.351
529.00,35.559
530.00,35.692
531.00,35.799
532.00,35.818
533.00,35.972
534.00,36.008
535.00,36.158
536.00,36.219
537.00,36.223
538.00,36.317
539.00,36.361
540.00,36.450
541.00,36.564
542.00,36.553
543.00,36.586
544.00,36.691
545.00,36.758
546.00,36.764
547.00,36.922
548.00,37.020
549.00,37.010
550.00,37.137
551.00,37.253
552.00,37.253
553.00,37.295
554.00,37.379
555.00,37.445
556.00,37.500
557.00,37.561
558.00,37.599
559.00,37.726
560.00,37.760
561.00,37.825
562.00,37.890
563.00,37.905
564.00,37.905
565.00,37.921
566.00,37.990
567.00,38.055
568.00,38.113
569.00,38.111
570.00,38.124
571.00,38.186
572.00,38.231
573.00,38.198
574.00,38.213
575.00,38.271
576.00,38.249
577.00,38.280
578.00,38.389
579.00,38.405
580.00,38.455
581.00,38.646
582.00,38.707
583.00,38.710
584.00,38.768
585.00,38.890
586.00,38.914
587.00,38.965
588.00,38.947
589.00,38.932
590.00,39.035
591.00,39.029
592.00,39.005
593.00,39.059
594.00,39.193
595.00,39.270
596.00,39.307
597.00,39.328
598.00,39.414
599.00,39.437
600.00,39.441
601.00,39.523
602.00,39.516
603.00,39.517
604.00,39.603
605.00,39.613
606.00,39.611
607.00,39.669
608.00,39.836
609.00,39.926
610.00,39.782
611.00,39.902
612.00,39.899
613.00,39.975
614.00,39.963
615.00,40.080
616.00,40.159
617.00,40.160
618.00,40.123
619.00,40.222
620.00,40.234
621.00,40.263
622.00,40.281
623.00,40.408
624.00,40.500
625.00,40.500
626.00,40.458
627.00,40.662
628.00,40.688
629.00,40.746
630.00,40.772
631.00,40.822
632.00,40.881
633.00,41.025
634.00,41.054
635.00,41.160
636.00,41.208
637.00,41.217
638.00,41.313
639.00,41.379
640.00,41.360
641.00,41.315
642.00,41.527
643.00,41.642
644.00,41.665
645.00,41.704
646.00,41.912
647.00,41.931
648.00,41.970
649.00,41.975
650.00,42.009
651.00,42.165
652.00,42.207
653.00,42.212
654.00,42.289
655.00,42.415
656.00,42.775
657.00,42.879
658.00,42.777
659.00,42.858
660.00,42.862
661.00,42.878
662.00,43.021
663.00,43.068
664.00,43.299
665.00,43.520
666.00,43.462
667.00,43.492
668.00,43.650
669.00,43.575
670.00,43.897
671.00,43.865
672.00,43.797
673.00,43.726
674.00,44.224
675.00,44.429
676.00,44.293
677.00,44.472
678.00,44.290
679.00,44.433
680.00,44.578
681.00,44.680
682.00,44.740
683.00,44.703
684.00,44.837
685.00,45.039
686.00,44.754
687.00,44.915
688.00,45.079
689.00,45.096
690.00,45.262
691.00,45.538
692.00,45.402
693.00,45.240
694.00,45.486
695.00,45.689
696.00,45.590
697.00,45.504
698.00,45.895
699.00,46.194
700.00,45.997
701.00,45.982
702.00,46.127
703.00,46.352
704.00,46.351
705.00,46.280
706.00,46.366
707.00,46.450
708.00,46.282
709.00,46.707
710.00,47.013
711.00,46.625
712.00,46.624
713.00,46.808
714.00,46.775
715.00,46.938
716.00,46.908
717.00,46.925
718.00,47.029
719.00,47.130
720.00,47.300
721.00,51.680
722.00,51.637
723.00,51.701
724.00,51.711
725.00,51.716
726.00,51.730
727.00,51.738
728.00,51.775
729.00,51.864
730.00,51.814
731.00,51.871
732.00,51.833
733.00,51.898
734.00,51.853
735.00,51.907
736.00,51.925
737.00,51.892
738.00,51.945
739.00,51.925
740.00,51.998
741.00,52.006
742.00,52.053
743.00,52.058
744.00,51.955
745.00,52.034
746.00,52.115
747.00,51.964
748.00,52.055
749.00,52.007
750.00,51.986
751.00,51.936
752.00,51.970
753.00,52.007
754.00,51.957
755.00,51.993
756.00,51.974
757.00,52.002
758.00,52.002
759.00,51.981
760.00,51.983
761.00,51.979
762.00,52.006
763.00,52.082
764.00,51.988
765.00,51.976
766.00,51.931
767.00,52.078
768.00,52.065
769.00,52.051
770.00,52.081
771.00,52.092
772.00,52.063
773.00,52.019
774.00,52.105
775.00,52.112
776.00,51.970
777.00,52.034
778.00,52.012
779.00,52.133
780.00,52.034
781.00,52.082
782.00,52.086
783.00,51.976
784.00,52.108
785.00,52.010
786.00,52.101
787.00,51.997
788.00,52.024
789.00,51.970
790.00,51.885
791.00,51.965
792.00,51.858
793.00,51.890
794.00,51.810
795.00,51.905
796.00,51.879
797.00,51.789
798.00,51.776
799.00,51.804
800.00,51.713
801.00,51.754
802.00,51.753
803.00,51.762
804.00,51.692
805.00,51.724
806.00,51.649
807.00,51.663
808.00,51.645
809.00,51.649
810.00,51.547
811.00,51.582
812.00,51.623
813.00,51.510
814.00,51.650
815.00,51.549
816.00,51.482
817.00,51.496
818.00,51.457
819.00,51.482
820.00,51.404
821.00,51.372
822.00,51.481
823.00,51.331
824.00,51.342
825.00,51.260
826.00,51.332
827.00,51.439
828.00,51.414
829.00,51.226
830.00,51.309
831.00,53.606
832.00,53.555
833.00,53.517
834.00,53.471
835.00,53.501
836.00,53.511
837.00,53.448
838.00,53.411
839.00,53.434
840.00,53.378
841.00,53.372
842.00,53.353
843.00,53.360
844.00,53.342
845.00,53.348
846.00,53.295
847.00,53.270
848.00,53.254
849.00,53.190
850.00,53.147
851.00,53.115
852.00,53.147
853.00,53.072
854.00,53.045
855.00,52.992
856.00,52.987
857.00,52.933
858.00,52.920
859.00,52.901
860.00,52.928
861.00,52.889
862.00,52.864
863.00,52.887
864.00,52.824
865.00,52.871
866.00,52.823
867.00,52.780
868.00,52.785
869.00,52.777
870.00,52.782
871.00,52.734
872.00,52.716
873.00,52.730
874.00,52.705
875.00,52.688
876.00,52.669
877.00,52.671
878.00,52.673
879.00,52.654
880.00,52.627
881.00,52.612
882.00,52.646
883.00,52.584
884.00,52.541
885.00,52.530
886.00,52.539
887.00,52.503
888.00,52.446
889.00,52.598
890.00,52.459
891.00,52.399
892.00,52.407
893.00,52.412
894.00,52.393
895.00,52.350
896.00,52.339
897.00,52.265
898.00,52.319
899.00,52.277
900.00,52.256
901.00,52.269
902.00,52.231
903.00,52.205
904.00,52.216
905.00,52.187
906.00,52.188
907.00,52.145
908.00,52.110
909.00,52.107
910.00,52.077
911.00,52.058
912.00,52.050
913.00,52.029
914.00,51.992
915.00,51.970
916.00,51.971
917.00,51.934
918.00,51.920
919.00,51.885
920.00,51.869
921.00,51.872
922.00,51.855
923.00,51.826
924.00,51.789
925.00,51.795
926.00,51.754
927.00,51.740
928.00,51.762
929.00,51.716
930.00,51.690
931.00,51.655
932.00,51.627
933.00,51.646
934.00,51.617
935.00,51.590
936.00,51.569
937.00,51.543
938.00,51.534
939.00,51.542
940.00,51.512
941.00,51.519
942.00,51.461
943.00,51.461
944.00,51.548
945.00,51.428
946.00,51.429
947.00,51.382
948.00,51.366
949.00,51.353
950.00,51.336
951.00,51.300
952.00,51.283
953.00,51.237
954.00,51.235
955.00,51.181
956.00,51.168
957.00,51.138
958.00,51.159
959.00,51.097
960.00,51.099
961.00,51.090
962.00,51.077
963.00,51.022
964.00,51.017
965.00,51.017
966.00,50.994
967.00,50.991
968.00,50.982
969.00,51.005
970.00,50.953
971.00,50.986
972.00,50.956
973.00,50.985
974.00,51.059
975.00,50.956
976.00,50.973
977.00,50.960
978.00,50.983
979.00,50.963
980.00,50.984
981.00,50.960
982.00,50.966
983.00,50.987
984.00,50.957
985.00,50.969
986.00,50.939
987.00,50.925
988.00,50.875
989.00,50.876
990.00,50.901
991.00,50.884
992.00,50.892
993.00,50.873
994.00,50.854
995.00,50.841
996.00,50.842
997.00,50.813
998.00,50.788
999.00,50.804
1000.00,50.751
1001.00,50.774
1002.00,50.761
1003.00,50.745
1004.00,50.739
1005.00,50.708
1006.00,50.747
1007.00,50.705
1008.00,50.675
1009.00,50.650
1010.00,50.640
1011.00,50.614
1012.00,50.604
1013.00,50.613
1014.00,50.571
1015.00,50.602
1016.00,50.563
1017.00,50.551
1018.00,50.541
1019.00,50.514
1020.00,50.506
1021.00,50.488
1022.00,50.472
1023.00,50.441
1024.00,50.441
1025.00,50.418
1026.00,50.415
1027.00,50.385
1028.00,50.386
1029.00,50.373
1030.00,50.327
1031.00,50.342
1032.00,50.306
1033.00,50.300
1034.00,50.270
1035.00,50.260
1036.00,50.204
1037.00,50.196
1038.00,50.184
1039.00,50.157
1040.00,50.174
1041.00,50.118
1042.00,50.127
1043.00,50.111
1044.00,50.143
1045.00,50.136
1046.00,50.126
1047.00,50.134
1048.00,50.147
1049.00,50.180
1050.00,50.166
1051.00,50.196
1052.00,50.186
1053.00,50.182
1054.00,50.193
1055.00,50.182
1056.00,50.222
1057.00,50.225
1058.00,50.198
1059.00,50.203
1060.00,50.220
1061.00,50.199
1062.00,50.201
1063.00,50.209
1064.00,50.233
1065.00,50.225
1066.00,50.163
1067.00,50.163
1068.00,50.200
1069.00,50.143
1070.00,50.129
1071.00,50.114
1072.00,50.137
1073.00,50.114
1074.00,50.102
1075.00,50.101
1076.00,50.110
1077.00,50.089
1078.00,50.080
1079.00,50.094
1080.00,50.073
1081.00,50.063
1082.00,50.055
1083.00,50.026
1084.00,50.039
1085.00,50.035
1086.00,50.010
1087.00,50.017
1088.00,49.975
1089.00,49.984
1090.00,49.983
1091.00,49.975
1092.00,49.988
1093.00,49.971
1094.00,49.953
1095.00,49.951
1096.00,49.948
1097.00,49.923
1098.00,49.935
1099.00,49.905
1100.00,49.903
1101.00,49.898
1102.00,49.869
1103.00,49.880
1104.00,49.858
1105.00,49.847
1106.00,49.843
1107.00,49.823
1108.00,49.835
1109.00,49.827
1110.00,49.815
1111.00,49.828
1112.00,49.810
1113.00,49.791
1114.00,49.789
1115.00,49.793
1116.00,49.782
1117.00,49.766
1118.00,49.739
1119.00,49.745
1120.00,49.740
1121.00,49.719
1122.00,49.726
1123.00,49.729
1124.00,49.709
1125.00,49.720
1126.00,49.723
1127.00,49.716
1128.00,49.707
1129.00,49.691
1130.00,49.682
1131.00,49.680
1132.00,49.653
1133.00,49.662
1134.00,49.644
1135.00,49.632
1136.00,49.648
1137.00,49.650
1138.00,49.637
1139.00,49.655
1140.00,49.622
1141.00,49.625
1142.00,49.615
1143.00,49.628
1144.00,49.616
1145.00,49.622
1146.00,49.609
1147.00,49.609
1148.00,49.607
1149.00,49.610
1150.00,49.618
1151.00,49.602
1152.00,49.597
1153.00,49.608
1154.00,49.592
1155.00,49.604
1156.00,49.601
1157.00,49.615
1158.00,49.597
1159.00,49.611
1160.00,49.597
1161.00,49.609
1162.00,49.595
1163.00,49.588
1164.00,49.600
1165.00,49.560
1166.00,49.580
1167.00,49.569
1168.00,49.582
1169.00,49.588
1170.00,49.602
1171.00,49.581
1172.00,49.593
1173.00,49.583
1174.00,49.588
1175.00,49.576
1176.00,49.583
1177.00,49.584
1178.00,49.592
1179.00,49.576
1180.00,49.573
1181.00,49.588
1182.00,49.557
1183.00,49.572
1184.00,49.556
1185.00,49.571
1186.00,49.565
1187.00,49.560
1188.00,49.566
1189.00,49.565
1190.00,49.544
1191.00,49.563
1192.00,49.592
1193.00,49.567
1194.00,49.585
1195.00,49.557
1196.00,49.589
1197.00,49.588
1198.00,49.558
1199.00,49.558
1200.00,49.575
1201.00,49.577
1202.00,49.564
1203.00,49.589
1204.00,49.550
1205.00,49.582
1206.00,49.563
1207.00,49.578
1208.00,49.567
1209.00,49.559
1210.00,49.565
1211.00,49.574
1212.00,49.572
1213.00,49.548
1214.00,49.578
1215.00,49.560
1216.00,49.571
1217.00,49.563
1218.00,49.580
1219.00,49.581
1220.00,49.552
1221.00,49.589
1222.00,49.567
1223.00,49.584
1224.00,49.586
1225.00,49.572
1226.00,49.563
1227.00,49.575
1228.00,49.592
1229.00,49.581
1230.00,49.610
1231.00,49.588
1232.00,49.646
1233.00,49.643
1234.00,49.635
1235.00,49.647
1236.00,49.647
1237.00,49.638
1238.00,49.644
1239.00,49.644
1240.00,49.630
1241.00,49.645
1242.00,49.632
1243.00,49.659
1244.00,49.637
1245.00,49.667
1246.00,49.673
1247.00,49.663
1248.00,49.663
1249.00,49.685
1250.00,49.681
1251.00,49.669
1252.00,49.694
1253.00,49.677
1254.00,49.731
1255.00,49.710
1256.00,49.682
1257.00,49.692
1258.00,49.744
1259.00,49.713
1260.00,49.742
1261.00,49.718
1262.00,49.722
1263.00,49.731
1264.00,49.730
1265.00,49.757
1266.00,49.757
1267.00,49.761
1268.00,49.781
1269.00,49.787
1270.00,49.791
1271.00,49.791
1272.00,49.798
1273.00,49.803
1274.00,49.805
1275.00,49.804
1276.00,49.814
1277.00,49.834
1278.00,49.836
1279.00,49.860
1280.00,49.832
1281.00,49.858
1282.00,49.875
1283.00,49.834
1284.00,49.862
1285.00,49.856
1286.00,49.858
1287.00,49.877
1288.00,49.879
1289.00,49.865
1290.00,49.902
1291.00,49.930
1292.00,49.916
1293.00,49.922
1294.00,49.933
1295.00,49.928
1296.00,49.951
1297.00,49.937
1298.00,49.977
1299.00,49.951
1300.00,49.962
1301.00,49.958
1302.00,49.998
1303.00,49.977
1304.00,49.964
1305.00,49.995
1306.00,49.990
1307.00,50.014
1308.00,49.992
1309.00,50.018
1310.00,50.021
1311.00,49.999
1312.00,50.029
1313.00,50.043
1314.00,50.056
1315.00,50.087
1316.00,50.072
1317.00,50.105
1318.00,50.096
1319.00,50.087
1320.00,50.102
1321.00,50.283
1322.00,50.263
1323.00,50.257
1324.00,50.255
1325.00,50.237
1326.00,50.280
1327.00,50.252
1328.00,50.258
1329.00,50.245
1330.00,50.259
1331.00,50.268
1332.00,50.252
1333.00,50.272
1334.00,50.293
1335.00,50.299
1336.00,50.311
1337.00,50.377
1338.00,50.476
1339.00,50.471
1340.00,50.539
1341.00,50.597
1342.00,50.657
1343.00,50.702
1344.00,50.749
1345.00,50.825
1346.00,50.858
1347.00,50.889
1348.00,50.900
1349.00,50.918
1350.00,50.968
1351.00,50.970
1352.00,50.968
1353.00,50.962
1354.00,50.973
1355.00,50.936
1356.00,51.016
1357.00,50.995
1358.00,51.004
1359.00,51.032
1360.00,50.994
1361.00,51.060
1362.00,51.068
1363.00,51.044
1364.00,51.032
1365.00,51.018
1366.00,50.990
1367.00,51.012
1368.00,51.028
1369.00,50.798
1370.00,51.018
1371.00,50.972
1372.00,51.018
1373.00,51.034
1374.00,51.056
1375.00,51.047
1376.00,51.023
1377.00,51.023
1378.00,51.121
1379.00,51.033
1380.00,51.035
1381.00,51.017
1382.00,51.021
1383.00,51.064
1384.00,51.025
1385.00,51.075
1386.00,51.059
1387.00,51.003
1388.00,51.021
1389.00,51.033
1390.00,51.059
1391.00,51.036
1392.00,51.007
1393.00,50.976
1394.00,50.993
1395.00,51.005
1396.00,50.995
1397.00,51.067
1398.00,51.035
1399.00,51.044
1400.00,51.063
1401.00,51.009
1402.00,51.066
1403.00,51.035
1404.00,51.110
1405.00,51.060
1406.00,51.134
1407.00,51.079
1408.00,51.110
1409.00,51.090
1410.00,51.129
1411.00,51.088
1412.00,51.134
1413.00,51.090
1414.00,51.135
1415.00,51.172
1416.00,51.181
1417.00,51.182
1418.00,51.196
1419.00,51.206
1420.00,51.211
1421.00,51.255
1422.00,51.277
1423.00,51.299
1424.00,51.293
1425.00,51.329
1426.00,51.332
1427.00,51.356
1428.00,51.341
1429.00,51.384
1430.00,51.380
1431.00,51.396
1432.00,51.416
1433.00,51.418
1434.00,51.435
1435.00,51.492
1436.00,51.485
1437.00,51.485
1438.00,51.504
1439.00,51.533
1440.00,51.544
1441.00,51.545
1442.00,51.565
1443.00,51.647
1444.00,51.656
1445.00,51.616
1446.00,51.635
1447.00,51.674
1448.00,51.714
1449.00,51.722
1450.00,51.712
1451.00,51.735
1452.00,51.778
1453.00,51.781
1454.00,51.801
1455.00,51.829
1456.00,51.847
1457.00,51.869
1458.00,51.876
1459.00,51.895
1460.00,51.933
1461.00,51.910
1462.00,51.949
1463.00,51.949
1464.00,51.961
1465.00,51.962
1466.00,51.983
1467.00,52.013
1468.00,52.057
1469.00,52.030
1470.00,52.055
1471.00,52.075
1472.00,52.073
1473.00,52.092
1474.00,52.142
1475.00,52.148
1476.00,52.175
1477.00,52.140
1478.00,52.161
1479.00,52.192
1480.00,52.192
1481.00,52.222
1482.00,52.254
1483.00,52.246
1484.00,52.280
1485.00,52.286
1486.00,52.301
1487.00,52.311
1488.00,52.348
1489.00,52.359
1490.00,52.352
1491.00,52.388
1492.00,52.426
1493.00,52.380
1494.00,52.417
1495.00,52.406
1496.00,52.436
1497.00,52.417
1498.00,52.425
1499.00,52.450
1500.00,52.478
1501.00, 
1502.00, 
1503.00, 
1504.00, 
1505.00, 
1506.00, 
1507.00, 
1508.00, 
1509.00, 
1510.00, 
1511.00, 
1512.00, 
1513.00, 
1514.00, 
1515.00, 
1516.00, 
1517.00, 
1518.00, 
1519.00, 
1520.00, 
1521.00, 
1522.00, 
1523.00, 
1524.00, 
1525.00, 
1526.00, 
1527.00, 
1528.00, 
1529.00, 
1530.00, 
1531.00, 
1532.00, 
1533.00, 
1534.00, 
1535.00, 
1536.00, 
1537.00, 
1538.00, 
1539.00, 
1540.00, 
1541.00, 
1542.00, 
1543.00, 
1544.00, 
1545.00, 
1546.00, 
1547.00, 
1548.00, 
1549.00, 
1550.00, 
1551.00, 
1552.00, 
1553.00, 
1554.00, 
1555.00, 
1556.00, 
1557.00, 
1558.00, 
1559.00, 
1560.00, 
1561.00, 
1562.00, 
1563.00, 
1564.00, 
1565.00, 
1566.00, 
1567.00, 
1568.00, 
1569.00, 
1570.00, 
1571.00, 
1572.00, 
1573.00, 
1574.00, 
1575.00, 
1576.00, 
1577.00, 
1578.00, 
1579.00, 
1580.00, 
1581.00, 
1582.00, 
1583.00, 
1584.00, 
1585.00, 
1586.00, 
1587.00, 
1588.00, 
1589.00, 
1590.00, 
1591.00, 
1592.00, 
1593.00, 
1594.00, 
1595.00, 
1596.00, 
1597.00, 
1598.00, 
1599.00, 
1600.00, 
1601.00, 
1602.00, 
1603.00, 
1604.00, 
1605.00, 
1606.00, 
1607.00, 
1608.00, 
1609.00, 
1610.00, 
1611.00, 
1612.00, 
1613.00, 
1614.00, 
1615.00, 
1616.00, 
1617.00, 
1618.00, 
1619.00, 
1620.00, 
1621.00, 
1622.00, 
1623.00, 
1624.00, 
1625.00, 
1626.00, 
1627.00, 
1628.00, 
1629.00, 
1630.00, 
1631.00, 
1632.00, 
1633.00, 
1634.00, 
1635.00, 
1636.00, 
1637.00, 
1638.00, 
1639.00, 
1640.00, 
1641.00, 
1642.00, 
1643.00, 
1644.00, 
1645.00, 
1646.00, 
1647.00, 
1648.00, 
1649.00, 
1650.00, 
1651.00, 
1652.00, 
1653.00, 
1654.00, 
1655.00, 
1656.00, 
1657.00, 
1658.00, 
1659.00, 
1660.00, 
1661.00, 
1662.00, 
1663.00, 
1664.00, 
1665.00, 
1666.00, 
1667.00, 
1668.00, 
1669.00, 
1670.00, 
1671.00, 
1672.00, 
1673.00, 
1674.00, 
1675.00, 
1676.00, 
1677.00, 
1678.00, 
1679.00, 
1680.00, 
1681.00, 
1682.00, 
1683.00, 
1684.00, 
1685.00, 
1686.00, 
1687.00, 
1688.00, 
1689.00, 
1690.00, 
1691.00, 
1692.00, 
1693.00, 
1694.00, 
1695.00, 
1696.00, 
1697.00, 
1698.00, 
1699.00, 
1700.00, 
1701.00, 
1702.00, 
1703.00, 
1704.00, 
1705.00, 
1706.00, 
1707.00, 
1708.00, 
1709.00, 
1710.00, 
1711.00, 
1712.00, 
1713.00, 
1714.00, 
1715.00, 
1716.00, 
1717.00, 
1718.00, 
1719.00, 
1720.00, 
1721.00, 
1722.00, 
1723.00, 
1724.00, 
1725.00, 
1726.00, 
1727.00, 
1728.00, 
1729.00, 
1730.00, 
1731.00, 
1732.00, 
1733.00, 
1734.00, 
1735.00, 
1736.00, 
1737.00, 
1738.00, 
1739.00, 
1740.00, 
1741.00, 
1742.00, 
1743.00, 
1744.00, 
1745.00, 
1746.00, 
1747.00, 
1748.00, 
1749.00, 
1750.00, 
1751.00, 
1752.00, 
1753.00, 
1754.00, 
1755.00, 
1756.00, 
1757.00, 
1758.00, 
1759.00, 
1760.00, 
1761.00, 
1762.00, 
1763.00, 
1764.00, 
1765.00, 
1766.00, 
1767.00, 
1768.00, 
1769.00, 
1770.00, 
1771.00, 
1772.00, 
1773.00, 
1774.00, 
1775.00, 
1776.00, 
1777.00, 
1778.00, 
1779.00, 
1780.00, 
1781.00, 
1782.00, 
1783.00, 
1784.00, 
1785.00, 
1786.00, 
1787.00, 
1788.00, 
1789.00, 
1790.00, 
1791.00, 
1792.00, 
1793.00, 
1794.00, 
1795.00, 
1796.00, 
1797.00, 
1798.00, 
1799.00, 
1800.00, 
1801.00, 
1802.00, 
1803.00, 
1804.00, 
1805.00, 
1806.00, 
1807.00, 
1808.00, 
1809.00, 
1810.00, 
1811.00, 
1812.00, 
1813.00, 
1814.00, 
1815.00, 
1816.00, 
1817.00, 
1818.00, 
1819.00, 
1820.00, 
1821.00, 
1822.00, 
1823.00, 
1824.00, 
1825.00, 
1826.00, 
1827.00, 
1828.00, 
1829.00, 
1830.00, 
1831.00, 
1832.00, 
1833.00, 
1834.00, 
1835.00, 
1836.00, 
1837.00, 
1838.00, 
1839.00, 
1840.00, 
1841.00, 
1842.00, 
1843.00, 
1844.00, 
1845.00, 
1846.00, 
1847.00, 
1848.00, 
1849.00, 
1850.00, 
1851.00, 
1852.00, 
1853.00, 
1854.00, 
1855.00, 
1856.00, 
1857.00, 
1858.00, 
1859.00, 
1860.00, 
1861.00, 
1862.00, 
1863.00, 
1864.00, 
1865.00, 
1866.00, 
1867.00, 
1868.00, 
1869.00, 
1870.00, 
1871.00, 
1872.00, 
1873.00, 
1874.00, 
1875.00, 
1876.00, 
1877.00, 
1878.00, 
1879.00, 
1880.00, 
1881.00, 
1882.00, 
1883.00, 
1884.00, 
1885.00, 
1886.00, 
1887.00, 
1888.00, 
1889.00, 
1890.00, 
1891.00, 
1892.00, 
1893.00, 
1894.00, 
1895.00, 
1896.00, 
1897.00, 
1898.00, 
1899.00, 
1900.00, 
1901.00, 
1902.00, 
1903.00, 
1904.00, 
1905.00, 
1906.00, 
1907.00, 
1908.00, 
1909.00, 
1910.00, 
1911.00, 
1912.00, 
1913.00, 
1914.00, 
1915.00, 
1916.00, 
1917.00, 
1918.00, 
1919.00, 
1920.00, 
1921.00, 
1922.00, 
1923.00, 
1924.00, 
1925.00, 
1926.00, 
1927.00, 
1928.00, 
1929.00, 
1930.00, 
1931.00, 
1932.00, 
1933.00, 
1934.00, 
1935.00, 
1936.00, 
1937.00, 
1938.00, 
1939.00, 
1940.00, 
1941.00, 
1942.00, 
1943.00, 
1944.00, 
1945.00, 
1946.00, 
1947.00, 
1948.00, 
1949.00, 
1950.00, 
1951.00, 
1952.00, 
1953.00, 
1954.00, 
1955.00, 
1956.00, 
1957.00, 
1958.00, 
1959.00, 
1960.00, 
1961.00, 
1962.00, 
1963.00, 
1964.00, 
1965.00, 
1966.00, 
1967.00, 
1968.00, 
1969.00, 
1970.00, 
1971.00, 
1972.00, 
1973.00, 
1974.00, 
1975.00, 
1976.00, 
1977.00, 
1978.00, 
1979.00, 
1980.00, 
1981.00, 
1982.00, 
1983.00, 
1984.00, 
1985.00, 
1986.00, 
1987.00, 
1988.00, 
1989.00, 
1990.00, 
1991.00, 
1992.00, 
1993.00, 
1994.00, 
1995.00, 
1996.00, 
1997.00, 
1998.00, 
1999.00, 
2000.00, 
2001.00, 
2002.00, 
2003.00, 
2004.00, 
2005.00, 
2006.00, 
2007.00, 
2008.00, 
2009.00, 
2010.00, 
2011.00, 
2012.00, 
2013.00, 
2014.00, 
2015.00, 
2016.00, 
2017.00, 
2018.00, 
2019.00, 
2020.00, 
2021.00, 
2022.00, 
2023.00, 
2024.00, 
2025.00, 
2026.00, 
2027.00, 
2028.00, 
2029.00, 
2030.00, 
2031.00, 
2032.00, 
2033.00, 
2034.00, 
2035.00, 
2036.00, 
2037.00, 
2038.00, 
2039.00, 
2040.00, 
2041.00, 
2042.00, 
2043.00, 
2044.00, 
2045.00, 
2046.00, 
2047.00, 
2048.00, 
2049.00, 
2050.00, 
2051.00, 
2052.00, 
2053.00, 
2054.00, 
2055.00, 
2056.00, 
2057.00, 
2058.00, 
2059.00, 
2060.00, 
2061.00, 
2062.00, 
2063.00, 
2064.00, 
2065.00, 
2066.00, 
2067.00, 
2068.00, 
2069.00, 
2070.00, 
2071.00, 
2072.00, 
2073.00, 
2074.00, 
2075.00, 
2076.00, 
2077.00, 
2078.00, 
2079.00, 
2080.00, 
2081.00, 
2082.00, 
2083.00, 
2084.00, 
2085.00, 
2086.00, 
2087.00, 
2088.00, 
2089.00, 
2090.00, 
2091.00, 
2092.00, 
2093.00, 
2094.00, 
2095.00, 
2096.00, 
2097.00, 
2098.00, 
2099.00, 
2100.00, 
2101.00, 
2102.00, 
2103.00, 
2104.00, 
2105.00, 
2106.00, 
2107.00, 
2108.00, 
2109.00, 
2110.00, 
2111.00, 
2112.00, 
2113.00, 
2114.00, 
2115.00, 
2116.00, 
2117.00, 
2118.00, 
2119.00, 
2120.00, 
2121.00, 
2122.00, 
2123.00, 
2124.00, 
2125.00, 
2126.00, 
2127.00, 
2128.00, 
2129.00, 
2130.00, 
2131.00, 
2132.00, 
2133.00, 
2134.00, 
2135.00, 
2136.00, 
2137.00, 
2138.00, 
2139.00, 
2140.00, 
2141.00, 
2142.00, 
2143.00, 
2144.00, 
2145.00, 
2146.00, 
2147.00, 
2148.00, 
2149.00, 
2150.00, 
2151.00, 
2152.00, 
2153.00, 
2154.00, 
2155.00, 
2156.00, 
2157.00, 
2158.00, 
2159.00, 
2160.00, 
2161.00, 
2162.00, 
2163.00, 
2164.00, 
2165.00, 
2166.00, 
2167.00, 
2168.00, 
2169.00, 
2170.00, 
2171.00, 
2172.00, 
2173.00, 
2174.00, 
2175.00, 
2176.00, 
2177.00, 
2178.00, 
2179.00, 
2180.00, 
2181.00, 
2182.00, 
2183.00, 
2184.00, 
2185.00, 
2186.00, 
2187.00, 
2188.00, 
2189.00, 
2190.00, 
2191.00, 
2192.00, 
2193.00, 
2194.00, 
2195.00, 
2196.00, 
2197.00, 
2198.00, 
2199.00, 
2200.00, 
2201.00, 
2202.00, 
2203.00, 
2204.00, 
2205.00, 
2206.00, 
2207.00, 
2208.00, 
2209.00, 
2210.00, 
2211.00, 
2212.00, 
2213.00, 
2214.00, 
2215.00, 
2216.00, 
2217.00, 
2218.00, 
2219.00, 
2220.00, 
2221.00, 
2222.00, 
2223.00, 
2224.00, 
2225.00, 
2226.00, 
2227.00, 
2228.00, 
2229.00, 
2230.00, 
2231.00, 
2232.00, 
2233.00, 
2234.00, 
2235.00, 
2236.00, 
2237.00, 
2238.00, 
2239.00, 
2240.00, 
2241.00, 
2242.00, 
2243.00, 
2244.00, 
2245.00, 
2246.00, 
2247.00, 
2248.00, 
2249.00, 
2250.00, 
2251.00, 
2252.00, 
2253.00, 
2254.00, 
2255.00, 
2256.00, 
2257.00, 
2258.00, 
2259.00, 
2260.00, 
2261.00, 
2262.00, 
2263.00, 
2264.00, 
2265.00, 
2266.00, 
2267.00, 
2268.00, 
2269.00, 
2270.00, 
2271.00, 
2272.00, 
2273.00, 
2274.00, 
2275.00, 
2276.00, 
2277.00, 
2278.00, 
2279.00, 
2280.00, 
2281.00, 
2282.00, 
2283.00, 
2284.00, 
2285.00, 
2286.00, 
2287.00, 
2288.00, 
2289.00, 
2290.00, 
2291.00, 
2292.00, 
2293.00, 
2294.00, 
2295.00, 
2296.00, 
2297.00, 
2298.00, 
2299.00, 
2300.00, 
2301.00, 
2302.00, 
2303.00, 
2304.00, 
2305.00, 
2306.00, 
2307.00, 
2308.00, 
2309.00, 
2310.00, 
2311.00, 
2312.00, 
2313.00, 
2314.00, 
2315.00, 
2316.00, 
2317.00, 
2318.00, 
2319.00, 
2320.00, 
2321.00, 
2322.00, 
2323.00, 
2324.00, 
2325.00, 
2326.00, 
2327.00, 
2328.00, 
2329.00, 
2330.00, 
2331.00, 
2332.00, 
2333.00, 
2334.00, 
2335.00, 
2336.00, 
2337.00, 
2338.00, 
2339.00, 
2340.00, 
2341.00, 
2342.00, 
2343.00, 
2344.00, 
2345.00, 
2346.00, 
2347.00, 
2348.00, 
2349.00, 
2350.00, 
2351.00, 
2352.00, 
2353.00, 
2354.00, 
2355.00, 
2356.00, 
2357.00, 
2358.00, 
2359.00, 
2360.00, 
2361.00, 
2362.00, 
2363.00, 
2364.00, 
2365.00, 
2366.00, 
2367.00, 
2368.00, 
2369.00, 
2370.00, 
2371.00, 
2372.00, 
2373.00, 
2374.00, 
2375.00, 
2376.00, 
2377.00, 
2378.00, 
2379.00, 
2380.00, 
2381.00, 
2382.00, 
2383.00, 
2384.00, 
2385.00, 
2386.00, 
2387.00, 
2388.00, 
2389.00, 
2390.00, 
2391.00, 
2392.00, 
2393.00, 
2394.00, 
2395.00, 
2396.00, 
2397.00, 
2398.00, 
2399.00, 
2400.00, 
2401.00, 
2402.00, 
2403.00, 
2404.00, 
2405.00, 
2406.00, 
2407.00, 
2408.00, 
2409.00, 
2410.00, 
2411.00, 
2412.00, 
2413.00, 
2414.00, 
2415.00, 
2416.00, 
2417.00, 
2418.00, 
2419.00, 
2420.00, 
2421.00, 
2422.00, 
2423.00, 
2424.00, 
2425.00, 
2426.00, 
2427.00, 
2428.00, 
2429.00, 
2430.00, 
2431.00, 
2432.00, 
2433.00, 
2434.00, 
2435.00, 
2436.00, 
2437.00, 
2438.00, 
2439.00, 
2440.00, 
2441.00, 
2442.00, 
2443.00, 
2444.00, 
2445.00, 
2446.00, 
2447.00, 
2448.00, 
2449.00, 
2450.00, 
2451.00, 
2452.00, 
2453.00, 
2454.00, 
2455.00, 
2456.00, 
2457.00, 
2458.00, 
2459.00, 
2460.00, 
2461.00, 
2462.00, 
2463.00, 
2464.00, 
2465.00, 
2466.00, 
2467.00, 
2468.00, 
2469.00, 
2470.00, 
2471.00, 
2472.00, 
2473.00, 
2474.00, 
2475.00, 
2476.00, 
2477.00, 
2478.00, 
2479.00, 
2480.00, 
2481.00, 
2482.00, 
2483.00, 
2484.00, 
2485.00, 
2486.00, 
2487.00, 
2488.00, 
2489.00, 
2490.00, 
2491.00, 
2492.00, 
2493.00, 
2494.00, 
2495.00, 
2496.00, 
2497.00, 
2498.00, 
2499.00, 
2500.00, 
2501.00, 
2502.00, 
2503.00, 
2504.00, 
2505.00, 
2506.00, 
2507.00, 
2508.00, 
2509.00, 
2510.00, 
2511.00, 
2512.00, 
2513.00, 
2514.00, 
2515.00, 
2516.00, 
2517.00, 
2518.00, 
2519.00, 
2520.00, 
2521.00, 
2522.00, 
2523.00, 
2524.00, 
2525.00, 
2526.00, 
2527.00, 
2528.00, 
2529.00, 
2530.00, 
2531.00, 
2532.00, 
2533.00, 
2534.00, 
2535.00, 
2536.00, 
2537.00, 
2538.00, 
2539.00, 
2540.00, 
2541.00, 
2542.00, 
2543.00, 
2544.00, 
2545.00, 
2546.00, 
2547.00, 
2548.00, 
2549.00, 
2550.00, 
2551.00, 
2552.00, 
2553.00, 
2554.00, 
2555.00, 
2556.00, 
2557.00, 
2558.00, 
2559.00, 
2560.00, 
2561.00, 
2562.00, 
2563.00, 
2564.00, 
2565.00, 
2566.00, 
2567.00, 
2568.00, 
2569.00, 
2570.00, 
2571.00, 
2572.00, 
2573.00, 
2574.00, 
2575.00, 
2576.00, 
2577.00, 
2578.00, 
2579.00, 
2580.00, 
2581.00, 
2582.00, 
2583.00, 
2584.00, 
2585.00, 
2586.00, 
2587.00, 
2588.00, 
2589.00, 
2590.00, 
2591.00, 
2592.00, 
2593.00, 
2594.00, 
2595.00, 
2596.00, 
2597.00, 
2598.00, 
2599.00, 
2600.00, 
