"2aP2 - RawData"
"Wavelength nm.","T%"
200.00,0.006
201.00,0.002
202.00,0.004
203.00,0.001
204.00,-0.001
205.00,0.003
206.00,0.001
207.00,0.003
208.00,-0.000
209.00,-0.002
210.00,-0.001
211.00,0.002
212.00,0.003
213.00,0.000
214.00,0.003
215.00,0.001
216.00,0.001
217.00,-0.002
218.00,0.004
219.00,0.002
220.00,0.005
221.00,0.004
222.00,-0.003
223.00,0.002
224.00,0.002
225.00,0.004
226.00,0.003
227.00,0.003
228.00,-0.001
229.00,0.002
230.00,0.004
231.00,0.002
232.00,0.001
233.00,-0.000
234.00,0.004
235.00,-0.001
236.00,0.000
237.00,-0.000
238.00,0.000
239.00,-0.001
240.00,0.002
241.00,0.001
242.00,0.003
243.00,0.001
244.00,-0.000
245.00,0.003
246.00,0.001
247.00,0.001
248.00,-0.002
249.00,0.003
250.00,0.001
251.00,0.001
252.00,0.001
253.00,0.003
254.00,-0.000
255.00,-0.000
256.00,0.000
257.00,0.000
258.00,0.000
259.00,0.000
260.00,0.002
261.00,-0.000
262.00,0.000
263.00,-0.002
264.00,-0.001
265.00,0.003
266.00,0.001
267.00,0.002
268.00,0.002
269.00,-0.000
270.00,0.000
271.00,-0.000
272.00,-0.000
273.00,0.000
274.00,0.001
275.00,0.002
276.00,0.001
277.00,-0.001
278.00,0.000
279.00,-0.000
280.00,-0.000
281.00,0.001
282.00,-0.000
283.00,-0.001
284.00,-0.000
285.00,0.001
286.00,0.001
287.00,0.001
288.00,0.001
289.00,0.002
290.00,-0.000
291.00,0.001
292.00,-0.000
293.00,-0.001
294.00,0.001
295.00,-0.001
296.00,0.001
297.00,-0.001
298.00,0.002
299.00,0.002
300.00,0.003
301.00,0.004
302.00,0.008
303.00,0.009
304.00,0.011
305.00,0.017
306.00,0.028
307.00,0.039
308.00,0.058
309.00,0.093
310.00,0.131
311.00,0.175
312.00,0.239
313.00,0.325
314.00,0.434
315.00,0.555
316.00,0.709
317.00,0.903
318.00,1.108
319.00,1.355
320.00,1.657
321.00,1.987
322.00,2.339
323.00,2.758
324.00,3.210
325.00,3.641
326.00,4.116
327.00,4.621
328.00,5.157
329.00,5.700
330.00,6.291
331.00,6.877
332.00,7.460
333.00,8.097
334.00,8.685
335.00,9.290
336.00,9.814
337.00,10.481
338.00,11.092
339.00,11.647
340.00,12.214
341.00,12.761
342.00,13.314
343.00,13.782
344.00,14.237
345.00,14.748
346.00,15.131
347.00,15.526
348.00,15.898
349.00,16.293
350.00,16.607
351.00,16.930
352.00,17.161
353.00,17.482
354.00,17.743
355.00,18.008
356.00,18.196
357.00,18.395
358.00,18.600
359.00,18.848
360.00,19.045
361.00,19.132
362.00,19.335
363.00,19.423
364.00,19.488
365.00,19.577
366.00,19.657
367.00,19.728
368.00,19.808
369.00,19.827
370.00,19.888
371.00,19.874
372.00,19.890
373.00,19.883
374.00,19.884
375.00,19.931
376.00,19.849
377.00,19.811
378.00,19.728
379.00,19.667
380.00,19.670
381.00,19.655
382.00,19.650
383.00,19.646
384.00,19.666
385.00,19.705
386.00,19.703
387.00,19.758
388.00,19.831
389.00,19.809
390.00,19.826
391.00,19.861
392.00,19.858
393.00,19.844
394.00,19.890
395.00,19.905
396.00,19.888
397.00,19.909
398.00,19.901
399.00,19.886
400.00,19.887
401.00,19.880
402.00,19.864
403.00,19.850
404.00,19.859
405.00,19.848
406.00,19.828
407.00,19.817
408.00,19.816
409.00,19.768
410.00,19.739
411.00,19.756
412.00,19.729
413.00,19.737
414.00,19.718
415.00,19.742
416.00,19.809
417.00,19.810
418.00,19.787
419.00,19.866
420.00,19.875
421.00,19.933
422.00,19.959
423.00,19.997
424.00,20.014
425.00,20.063
426.00,20.095
427.00,20.183
428.00,20.208
429.00,20.238
430.00,20.288
431.00,20.332
432.00,20.422
433.00,20.476
434.00,20.543
435.00,20.590
436.00,20.674
437.00,20.730
438.00,20.786
439.00,20.886
440.00,20.938
441.00,21.017
442.00,21.104
443.00,21.199
444.00,21.310
445.00,21.364
446.00,21.496
447.00,21.555
448.00,21.689
449.00,21.800
450.00,21.910
451.00,21.992
452.00,22.091
453.00,22.217
454.00,22.309
455.00,22.411
456.00,22.527
457.00,22.674
458.00,22.798
459.00,22.905
460.00,23.042
461.00,23.197
462.00,23.305
463.00,23.434
464.00,23.575
465.00,23.690
466.00,23.860
467.00,23.974
468.00,24.075
469.00,24.210
470.00,24.293
471.00,24.421
472.00,24.588
473.00,24.635
474.00,24.741
475.00,24.879
476.00,24.999
477.00,25.116
478.00,25.260
479.00,25.436
480.00,25.544
481.00,25.721
482.00,25.847
483.00,26.028
484.00,26.193
485.00,26.309
486.00,26.490
487.00,26.664
488.00,26.791
489.00,26.945
490.00,27.011
491.00,27.227
492.00,27.426
493.00,27.605
494.00,27.653
495.00,27.799
496.00,27.909
497.00,28.010
498.00,28.216
499.00,28.319
500.00,28.431
501.00,28.510
502.00,28.678
503.00,28.842
504.00,28.942
505.00,29.094
506.00,29.239
507.00,29.317
508.00,29.445
509.00,29.638
510.00,29.748
511.00,29.813
512.00,29.982
513.00,30.147
514.00,30.289
515.00,30.367
516.00,30.488
517.00,30.556
518.00,30.698
519.00,30.764
520.00,30.869
521.00,30.947
522.00,31.031
523.00,31.127
524.00,31.252
525.00,31.329
526.00,31.378
527.00,31.462
528.00,31.541
529.00,31.778
530.00,31.954
531.00,32.070
532.00,32.137
533.00,32.234
534.00,32.351
535.00,32.423
536.00,32.492
537.00,32.559
538.00,32.689
539.00,32.707
540.00,32.786
541.00,32.837
542.00,32.898
543.00,32.994
544.00,33.049
545.00,33.143
546.00,33.174
547.00,33.311
548.00,33.406
549.00,33.434
550.00,33.540
551.00,33.603
552.00,33.703
553.00,33.775
554.00,33.761
555.00,33.835
556.00,33.919
557.00,33.990
558.00,34.030
559.00,34.104
560.00,34.166
561.00,34.217
562.00,34.256
563.00,34.324
564.00,34.385
565.00,34.416
566.00,34.458
567.00,34.498
568.00,34.570
569.00,34.578
570.00,34.605
571.00,34.714
572.00,34.736
573.00,34.711
574.00,34.777
575.00,34.765
576.00,34.762
577.00,34.829
578.00,34.972
579.00,35.021
580.00,35.059
581.00,35.268
582.00,35.287
583.00,35.333
584.00,35.368
585.00,35.516
586.00,35.526
587.00,35.605
588.00,35.592
589.00,35.547
590.00,35.709
591.00,35.742
592.00,35.680
593.00,35.760
594.00,35.856
595.00,35.930
596.00,35.945
597.00,36.019
598.00,36.117
599.00,36.156
600.00,36.245
601.00,36.241
602.00,36.183
603.00,36.208
604.00,36.311
605.00,36.363
606.00,36.356
607.00,36.448
608.00,36.600
609.00,36.714
610.00,36.602
611.00,36.683
612.00,36.710
613.00,36.770
614.00,36.813
615.00,36.920
616.00,37.025
617.00,37.013
618.00,36.985
619.00,37.110
620.00,37.136
621.00,37.209
622.00,37.265
623.00,37.367
624.00,37.454
625.00,37.532
626.00,37.628
627.00,37.641
628.00,37.641
629.00,37.752
630.00,37.776
631.00,37.862
632.00,37.897
633.00,38.095
634.00,38.163
635.00,38.274
636.00,38.351
637.00,38.337
638.00,38.414
639.00,38.501
640.00,38.546
641.00,38.638
642.00,38.767
643.00,38.818
644.00,38.918
645.00,38.971
646.00,39.140
647.00,39.183
648.00,39.269
649.00,39.286
650.00,39.359
651.00,39.536
652.00,39.568
653.00,39.630
654.00,39.727
655.00,39.928
656.00,40.272
657.00,40.250
658.00,40.249
659.00,40.386
660.00,40.442
661.00,40.385
662.00,40.510
663.00,40.670
664.00,40.830
665.00,41.049
666.00,41.185
667.00,41.221
668.00,41.360
669.00,41.309
670.00,41.671
671.00,41.585
672.00,41.627
673.00,41.816
674.00,41.834
675.00,41.956
676.00,42.191
677.00,42.266
678.00,42.100
679.00,42.466
680.00,42.479
681.00,42.686
682.00,42.752
683.00,42.776
684.00,42.923
685.00,43.050
686.00,42.938
687.00,43.171
688.00,43.273
689.00,43.315
690.00,43.606
691.00,43.801
692.00,43.543
693.00,43.675
694.00,43.891
695.00,44.002
696.00,44.081
697.00,44.062
698.00,44.170
699.00,44.270
700.00,44.273
701.00,44.221
702.00,44.521
703.00,45.182
704.00,45.205
705.00,44.898
706.00,45.005
707.00,45.116
708.00,45.033
709.00,45.498
710.00,45.786
711.00,45.493
712.00,45.560
713.00,45.708
714.00,45.753
715.00,45.752
716.00,45.740
717.00,46.004
718.00,46.313
719.00,46.238
720.00,46.278
721.00,50.679
722.00,50.690
723.00,50.736
724.00,50.765
725.00,50.853
726.00,50.837
727.00,50.883
728.00,50.904
729.00,51.018
730.00,51.028
731.00,51.152
732.00,51.038
733.00,51.274
734.00,51.242
735.00,51.299
736.00,51.413
737.00,51.349
738.00,51.437
739.00,51.418
740.00,51.430
741.00,51.538
742.00,51.577
743.00,51.624
744.00,51.605
745.00,51.624
746.00,51.692
747.00,51.663
748.00,51.745
749.00,51.703
750.00,51.721
751.00,51.702
752.00,51.797
753.00,51.739
754.00,51.797
755.00,51.804
756.00,51.858
757.00,51.804
758.00,51.855
759.00,51.948
760.00,51.878
761.00,51.971
762.00,51.973
763.00,52.042
764.00,52.041
765.00,51.967
766.00,51.995
767.00,52.129
768.00,52.095
769.00,52.132
770.00,52.200
771.00,52.265
772.00,52.181
773.00,52.191
774.00,52.272
775.00,52.352
776.00,52.223
777.00,52.287
778.00,52.322
779.00,52.362
780.00,52.316
781.00,52.294
782.00,52.351
783.00,52.245
784.00,52.381
785.00,52.387
786.00,52.365
787.00,52.411
788.00,52.466
789.00,52.388
790.00,52.357
791.00,52.369
792.00,52.359
793.00,52.362
794.00,52.304
795.00,52.404
796.00,52.360
797.00,52.349
798.00,52.351
799.00,52.366
800.00,52.262
801.00,52.308
802.00,52.365
803.00,52.334
804.00,52.315
805.00,52.362
806.00,52.315
807.00,52.208
808.00,52.224
809.00,52.245
810.00,52.343
811.00,52.223
812.00,52.345
813.00,52.173
814.00,52.294
815.00,52.218
816.00,52.254
817.00,52.214
818.00,52.179
819.00,52.230
820.00,52.185
821.00,52.133
822.00,52.201
823.00,52.082
824.00,52.093
825.00,52.111
826.00,52.008
827.00,52.226
828.00,52.165
829.00,52.089
830.00,52.145
831.00,54.267
832.00,54.246
833.00,54.238
834.00,54.194
835.00,54.147
836.00,54.171
837.00,54.114
838.00,54.125
839.00,54.109
840.00,54.081
841.00,54.071
842.00,54.078
843.00,54.152
844.00,54.078
845.00,54.098
846.00,54.045
847.00,54.014
848.00,53.970
849.00,53.900
850.00,53.908
851.00,53.861
852.00,53.877
853.00,53.823
854.00,53.839
855.00,53.784
856.00,53.784
857.00,53.771
858.00,53.745
859.00,53.722
860.00,53.726
861.00,53.702
862.00,53.676
863.00,53.730
864.00,53.646
865.00,53.693
866.00,53.650
867.00,53.660
868.00,53.629
869.00,53.603
870.00,53.626
871.00,53.593
872.00,53.574
873.00,53.578
874.00,53.575
875.00,53.538
876.00,53.570
877.00,53.575
878.00,53.595
879.00,53.541
880.00,53.547
881.00,53.482
882.00,53.523
883.00,53.459
884.00,53.422
885.00,53.428
886.00,53.403
887.00,53.400
888.00,53.363
889.00,53.330
890.00,53.337
891.00,53.279
892.00,53.277
893.00,53.275
894.00,53.279
895.00,53.242
896.00,53.230
897.00,53.193
898.00,53.167
899.00,53.159
900.00,53.171
901.00,53.164
902.00,53.171
903.00,53.131
904.00,53.140
905.00,53.096
906.00,53.096
907.00,53.060
908.00,53.022
909.00,53.037
910.00,52.982
911.00,52.996
912.00,52.984
913.00,52.971
914.00,52.930
915.00,52.906
916.00,52.911
917.00,52.891
918.00,52.893
919.00,52.831
920.00,52.746
921.00,52.900
922.00,52.787
923.00,52.792
924.00,52.724
925.00,52.732
926.00,52.715
927.00,52.727
928.00,52.667
929.00,52.678
930.00,52.643
931.00,52.644
932.00,52.611
933.00,52.610
934.00,52.571
935.00,52.571
936.00,52.553
937.00,52.520
938.00,52.509
939.00,52.530
940.00,52.468
941.00,52.463
942.00,52.424
943.00,52.443
944.00,52.396
945.00,52.395
946.00,52.398
947.00,52.355
948.00,52.351
949.00,52.329
950.00,52.313
951.00,52.310
952.00,52.272
953.00,52.219
954.00,52.226
955.00,52.178
956.00,52.178
957.00,52.122
958.00,52.130
959.00,52.070
960.00,52.080
961.00,52.060
962.00,52.057
963.00,52.022
964.00,52.023
965.00,52.012
966.00,52.001
967.00,51.991
968.00,51.974
969.00,52.002
970.00,51.961
971.00,51.986
972.00,51.961
973.00,51.994
974.00,52.006
975.00,51.964
976.00,51.980
977.00,51.947
978.00,51.985
979.00,51.945
980.00,51.975
981.00,51.964
982.00,51.963
983.00,51.961
984.00,51.940
985.00,51.959
986.00,51.913
987.00,51.939
988.00,51.906
989.00,51.909
990.00,51.906
991.00,51.868
992.00,51.897
993.00,51.856
994.00,51.846
995.00,51.830
996.00,51.815
997.00,51.803
998.00,51.766
999.00,51.783
1000.00,51.732
1001.00,51.741
1002.00,51.732
1003.00,51.722
1004.00,51.706
1005.00,51.676
1006.00,51.732
1007.00,51.678
1008.00,51.668
1009.00,51.666
1010.00,51.655
1011.00,51.645
1012.00,51.650
1013.00,51.611
1014.00,51.571
1015.00,51.608
1016.00,51.561
1017.00,51.560
1018.00,51.545
1019.00,51.508
1020.00,51.499
1021.00,51.475
1022.00,51.474
1023.00,51.437
1024.00,51.442
1025.00,51.431
1026.00,51.408
1027.00,51.395
1028.00,51.421
1029.00,51.376
1030.00,51.333
1031.00,51.348
1032.00,51.296
1033.00,51.304
1034.00,51.277
1035.00,51.231
1036.00,51.212
1037.00,51.195
1038.00,51.192
1039.00,51.168
1040.00,51.166
1041.00,51.120
1042.00,51.127
1043.00,51.104
1044.00,51.118
1045.00,51.113
1046.00,51.095
1047.00,51.108
1048.00,51.120
1049.00,51.134
1050.00,51.121
1051.00,51.169
1052.00,51.169
1053.00,51.170
1054.00,51.174
1055.00,51.174
1056.00,51.210
1057.00,51.202
1058.00,51.189
1059.00,51.183
1060.00,51.195
1061.00,51.167
1062.00,51.174
1063.00,51.161
1064.00,51.159
1065.00,51.141
1066.00,51.119
1067.00,51.104
1068.00,51.129
1069.00,51.075
1070.00,51.067
1071.00,51.069
1072.00,51.111
1073.00,51.093
1074.00,51.076
1075.00,51.073
1076.00,51.064
1077.00,51.027
1078.00,51.022
1079.00,51.020
1080.00,51.011
1081.00,51.010
1082.00,50.998
1083.00,50.996
1084.00,50.985
1085.00,50.983
1086.00,50.971
1087.00,50.955
1088.00,50.942
1089.00,50.972
1090.00,50.918
1091.00,50.915
1092.00,50.920
1093.00,50.905
1094.00,50.891
1095.00,50.890
1096.00,50.859
1097.00,50.852
1098.00,50.854
1099.00,50.832
1100.00,50.823
1101.00,50.846
1102.00,50.821
1103.00,50.803
1104.00,50.788
1105.00,50.779
1106.00,50.771
1107.00,50.764
1108.00,50.763
1109.00,50.742
1110.00,50.729
1111.00,50.739
1112.00,50.731
1113.00,50.730
1114.00,50.720
1115.00,50.720
1116.00,50.711
1117.00,50.691
1118.00,50.670
1119.00,50.669
1120.00,50.659
1121.00,50.657
1122.00,50.657
1123.00,50.656
1124.00,50.649
1125.00,50.650
1126.00,50.642
1127.00,50.640
1128.00,50.623
1129.00,50.615
1130.00,50.607
1131.00,50.598
1132.00,50.567
1133.00,50.587
1134.00,50.568
1135.00,50.529
1136.00,50.526
1137.00,50.527
1138.00,50.525
1139.00,50.535
1140.00,50.516
1141.00,50.526
1142.00,50.502
1143.00,50.506
1144.00,50.487
1145.00,50.488
1146.00,50.488
1147.00,50.486
1148.00,50.494
1149.00,50.517
1150.00,50.514
1151.00,50.489
1152.00,50.482
1153.00,50.471
1154.00,50.454
1155.00,50.473
1156.00,50.455
1157.00,50.463
1158.00,50.461
1159.00,50.463
1160.00,50.461
1161.00,50.469
1162.00,50.454
1163.00,50.452
1164.00,50.458
1165.00,50.445
1166.00,50.458
1167.00,50.435
1168.00,50.452
1169.00,50.436
1170.00,50.437
1171.00,50.407
1172.00,50.421
1173.00,50.420
1174.00,50.430
1175.00,50.433
1176.00,50.418
1177.00,50.412
1178.00,50.414
1179.00,50.415
1180.00,50.404
1181.00,50.424
1182.00,50.416
1183.00,50.419
1184.00,50.399
1185.00,50.415
1186.00,50.394
1187.00,50.386
1188.00,50.394
1189.00,50.390
1190.00,50.384
1191.00,50.386
1192.00,50.418
1193.00,50.392
1194.00,50.410
1195.00,50.385
1196.00,50.405
1197.00,50.394
1198.00,50.356
1199.00,50.367
1200.00,50.364
1201.00,50.381
1202.00,50.373
1203.00,50.378
1204.00,50.363
1205.00,50.401
1206.00,50.380
1207.00,50.396
1208.00,50.375
1209.00,50.373
1210.00,50.377
1211.00,50.358
1212.00,50.363
1213.00,50.334
1214.00,50.362
1215.00,50.346
1216.00,50.360
1217.00,50.366
1218.00,50.365
1219.00,50.378
1220.00,50.354
1221.00,50.388
1222.00,50.364
1223.00,50.362
1224.00,50.369
1225.00,50.348
1226.00,50.343
1227.00,50.354
1228.00,50.368
1229.00,50.350
1230.00,50.383
1231.00,50.375
1232.00,50.409
1233.00,50.385
1234.00,50.393
1235.00,50.396
1236.00,50.381
1237.00,50.386
1238.00,50.394
1239.00,50.396
1240.00,50.396
1241.00,50.410
1242.00,50.406
1243.00,50.418
1244.00,50.394
1245.00,50.433
1246.00,50.433
1247.00,50.402
1248.00,50.406
1249.00,50.425
1250.00,50.425
1251.00,50.420
1252.00,50.419
1253.00,50.403
1254.00,50.441
1255.00,50.443
1256.00,50.427
1257.00,50.380
1258.00,50.442
1259.00,50.434
1260.00,50.453
1261.00,50.446
1262.00,50.448
1263.00,50.442
1264.00,50.444
1265.00,50.463
1266.00,50.455
1267.00,50.460
1268.00,50.468
1269.00,50.483
1270.00,50.485
1271.00,50.503
1272.00,50.504
1273.00,50.507
1274.00,50.495
1275.00,50.502
1276.00,50.509
1277.00,50.507
1278.00,50.504
1279.00,50.514
1280.00,50.505
1281.00,50.530
1282.00,50.539
1283.00,50.531
1284.00,50.550
1285.00,50.527
1286.00,50.518
1287.00,50.534
1288.00,50.534
1289.00,50.533
1290.00,50.567
1291.00,50.551
1292.00,50.525
1293.00,50.534
1294.00,50.560
1295.00,50.578
1296.00,50.576
1297.00,50.565
1298.00,50.595
1299.00,50.561
1300.00,50.584
1301.00,50.575
1302.00,50.615
1303.00,50.606
1304.00,50.585
1305.00,50.618
1306.00,50.635
1307.00,50.645
1308.00,50.637
1309.00,50.656
1310.00,50.669
1311.00,50.646
1312.00,50.651
1313.00,50.659
1314.00,50.657
1315.00,50.662
1316.00,50.649
1317.00,50.701
1318.00,50.684
1319.00,50.677
1320.00,50.710
1321.00,50.868
1322.00,50.852
1323.00,50.835
1324.00,50.840
1325.00,50.838
1326.00,50.852
1327.00,50.824
1328.00,50.826
1329.00,50.815
1330.00,50.855
1331.00,50.813
1332.00,50.812
1333.00,50.826
1334.00,50.847
1335.00,50.865
1336.00,50.885
1337.00,50.924
1338.00,50.982
1339.00,51.023
1340.00,51.075
1341.00,51.142
1342.00,51.209
1343.00,51.243
1344.00,51.297
1345.00,51.358
1346.00,51.369
1347.00,51.408
1348.00,51.415
1349.00,51.447
1350.00,51.502
1351.00,51.493
1352.00,51.493
1353.00,51.501
1354.00,51.512
1355.00,51.496
1356.00,51.546
1357.00,51.531
1358.00,51.533
1359.00,51.549
1360.00,51.512
1361.00,51.553
1362.00,51.504
1363.00,51.562
1364.00,51.628
1365.00,51.553
1366.00,51.540
1367.00,51.553
1368.00,51.493
1369.00,51.536
1370.00,51.538
1371.00,51.470
1372.00,51.514
1373.00,51.512
1374.00,51.513
1375.00,51.520
1376.00,51.487
1377.00,51.507
1378.00,51.556
1379.00,51.545
1380.00,51.493
1381.00,51.513
1382.00,51.474
1383.00,51.518
1384.00,51.464
1385.00,51.497
1386.00,51.512
1387.00,51.521
1388.00,51.496
1389.00,51.481
1390.00,51.537
1391.00,51.556
1392.00,51.514
1393.00,51.476
1394.00,51.494
1395.00,51.546
1396.00,51.494
1397.00,51.535
1398.00,51.524
1399.00,51.532
1400.00,51.513
1401.00,51.462
1402.00,51.530
1403.00,51.530
1404.00,51.564
1405.00,51.575
1406.00,51.599
1407.00,51.482
1408.00,51.614
1409.00,51.545
1410.00,51.595
1411.00,51.582
1412.00,51.579
1413.00,51.561
1414.00,51.594
1415.00,51.644
1416.00,51.652
1417.00,51.654
1418.00,51.655
1419.00,51.671
1420.00,51.668
1421.00,51.712
1422.00,51.712
1423.00,51.727
1424.00,51.732
1425.00,51.751
1426.00,51.742
1427.00,51.758
1428.00,51.732
1429.00,51.762
1430.00,51.776
1431.00,51.790
1432.00,51.814
1433.00,51.816
1434.00,51.825
1435.00,51.886
1436.00,51.895
1437.00,51.915
1438.00,51.941
1439.00,51.933
1440.00,51.951
1441.00,51.946
1442.00,51.960
1443.00,52.037
1444.00,52.044
1445.00,51.988
1446.00,52.018
1447.00,52.035
1448.00,52.085
1449.00,52.089
1450.00,52.073
1451.00,52.090
1452.00,52.126
1453.00,52.102
1454.00,52.122
1455.00,52.164
1456.00,52.171
1457.00,52.192
1458.00,52.199
1459.00,52.209
1460.00,52.245
1461.00,52.222
1462.00,52.266
1463.00,52.267
1464.00,52.264
1465.00,52.296
1466.00,52.297
1467.00,52.342
1468.00,52.365
1469.00,52.343
1470.00,52.367
1471.00,52.398
1472.00,52.394
1473.00,52.403
1474.00,52.442
1475.00,52.426
1476.00,52.452
1477.00,52.445
1478.00,52.466
1479.00,52.490
1480.00,52.469
1481.00,52.500
1482.00,52.545
1483.00,52.531
1484.00,52.553
1485.00,52.569
1486.00,52.572
1487.00,52.582
1488.00,52.611
1489.00,52.584
1490.00,52.621
1491.00,52.621
1492.00,52.643
1493.00,52.638
1494.00,52.649
1495.00,52.641
1496.00,52.682
1497.00,52.659
1498.00,52.695
1499.00,52.701
1500.00,52.721
1501.00, 
1502.00, 
1503.00, 
1504.00, 
1505.00, 
1506.00, 
1507.00, 
1508.00, 
1509.00, 
1510.00, 
1511.00, 
1512.00, 
1513.00, 
1514.00, 
1515.00, 
1516.00, 
1517.00, 
1518.00, 
1519.00, 
1520.00, 
1521.00, 
1522.00, 
1523.00, 
1524.00, 
1525.00, 
1526.00, 
1527.00, 
1528.00, 
1529.00, 
1530.00, 
1531.00, 
1532.00, 
1533.00, 
1534.00, 
1535.00, 
1536.00, 
1537.00, 
1538.00, 
1539.00, 
1540.00, 
1541.00, 
1542.00, 
1543.00, 
1544.00, 
1545.00, 
1546.00, 
1547.00, 
1548.00, 
1549.00, 
1550.00, 
1551.00, 
1552.00, 
1553.00, 
1554.00, 
1555.00, 
1556.00, 
1557.00, 
1558.00, 
1559.00, 
1560.00, 
1561.00, 
1562.00, 
1563.00, 
1564.00, 
1565.00, 
1566.00, 
1567.00, 
1568.00, 
1569.00, 
1570.00, 
1571.00, 
1572.00, 
1573.00, 
1574.00, 
1575.00, 
1576.00, 
1577.00, 
1578.00, 
1579.00, 
1580.00, 
1581.00, 
1582.00, 
1583.00, 
1584.00, 
1585.00, 
1586.00, 
1587.00, 
1588.00, 
1589.00, 
1590.00, 
1591.00, 
1592.00, 
1593.00, 
1594.00, 
1595.00, 
1596.00, 
1597.00, 
1598.00, 
1599.00, 
1600.00, 
1601.00, 
1602.00, 
1603.00, 
1604.00, 
1605.00, 
1606.00, 
1607.00, 
1608.00, 
1609.00, 
1610.00, 
1611.00, 
1612.00, 
1613.00, 
1614.00, 
1615.00, 
1616.00, 
1617.00, 
1618.00, 
1619.00, 
1620.00, 
1621.00, 
1622.00, 
1623.00, 
1624.00, 
1625.00, 
1626.00, 
1627.00, 
1628.00, 
1629.00, 
1630.00, 
1631.00, 
1632.00, 
1633.00, 
1634.00, 
1635.00, 
1636.00, 
1637.00, 
1638.00, 
1639.00, 
1640.00, 
1641.00, 
1642.00, 
1643.00, 
1644.00, 
1645.00, 
1646.00, 
1647.00, 
1648.00, 
1649.00, 
1650.00, 
1651.00, 
1652.00, 
1653.00, 
1654.00, 
1655.00, 
1656.00, 
1657.00, 
1658.00, 
1659.00, 
1660.00, 
1661.00, 
1662.00, 
1663.00, 
1664.00, 
1665.00, 
1666.00, 
1667.00, 
1668.00, 
1669.00, 
1670.00, 
1671.00, 
1672.00, 
1673.00, 
1674.00, 
1675.00, 
1676.00, 
1677.00, 
1678.00, 
1679.00, 
1680.00, 
1681.00, 
1682.00, 
1683.00, 
1684.00, 
1685.00, 
1686.00, 
1687.00, 
1688.00, 
1689.00, 
1690.00, 
1691.00, 
1692.00, 
1693.00, 
1694.00, 
1695.00, 
1696.00, 
1697.00, 
1698.00, 
1699.00, 
1700.00, 
1701.00, 
1702.00, 
1703.00, 
1704.00, 
1705.00, 
1706.00, 
1707.00, 
1708.00, 
1709.00, 
1710.00, 
1711.00, 
1712.00, 
1713.00, 
1714.00, 
1715.00, 
1716.00, 
1717.00, 
1718.00, 
1719.00, 
1720.00, 
1721.00, 
1722.00, 
1723.00, 
1724.00, 
1725.00, 
1726.00, 
1727.00, 
1728.00, 
1729.00, 
1730.00, 
1731.00, 
1732.00, 
1733.00, 
1734.00, 
1735.00, 
1736.00, 
1737.00, 
1738.00, 
1739.00, 
1740.00, 
1741.00, 
1742.00, 
1743.00, 
1744.00, 
1745.00, 
1746.00, 
1747.00, 
1748.00, 
1749.00, 
1750.00, 
1751.00, 
1752.00, 
1753.00, 
1754.00, 
1755.00, 
1756.00, 
1757.00, 
1758.00, 
1759.00, 
1760.00, 
1761.00, 
1762.00, 
1763.00, 
1764.00, 
1765.00, 
1766.00, 
1767.00, 
1768.00, 
1769.00, 
1770.00, 
1771.00, 
1772.00, 
1773.00, 
1774.00, 
1775.00, 
1776.00, 
1777.00, 
1778.00, 
1779.00, 
1780.00, 
1781.00, 
1782.00, 
1783.00, 
1784.00, 
1785.00, 
1786.00, 
1787.00, 
1788.00, 
1789.00, 
1790.00, 
1791.00, 
1792.00, 
1793.00, 
1794.00, 
1795.00, 
1796.00, 
1797.00, 
1798.00, 
1799.00, 
1800.00, 
1801.00, 
1802.00, 
1803.00, 
1804.00, 
1805.00, 
1806.00, 
1807.00, 
1808.00, 
1809.00, 
1810.00, 
1811.00, 
1812.00, 
1813.00, 
1814.00, 
1815.00, 
1816.00, 
1817.00, 
1818.00, 
1819.00, 
1820.00, 
1821.00, 
1822.00, 
1823.00, 
1824.00, 
1825.00, 
1826.00, 
1827.00, 
1828.00, 
1829.00, 
1830.00, 
1831.00, 
1832.00, 
1833.00, 
1834.00, 
1835.00, 
1836.00, 
1837.00, 
1838.00, 
1839.00, 
1840.00, 
1841.00, 
1842.00, 
1843.00, 
1844.00, 
1845.00, 
1846.00, 
1847.00, 
1848.00, 
1849.00, 
1850.00, 
1851.00, 
1852.00, 
1853.00, 
1854.00, 
1855.00, 
1856.00, 
1857.00, 
1858.00, 
1859.00, 
1860.00, 
1861.00, 
1862.00, 
1863.00, 
1864.00, 
1865.00, 
1866.00, 
1867.00, 
1868.00, 
1869.00, 
1870.00, 
1871.00, 
1872.00, 
1873.00, 
1874.00, 
1875.00, 
1876.00, 
1877.00, 
1878.00, 
1879.00, 
1880.00, 
1881.00, 
1882.00, 
1883.00, 
1884.00, 
1885.00, 
1886.00, 
1887.00, 
1888.00, 
1889.00, 
1890.00, 
1891.00, 
1892.00, 
1893.00, 
1894.00, 
1895.00, 
1896.00, 
1897.00, 
1898.00, 
1899.00, 
1900.00, 
1901.00, 
1902.00, 
1903.00, 
1904.00, 
1905.00, 
1906.00, 
1907.00, 
1908.00, 
1909.00, 
1910.00, 
1911.00, 
1912.00, 
1913.00, 
1914.00, 
1915.00, 
1916.00, 
1917.00, 
1918.00, 
1919.00, 
1920.00, 
1921.00, 
1922.00, 
1923.00, 
1924.00, 
1925.00, 
1926.00, 
1927.00, 
1928.00, 
1929.00, 
1930.00, 
1931.00, 
1932.00, 
1933.00, 
1934.00, 
1935.00, 
1936.00, 
1937.00, 
1938.00, 
1939.00, 
1940.00, 
1941.00, 
1942.00, 
1943.00, 
1944.00, 
1945.00, 
1946.00, 
1947.00, 
1948.00, 
1949.00, 
1950.00, 
1951.00, 
1952.00, 
1953.00, 
1954.00, 
1955.00, 
1956.00, 
1957.00, 
1958.00, 
1959.00, 
1960.00, 
1961.00, 
1962.00, 
1963.00, 
1964.00, 
1965.00, 
1966.00, 
1967.00, 
1968.00, 
1969.00, 
1970.00, 
1971.00, 
1972.00, 
1973.00, 
1974.00, 
1975.00, 
1976.00, 
1977.00, 
1978.00, 
1979.00, 
1980.00, 
1981.00, 
1982.00, 
1983.00, 
1984.00, 
1985.00, 
1986.00, 
1987.00, 
1988.00, 
1989.00, 
1990.00, 
1991.00, 
1992.00, 
1993.00, 
1994.00, 
1995.00, 
1996.00, 
1997.00, 
1998.00, 
1999.00, 
2000.00, 
2001.00, 
2002.00, 
2003.00, 
2004.00, 
2005.00, 
2006.00, 
2007.00, 
2008.00, 
2009.00, 
2010.00, 
2011.00, 
2012.00, 
2013.00, 
2014.00, 
2015.00, 
2016.00, 
2017.00, 
2018.00, 
2019.00, 
2020.00, 
2021.00, 
2022.00, 
2023.00, 
2024.00, 
2025.00, 
2026.00, 
2027.00, 
2028.00, 
2029.00, 
2030.00, 
2031.00, 
2032.00, 
2033.00, 
2034.00, 
2035.00, 
2036.00, 
2037.00, 
2038.00, 
2039.00, 
2040.00, 
2041.00, 
2042.00, 
2043.00, 
2044.00, 
2045.00, 
2046.00, 
2047.00, 
2048.00, 
2049.00, 
2050.00, 
2051.00, 
2052.00, 
2053.00, 
2054.00, 
2055.00, 
2056.00, 
2057.00, 
2058.00, 
2059.00, 
2060.00, 
2061.00, 
2062.00, 
2063.00, 
2064.00, 
2065.00, 
2066.00, 
2067.00, 
2068.00, 
2069.00, 
2070.00, 
2071.00, 
2072.00, 
2073.00, 
2074.00, 
2075.00, 
2076.00, 
2077.00, 
2078.00, 
2079.00, 
2080.00, 
2081.00, 
2082.00, 
2083.00, 
2084.00, 
2085.00, 
2086.00, 
2087.00, 
2088.00, 
2089.00, 
2090.00, 
2091.00, 
2092.00, 
2093.00, 
2094.00, 
2095.00, 
2096.00, 
2097.00, 
2098.00, 
2099.00, 
2100.00, 
2101.00, 
2102.00, 
2103.00, 
2104.00, 
2105.00, 
2106.00, 
2107.00, 
2108.00, 
2109.00, 
2110.00, 
2111.00, 
2112.00, 
2113.00, 
2114.00, 
2115.00, 
2116.00, 
2117.00, 
2118.00, 
2119.00, 
2120.00, 
2121.00, 
2122.00, 
2123.00, 
2124.00, 
2125.00, 
2126.00, 
2127.00, 
2128.00, 
2129.00, 
2130.00, 
2131.00, 
2132.00, 
2133.00, 
2134.00, 
2135.00, 
2136.00, 
2137.00, 
2138.00, 
2139.00, 
2140.00, 
2141.00, 
2142.00, 
2143.00, 
2144.00, 
2145.00, 
2146.00, 
2147.00, 
2148.00, 
2149.00, 
2150.00, 
2151.00, 
2152.00, 
2153.00, 
2154.00, 
2155.00, 
2156.00, 
2157.00, 
2158.00, 
2159.00, 
2160.00, 
2161.00, 
2162.00, 
2163.00, 
2164.00, 
2165.00, 
2166.00, 
2167.00, 
2168.00, 
2169.00, 
2170.00, 
2171.00, 
2172.00, 
2173.00, 
2174.00, 
2175.00, 
2176.00, 
2177.00, 
2178.00, 
2179.00, 
2180.00, 
2181.00, 
2182.00, 
2183.00, 
2184.00, 
2185.00, 
2186.00, 
2187.00, 
2188.00, 
2189.00, 
2190.00, 
2191.00, 
2192.00, 
2193.00, 
2194.00, 
2195.00, 
2196.00, 
2197.00, 
2198.00, 
2199.00, 
2200.00, 
2201.00, 
2202.00, 
2203.00, 
2204.00, 
2205.00, 
2206.00, 
2207.00, 
2208.00, 
2209.00, 
2210.00, 
2211.00, 
2212.00, 
2213.00, 
2214.00, 
2215.00, 
2216.00, 
2217.00, 
2218.00, 
2219.00, 
2220.00, 
2221.00, 
2222.00, 
2223.00, 
2224.00, 
2225.00, 
2226.00, 
2227.00, 
2228.00, 
2229.00, 
2230.00, 
2231.00, 
2232.00, 
2233.00, 
2234.00, 
2235.00, 
2236.00, 
2237.00, 
2238.00, 
2239.00, 
2240.00, 
2241.00, 
2242.00, 
2243.00, 
2244.00, 
2245.00, 
2246.00, 
2247.00, 
2248.00, 
2249.00, 
2250.00, 
2251.00, 
2252.00, 
2253.00, 
2254.00, 
2255.00, 
2256.00, 
2257.00, 
2258.00, 
2259.00, 
2260.00, 
2261.00, 
2262.00, 
2263.00, 
2264.00, 
2265.00, 
2266.00, 
2267.00, 
2268.00, 
2269.00, 
2270.00, 
2271.00, 
2272.00, 
2273.00, 
2274.00, 
2275.00, 
2276.00, 
2277.00, 
2278.00, 
2279.00, 
2280.00, 
2281.00, 
2282.00, 
2283.00, 
2284.00, 
2285.00, 
2286.00, 
2287.00, 
2288.00, 
2289.00, 
2290.00, 
2291.00, 
2292.00, 
2293.00, 
2294.00, 
2295.00, 
2296.00, 
2297.00, 
2298.00, 
2299.00, 
2300.00, 
2301.00, 
2302.00, 
2303.00, 
2304.00, 
2305.00, 
2306.00, 
2307.00, 
2308.00, 
2309.00, 
2310.00, 
2311.00, 
2312.00, 
2313.00, 
2314.00, 
2315.00, 
2316.00, 
2317.00, 
2318.00, 
2319.00, 
2320.00, 
2321.00, 
2322.00, 
2323.00, 
2324.00, 
2325.00, 
2326.00, 
2327.00, 
2328.00, 
2329.00, 
2330.00, 
2331.00, 
2332.00, 
2333.00, 
2334.00, 
2335.00, 
2336.00, 
2337.00, 
2338.00, 
2339.00, 
2340.00, 
2341.00, 
2342.00, 
2343.00, 
2344.00, 
2345.00, 
2346.00, 
2347.00, 
2348.00, 
2349.00, 
2350.00, 
2351.00, 
2352.00, 
2353.00, 
2354.00, 
2355.00, 
2356.00, 
2357.00, 
2358.00, 
2359.00, 
2360.00, 
2361.00, 
2362.00, 
2363.00, 
2364.00, 
2365.00, 
2366.00, 
2367.00, 
2368.00, 
2369.00, 
2370.00, 
2371.00, 
2372.00, 
2373.00, 
2374.00, 
2375.00, 
2376.00, 
2377.00, 
2378.00, 
2379.00, 
2380.00, 
2381.00, 
2382.00, 
2383.00, 
2384.00, 
2385.00, 
2386.00, 
2387.00, 
2388.00, 
2389.00, 
2390.00, 
2391.00, 
2392.00, 
2393.00, 
2394.00, 
2395.00, 
2396.00, 
2397.00, 
2398.00, 
2399.00, 
2400.00, 
2401.00, 
2402.00, 
2403.00, 
2404.00, 
2405.00, 
2406.00, 
2407.00, 
2408.00, 
2409.00, 
2410.00, 
2411.00, 
2412.00, 
2413.00, 
2414.00, 
2415.00, 
2416.00, 
2417.00, 
2418.00, 
2419.00, 
2420.00, 
2421.00, 
2422.00, 
2423.00, 
2424.00, 
2425.00, 
2426.00, 
2427.00, 
2428.00, 
2429.00, 
2430.00, 
2431.00, 
2432.00, 
2433.00, 
2434.00, 
2435.00, 
2436.00, 
2437.00, 
2438.00, 
2439.00, 
2440.00, 
2441.00, 
2442.00, 
2443.00, 
2444.00, 
2445.00, 
2446.00, 
2447.00, 
2448.00, 
2449.00, 
2450.00, 
2451.00, 
2452.00, 
2453.00, 
2454.00, 
2455.00, 
2456.00, 
2457.00, 
2458.00, 
2459.00, 
2460.00, 
2461.00, 
2462.00, 
2463.00, 
2464.00, 
2465.00, 
2466.00, 
2467.00, 
2468.00, 
2469.00, 
2470.00, 
2471.00, 
2472.00, 
2473.00, 
2474.00, 
2475.00, 
2476.00, 
2477.00, 
2478.00, 
2479.00, 
2480.00, 
2481.00, 
2482.00, 
2483.00, 
2484.00, 
2485.00, 
2486.00, 
2487.00, 
2488.00, 
2489.00, 
2490.00, 
2491.00, 
2492.00, 
2493.00, 
2494.00, 
2495.00, 
2496.00, 
2497.00, 
2498.00, 
2499.00, 
2500.00, 
2501.00, 
2502.00, 
2503.00, 
2504.00, 
2505.00, 
2506.00, 
2507.00, 
2508.00, 
2509.00, 
2510.00, 
2511.00, 
2512.00, 
2513.00, 
2514.00, 
2515.00, 
2516.00, 
2517.00, 
2518.00, 
2519.00, 
2520.00, 
2521.00, 
2522.00, 
2523.00, 
2524.00, 
2525.00, 
2526.00, 
2527.00, 
2528.00, 
2529.00, 
2530.00, 
2531.00, 
2532.00, 
2533.00, 
2534.00, 
2535.00, 
2536.00, 
2537.00, 
2538.00, 
2539.00, 
2540.00, 
2541.00, 
2542.00, 
2543.00, 
2544.00, 
2545.00, 
2546.00, 
2547.00, 
2548.00, 
2549.00, 
2550.00, 
2551.00, 
2552.00, 
2553.00, 
2554.00, 
2555.00, 
2556.00, 
2557.00, 
2558.00, 
2559.00, 
2560.00, 
2561.00, 
2562.00, 
2563.00, 
2564.00, 
2565.00, 
2566.00, 
2567.00, 
2568.00, 
2569.00, 
2570.00, 
2571.00, 
2572.00, 
2573.00, 
2574.00, 
2575.00, 
2576.00, 
2577.00, 
2578.00, 
2579.00, 
2580.00, 
2581.00, 
2582.00, 
2583.00, 
2584.00, 
2585.00, 
2586.00, 
2587.00, 
2588.00, 
2589.00, 
2590.00, 
2591.00, 
2592.00, 
2593.00, 
2594.00, 
2595.00, 
2596.00, 
2597.00, 
2598.00, 
2599.00, 
2600.00, 
