"2cP1 - RawData"
"Wavelength nm.","T%"
200.00,0.001
201.00,0.001
202.00,-0.001
203.00,0.005
204.00,0.000
205.00,0.002
206.00,0.001
207.00,0.000
208.00,0.004
209.00,0.003
210.00,0.001
211.00,0.001
212.00,0.000
213.00,0.002
214.00,-0.001
215.00,0.002
216.00,0.003
217.00,0.004
218.00,0.002
219.00,-0.001
220.00,0.001
221.00,0.002
222.00,0.001
223.00,0.000
224.00,-0.001
225.00,0.002
226.00,-0.001
227.00,-0.000
228.00,0.001
229.00,0.000
230.00,0.001
231.00,0.002
232.00,0.001
233.00,0.001
234.00,0.001
235.00,0.002
236.00,0.001
237.00,-0.001
238.00,-0.000
239.00,-0.001
240.00,0.002
241.00,-0.001
242.00,0.002
243.00,0.000
244.00,0.000
245.00,0.001
246.00,0.000
247.00,0.000
248.00,0.001
249.00,0.000
250.00,-0.001
251.00,0.001
252.00,0.001
253.00,0.002
254.00,-0.000
255.00,0.000
256.00,0.001
257.00,-0.001
258.00,-0.001
259.00,0.001
260.00,-0.001
261.00,0.001
262.00,0.001
263.00,-0.000
264.00,0.000
265.00,-0.001
266.00,0.001
267.00,0.001
268.00,0.000
269.00,0.001
270.00,0.002
271.00,-0.000
272.00,-0.000
273.00,0.001
274.00,-0.001
275.00,0.000
276.00,0.001
277.00,-0.001
278.00,0.001
279.00,0.002
280.00,0.000
281.00,-0.002
282.00,0.001
283.00,0.003
284.00,0.000
285.00,0.000
286.00,0.000
287.00,-0.001
288.00,-0.001
289.00,0.001
290.00,0.000
291.00,-0.000
292.00,-0.000
293.00,0.000
294.00,0.001
295.00,-0.000
296.00,0.000
297.00,-0.000
298.00,-0.000
299.00,0.002
300.00,0.003
301.00,0.002
302.00,0.006
303.00,0.007
304.00,0.013
305.00,0.020
306.00,0.031
307.00,0.043
308.00,0.071
309.00,0.114
310.00,0.149
311.00,0.211
312.00,0.287
313.00,0.391
314.00,0.512
315.00,0.661
316.00,0.856
317.00,1.074
318.00,1.320
319.00,1.649
320.00,2.008
321.00,2.402
322.00,2.840
323.00,3.336
324.00,3.875
325.00,4.429
326.00,4.981
327.00,5.658
328.00,6.337
329.00,7.011
330.00,7.736
331.00,8.437
332.00,9.132
333.00,9.964
334.00,10.696
335.00,11.479
336.00,12.243
337.00,13.000
338.00,13.776
339.00,14.453
340.00,15.139
341.00,15.835
342.00,16.492
343.00,17.138
344.00,17.762
345.00,18.332
346.00,18.818
347.00,19.399
348.00,19.872
349.00,20.387
350.00,20.801
351.00,21.163
352.00,21.561
353.00,21.956
354.00,22.331
355.00,22.599
356.00,22.948
357.00,23.247
358.00,23.509
359.00,23.777
360.00,23.939
361.00,24.206
362.00,24.413
363.00,24.566
364.00,24.761
365.00,24.893
366.00,25.000
367.00,25.142
368.00,25.220
369.00,25.283
370.00,25.377
371.00,25.408
372.00,25.401
373.00,25.497
374.00,25.466
375.00,25.456
376.00,25.473
377.00,25.469
378.00,25.376
379.00,25.347
380.00,25.338
381.00,25.377
382.00,25.367
383.00,25.421
384.00,25.465
385.00,25.485
386.00,25.524
387.00,25.585
388.00,25.676
389.00,25.673
390.00,25.711
391.00,25.798
392.00,25.828
393.00,25.860
394.00,25.881
395.00,25.916
396.00,25.933
397.00,25.957
398.00,25.991
399.00,25.977
400.00,25.975
401.00,26.018
402.00,25.988
403.00,25.997
404.00,25.981
405.00,25.967
406.00,25.958
407.00,25.942
408.00,25.946
409.00,25.893
410.00,25.873
411.00,25.854
412.00,25.841
413.00,25.848
414.00,25.875
415.00,25.863
416.00,25.900
417.00,25.915
418.00,25.880
419.00,25.921
420.00,25.896
421.00,26.019
422.00,26.073
423.00,26.081
424.00,26.092
425.00,26.155
426.00,26.182
427.00,26.222
428.00,26.245
429.00,26.331
430.00,26.296
431.00,26.360
432.00,26.412
433.00,26.486
434.00,26.518
435.00,26.557
436.00,26.660
437.00,26.669
438.00,26.782
439.00,26.846
440.00,26.926
441.00,26.945
442.00,27.044
443.00,27.148
444.00,27.219
445.00,27.268
446.00,27.366
447.00,27.456
448.00,27.555
449.00,27.651
450.00,27.727
451.00,27.841
452.00,27.939
453.00,28.049
454.00,28.119
455.00,28.238
456.00,28.325
457.00,28.448
458.00,28.545
459.00,28.665
460.00,28.766
461.00,28.887
462.00,29.016
463.00,29.114
464.00,29.234
465.00,29.316
466.00,29.453
467.00,29.586
468.00,29.658
469.00,29.805
470.00,29.851
471.00,29.954
472.00,30.067
473.00,30.153
474.00,30.239
475.00,30.358
476.00,30.462
477.00,30.564
478.00,30.664
479.00,30.808
480.00,30.914
481.00,31.072
482.00,31.150
483.00,31.322
484.00,31.483
485.00,31.593
486.00,31.638
487.00,31.731
488.00,31.857
489.00,32.184
490.00,32.300
491.00,32.431
492.00,32.610
493.00,32.693
494.00,32.748
495.00,32.885
496.00,32.995
497.00,33.086
498.00,33.233
499.00,33.341
500.00,33.487
501.00,33.621
502.00,33.718
503.00,33.805
504.00,33.928
505.00,34.030
506.00,34.180
507.00,34.257
508.00,34.391
509.00,34.528
510.00,34.615
511.00,34.726
512.00,34.822
513.00,34.916
514.00,35.076
515.00,35.157
516.00,35.259
517.00,35.348
518.00,35.502
519.00,35.547
520.00,35.630
521.00,35.706
522.00,35.748
523.00,35.858
524.00,35.925
525.00,36.016
526.00,36.129
527.00,36.171
528.00,36.242
529.00,36.356
530.00,36.437
531.00,36.622
532.00,36.683
533.00,36.759
534.00,36.888
535.00,36.956
536.00,36.990
537.00,37.092
538.00,37.249
539.00,37.261
540.00,37.341
541.00,37.420
542.00,37.458
543.00,37.528
544.00,37.606
545.00,37.685
546.00,37.720
547.00,37.801
548.00,37.897
549.00,37.906
550.00,37.965
551.00,38.091
552.00,38.102
553.00,38.116
554.00,38.298
555.00,38.393
556.00,38.433
557.00,38.481
558.00,38.516
559.00,38.626
560.00,38.626
561.00,38.707
562.00,38.772
563.00,38.799
564.00,38.830
565.00,38.873
566.00,38.942
567.00,38.927
568.00,38.991
569.00,39.019
570.00,38.985
571.00,39.147
572.00,39.150
573.00,39.152
574.00,39.244
575.00,39.293
576.00,39.292
577.00,39.341
578.00,39.438
579.00,39.470
580.00,39.552
581.00,39.675
582.00,39.720
583.00,39.810
584.00,39.877
585.00,39.893
586.00,39.970
587.00,40.092
588.00,40.031
589.00,40.128
590.00,40.221
591.00,40.229
592.00,40.227
593.00,40.286
594.00,40.342
595.00,40.308
596.00,40.400
597.00,40.446
598.00,40.523
599.00,40.627
600.00,40.686
601.00,40.702
602.00,40.659
603.00,40.701
604.00,40.822
605.00,40.825
606.00,40.864
607.00,40.933
608.00,41.011
609.00,40.950
610.00,40.999
611.00,41.173
612.00,41.053
613.00,41.173
614.00,41.108
615.00,41.159
616.00,41.314
617.00,41.315
618.00,41.361
619.00,41.445
620.00,41.470
621.00,41.465
622.00,41.573
623.00,41.624
624.00,41.676
625.00,41.748
626.00,41.786
627.00,41.844
628.00,41.887
629.00,41.938
630.00,41.951
631.00,42.033
632.00,42.082
633.00,42.124
634.00,42.208
635.00,42.258
636.00,42.343
637.00,42.399
638.00,42.469
639.00,42.454
640.00,42.446
641.00,42.515
642.00,42.589
643.00,42.563
644.00,42.682
645.00,42.663
646.00,42.859
647.00,43.012
648.00,43.039
649.00,43.062
650.00,43.115
651.00,43.262
652.00,43.190
653.00,43.267
654.00,43.400
655.00,43.257
656.00,43.611
657.00,43.770
658.00,43.650
659.00,43.651
660.00,43.819
661.00,43.885
662.00,44.066
663.00,44.132
664.00,44.145
665.00,44.223
666.00,44.453
667.00,44.432
668.00,44.647
669.00,44.451
670.00,44.654
671.00,44.751
672.00,44.689
673.00,44.897
674.00,44.930
675.00,44.911
676.00,45.025
677.00,45.109
678.00,45.088
679.00,45.221
680.00,45.300
681.00,45.334
682.00,45.408
683.00,45.462
684.00,45.599
685.00,45.724
686.00,45.565
687.00,45.749
688.00,45.850
689.00,45.886
690.00,45.905
691.00,46.019
692.00,46.142
693.00,46.173
694.00,46.213
695.00,46.317
696.00,46.326
697.00,46.369
698.00,46.547
699.00,46.542
700.00,46.707
701.00,46.631
702.00,46.772
703.00,46.867
704.00,46.801
705.00,46.803
706.00,46.972
707.00,47.059
708.00,46.877
709.00,47.177
710.00,47.296
711.00,47.160
712.00,47.072
713.00,47.358
714.00,47.286
715.00,47.445
716.00,47.438
717.00,47.464
718.00,47.626
719.00,47.534
720.00,47.723
721.00,51.758
722.00,51.779
723.00,51.826
724.00,51.799
725.00,51.795
726.00,51.791
727.00,51.763
728.00,51.805
729.00,51.857
730.00,51.870
731.00,51.875
732.00,51.854
733.00,51.901
734.00,51.922
735.00,51.913
736.00,51.953
737.00,51.939
738.00,51.935
739.00,51.960
740.00,51.953
741.00,51.994
742.00,52.000
743.00,52.011
744.00,51.925
745.00,51.974
746.00,51.994
747.00,51.994
748.00,51.977
749.00,51.902
750.00,51.974
751.00,51.850
752.00,51.927
753.00,51.937
754.00,51.890
755.00,51.904
756.00,51.905
757.00,51.943
758.00,51.850
759.00,51.934
760.00,51.864
761.00,51.878
762.00,51.883
763.00,51.953
764.00,51.947
765.00,51.860
766.00,51.777
767.00,51.948
768.00,51.943
769.00,51.917
770.00,51.940
771.00,51.951
772.00,51.906
773.00,51.977
774.00,51.946
775.00,51.903
776.00,51.924
777.00,51.880
778.00,51.969
779.00,51.920
780.00,51.901
781.00,51.936
782.00,51.899
783.00,51.839
784.00,51.939
785.00,51.950
786.00,51.879
787.00,51.896
788.00,51.893
789.00,51.877
790.00,51.795
791.00,51.825
792.00,51.807
793.00,51.702
794.00,51.744
795.00,51.767
796.00,51.740
797.00,51.653
798.00,51.661
799.00,51.661
800.00,51.598
801.00,51.634
802.00,51.620
803.00,51.614
804.00,51.547
805.00,51.552
806.00,51.587
807.00,51.484
808.00,51.518
809.00,51.454
810.00,51.508
811.00,51.475
812.00,51.449
813.00,51.475
814.00,51.404
815.00,51.419
816.00,51.439
817.00,51.324
818.00,51.330
819.00,51.350
820.00,51.309
821.00,51.239
822.00,51.231
823.00,51.272
824.00,51.172
825.00,51.177
826.00,51.154
827.00,51.327
828.00,51.168
829.00,51.126
830.00,51.164
831.00,53.695
832.00,53.672
833.00,53.650
834.00,53.600
835.00,53.568
836.00,53.592
837.00,53.537
838.00,53.527
839.00,53.506
840.00,53.459
841.00,53.495
842.00,53.471
843.00,53.469
844.00,53.418
845.00,53.395
846.00,53.364
847.00,53.363
848.00,53.308
849.00,53.262
850.00,53.232
851.00,53.219
852.00,53.200
853.00,53.154
854.00,53.136
855.00,53.068
856.00,53.102
857.00,53.073
858.00,52.986
859.00,52.988
860.00,53.064
861.00,53.076
862.00,52.930
863.00,52.949
864.00,52.925
865.00,52.928
866.00,52.892
867.00,52.866
868.00,52.840
869.00,52.824
870.00,52.835
871.00,52.795
872.00,52.780
873.00,52.781
874.00,52.724
875.00,52.739
876.00,52.724
877.00,52.725
878.00,52.718
879.00,52.697
880.00,52.692
881.00,52.650
882.00,52.683
883.00,52.646
884.00,52.642
885.00,52.588
886.00,52.566
887.00,52.574
888.00,52.545
889.00,52.515
890.00,52.478
891.00,52.512
892.00,52.444
893.00,52.439
894.00,52.417
895.00,52.392
896.00,52.346
897.00,52.341
898.00,52.324
899.00,52.310
900.00,52.304
901.00,52.314
902.00,52.283
903.00,52.219
904.00,52.233
905.00,52.219
906.00,52.212
907.00,52.189
908.00,52.160
909.00,52.153
910.00,52.125
911.00,52.112
912.00,52.119
913.00,52.071
914.00,52.041
915.00,51.983
916.00,52.083
917.00,51.969
918.00,51.939
919.00,51.918
920.00,51.887
921.00,51.904
922.00,51.865
923.00,51.866
924.00,51.832
925.00,51.811
926.00,51.793
927.00,51.816
928.00,51.787
929.00,51.771
930.00,51.696
931.00,51.720
932.00,51.674
933.00,51.670
934.00,51.655
935.00,51.635
936.00,51.621
937.00,51.592
938.00,51.584
939.00,51.587
940.00,51.545
941.00,51.549
942.00,51.486
943.00,51.501
944.00,51.467
945.00,51.437
946.00,51.495
947.00,51.413
948.00,51.391
949.00,51.377
950.00,51.360
951.00,51.331
952.00,51.312
953.00,51.262
954.00,51.271
955.00,51.221
956.00,51.207
957.00,51.172
958.00,51.184
959.00,51.143
960.00,51.126
961.00,51.067
962.00,51.106
963.00,51.068
964.00,51.058
965.00,51.039
966.00,51.034
967.00,51.023
968.00,51.004
969.00,51.030
970.00,50.989
971.00,51.010
972.00,50.990
973.00,51.005
974.00,51.021
975.00,50.982
976.00,50.999
977.00,50.995
978.00,51.017
979.00,50.989
980.00,51.003
981.00,50.988
982.00,50.985
983.00,50.990
984.00,50.978
985.00,50.994
986.00,50.944
987.00,50.968
988.00,50.944
989.00,50.936
990.00,50.937
991.00,50.884
992.00,50.913
993.00,50.899
994.00,50.875
995.00,50.856
996.00,50.843
997.00,50.831
998.00,50.817
999.00,50.840
1000.00,50.785
1001.00,50.789
1002.00,50.777
1003.00,50.762
1004.00,50.757
1005.00,50.723
1006.00,50.742
1007.00,50.733
1008.00,50.696
1009.00,50.680
1010.00,50.670
1011.00,50.645
1012.00,50.627
1013.00,50.631
1014.00,50.590
1015.00,50.616
1016.00,50.577
1017.00,50.569
1018.00,50.550
1019.00,50.520
1020.00,50.521
1021.00,50.545
1022.00,50.491
1023.00,50.464
1024.00,50.457
1025.00,50.433
1026.00,50.451
1027.00,50.414
1028.00,50.392
1029.00,50.387
1030.00,50.347
1031.00,50.365
1032.00,50.322
1033.00,50.318
1034.00,50.295
1035.00,50.261
1036.00,50.233
1037.00,50.226
1038.00,50.202
1039.00,50.163
1040.00,50.178
1041.00,50.129
1042.00,50.135
1043.00,50.101
1044.00,50.121
1045.00,50.123
1046.00,50.115
1047.00,50.110
1048.00,50.133
1049.00,50.145
1050.00,50.156
1051.00,50.176
1052.00,50.172
1053.00,50.189
1054.00,50.198
1055.00,50.188
1056.00,50.215
1057.00,50.211
1058.00,50.191
1059.00,50.190
1060.00,50.192
1061.00,50.176
1062.00,50.182
1063.00,50.180
1064.00,50.171
1065.00,50.183
1066.00,50.161
1067.00,50.141
1068.00,50.168
1069.00,50.117
1070.00,50.113
1071.00,50.079
1072.00,50.090
1073.00,50.074
1074.00,50.071
1075.00,50.055
1076.00,50.058
1077.00,50.040
1078.00,50.034
1079.00,50.019
1080.00,50.028
1081.00,50.035
1082.00,50.001
1083.00,49.988
1084.00,49.985
1085.00,49.966
1086.00,49.967
1087.00,49.958
1088.00,49.922
1089.00,49.939
1090.00,49.924
1091.00,49.902
1092.00,49.920
1093.00,49.906
1094.00,49.892
1095.00,49.870
1096.00,49.867
1097.00,49.860
1098.00,49.863
1099.00,49.851
1100.00,49.830
1101.00,49.804
1102.00,49.797
1103.00,49.803
1104.00,49.789
1105.00,49.760
1106.00,49.760
1107.00,49.746
1108.00,49.750
1109.00,49.740
1110.00,49.735
1111.00,49.730
1112.00,49.718
1113.00,49.709
1114.00,49.723
1115.00,49.694
1116.00,49.684
1117.00,49.665
1118.00,49.659
1119.00,49.655
1120.00,49.662
1121.00,49.638
1122.00,49.649
1123.00,49.651
1124.00,49.626
1125.00,49.628
1126.00,49.626
1127.00,49.612
1128.00,49.602
1129.00,49.608
1130.00,49.620
1131.00,49.570
1132.00,49.546
1133.00,49.542
1134.00,49.541
1135.00,49.545
1136.00,49.546
1137.00,49.530
1138.00,49.527
1139.00,49.533
1140.00,49.512
1141.00,49.519
1142.00,49.516
1143.00,49.515
1144.00,49.496
1145.00,49.497
1146.00,49.489
1147.00,49.489
1148.00,49.469
1149.00,49.473
1150.00,49.479
1151.00,49.469
1152.00,49.454
1153.00,49.459
1154.00,49.441
1155.00,49.463
1156.00,49.448
1157.00,49.447
1158.00,49.449
1159.00,49.438
1160.00,49.434
1161.00,49.438
1162.00,49.422
1163.00,49.425
1164.00,49.422
1165.00,49.400
1166.00,49.410
1167.00,49.410
1168.00,49.402
1169.00,49.407
1170.00,49.422
1171.00,49.373
1172.00,49.393
1173.00,49.396
1174.00,49.404
1175.00,49.414
1176.00,49.394
1177.00,49.396
1178.00,49.392
1179.00,49.382
1180.00,49.385
1181.00,49.390
1182.00,49.378
1183.00,49.380
1184.00,49.354
1185.00,49.385
1186.00,49.367
1187.00,49.371
1188.00,49.371
1189.00,49.368
1190.00,49.346
1191.00,49.362
1192.00,49.370
1193.00,49.355
1194.00,49.379
1195.00,49.338
1196.00,49.365
1197.00,49.363
1198.00,49.341
1199.00,49.349
1200.00,49.327
1201.00,49.329
1202.00,49.337
1203.00,49.336
1204.00,49.311
1205.00,49.338
1206.00,49.323
1207.00,49.345
1208.00,49.336
1209.00,49.316
1210.00,49.329
1211.00,49.323
1212.00,49.322
1213.00,49.309
1214.00,49.322
1215.00,49.299
1216.00,49.317
1217.00,49.303
1218.00,49.309
1219.00,49.325
1220.00,49.301
1221.00,49.339
1222.00,49.313
1223.00,49.318
1224.00,49.339
1225.00,49.321
1226.00,49.319
1227.00,49.310
1228.00,49.311
1229.00,49.332
1230.00,49.372
1231.00,49.348
1232.00,49.375
1233.00,49.349
1234.00,49.367
1235.00,49.376
1236.00,49.374
1237.00,49.374
1238.00,49.356
1239.00,49.349
1240.00,49.357
1241.00,49.367
1242.00,49.350
1243.00,49.377
1244.00,49.343
1245.00,49.355
1246.00,49.388
1247.00,49.369
1248.00,49.358
1249.00,49.375
1250.00,49.386
1251.00,49.388
1252.00,49.390
1253.00,49.366
1254.00,49.405
1255.00,49.398
1256.00,49.370
1257.00,49.361
1258.00,49.418
1259.00,49.387
1260.00,49.417
1261.00,49.408
1262.00,49.408
1263.00,49.410
1264.00,49.410
1265.00,49.420
1266.00,49.420
1267.00,49.422
1268.00,49.454
1269.00,49.439
1270.00,49.446
1271.00,49.449
1272.00,49.445
1273.00,49.457
1274.00,49.459
1275.00,49.457
1276.00,49.461
1277.00,49.461
1278.00,49.471
1279.00,49.476
1280.00,49.479
1281.00,49.485
1282.00,49.510
1283.00,49.462
1284.00,49.495
1285.00,49.475
1286.00,49.474
1287.00,49.483
1288.00,49.502
1289.00,49.489
1290.00,49.510
1291.00,49.509
1292.00,49.515
1293.00,49.510
1294.00,49.505
1295.00,49.523
1296.00,49.532
1297.00,49.537
1298.00,49.567
1299.00,49.546
1300.00,49.551
1301.00,49.559
1302.00,49.568
1303.00,49.580
1304.00,49.560
1305.00,49.571
1306.00,49.566
1307.00,49.587
1308.00,49.577
1309.00,49.589
1310.00,49.580
1311.00,49.580
1312.00,49.596
1313.00,49.596
1314.00,49.600
1315.00,49.613
1316.00,49.597
1317.00,49.627
1318.00,49.626
1319.00,49.618
1320.00,49.655
1321.00,49.811
1322.00,49.831
1323.00,49.807
1324.00,49.799
1325.00,49.786
1326.00,49.854
1327.00,49.791
1328.00,49.814
1329.00,49.809
1330.00,49.809
1331.00,49.825
1332.00,49.817
1333.00,49.826
1334.00,49.845
1335.00,49.863
1336.00,49.877
1337.00,49.916
1338.00,49.968
1339.00,50.010
1340.00,50.067
1341.00,50.118
1342.00,50.218
1343.00,50.258
1344.00,50.284
1345.00,50.355
1346.00,50.393
1347.00,50.402
1348.00,50.418
1349.00,50.453
1350.00,50.492
1351.00,50.483
1352.00,50.487
1353.00,50.535
1354.00,50.515
1355.00,50.464
1356.00,50.521
1357.00,50.507
1358.00,50.509
1359.00,50.553
1360.00,50.592
1361.00,50.479
1362.00,50.509
1363.00,50.554
1364.00,50.484
1365.00,50.524
1366.00,50.525
1367.00,50.499
1368.00,50.522
1369.00,50.511
1370.00,50.521
1371.00,50.488
1372.00,50.503
1373.00,50.486
1374.00,50.497
1375.00,50.496
1376.00,50.482
1377.00,50.486
1378.00,50.595
1379.00,50.532
1380.00,50.506
1381.00,50.505
1382.00,50.423
1383.00,50.467
1384.00,50.434
1385.00,50.427
1386.00,50.497
1387.00,50.443
1388.00,50.474
1389.00,50.410
1390.00,50.514
1391.00,50.434
1392.00,50.477
1393.00,50.504
1394.00,50.445
1395.00,50.417
1396.00,50.402
1397.00,50.500
1398.00,50.539
1399.00,50.507
1400.00,50.445
1401.00,50.442
1402.00,50.580
1403.00,50.533
1404.00,50.483
1405.00,50.506
1406.00,50.501
1407.00,50.509
1408.00,50.492
1409.00,50.445
1410.00,50.527
1411.00,50.521
1412.00,50.528
1413.00,50.514
1414.00,50.537
1415.00,50.577
1416.00,50.622
1417.00,50.603
1418.00,50.577
1419.00,50.590
1420.00,50.608
1421.00,50.635
1422.00,50.651
1423.00,50.640
1424.00,50.666
1425.00,50.662
1426.00,50.688
1427.00,50.690
1428.00,50.677
1429.00,50.706
1430.00,50.731
1431.00,50.735
1432.00,50.748
1433.00,50.770
1434.00,50.765
1435.00,50.799
1436.00,50.812
1437.00,50.817
1438.00,50.833
1439.00,50.859
1440.00,50.868
1441.00,50.870
1442.00,50.888
1443.00,50.979
1444.00,50.932
1445.00,50.920
1446.00,50.938
1447.00,50.968
1448.00,50.987
1449.00,51.002
1450.00,50.976
1451.00,51.002
1452.00,51.031
1453.00,51.047
1454.00,51.040
1455.00,51.066
1456.00,51.078
1457.00,51.089
1458.00,51.094
1459.00,51.120
1460.00,51.130
1461.00,51.124
1462.00,51.153
1463.00,51.179
1464.00,51.218
1465.00,51.203
1466.00,51.202
1467.00,51.236
1468.00,51.251
1469.00,51.270
1470.00,51.267
1471.00,51.292
1472.00,51.305
1473.00,51.303
1474.00,51.349
1475.00,51.332
1476.00,51.358
1477.00,51.355
1478.00,51.361
1479.00,51.398
1480.00,51.394
1481.00,51.406
1482.00,51.436
1483.00,51.433
1484.00,51.458
1485.00,51.473
1486.00,51.468
1487.00,51.483
1488.00,51.507
1489.00,51.501
1490.00,51.515
1491.00,51.519
1492.00,51.534
1493.00,51.536
1494.00,51.549
1495.00,51.556
1496.00,51.572
1497.00,51.569
1498.00,51.571
1499.00,51.600
1500.00,51.626
1501.00, 
1502.00, 
1503.00, 
1504.00, 
1505.00, 
1506.00, 
1507.00, 
1508.00, 
1509.00, 
1510.00, 
1511.00, 
1512.00, 
1513.00, 
1514.00, 
1515.00, 
1516.00, 
1517.00, 
1518.00, 
1519.00, 
1520.00, 
1521.00, 
1522.00, 
1523.00, 
1524.00, 
1525.00, 
1526.00, 
1527.00, 
1528.00, 
1529.00, 
1530.00, 
1531.00, 
1532.00, 
1533.00, 
1534.00, 
1535.00, 
1536.00, 
1537.00, 
1538.00, 
1539.00, 
1540.00, 
1541.00, 
1542.00, 
1543.00, 
1544.00, 
1545.00, 
1546.00, 
1547.00, 
1548.00, 
1549.00, 
1550.00, 
1551.00, 
1552.00, 
1553.00, 
1554.00, 
1555.00, 
1556.00, 
1557.00, 
1558.00, 
1559.00, 
1560.00, 
1561.00, 
1562.00, 
1563.00, 
1564.00, 
1565.00, 
1566.00, 
1567.00, 
1568.00, 
1569.00, 
1570.00, 
1571.00, 
1572.00, 
1573.00, 
1574.00, 
1575.00, 
1576.00, 
1577.00, 
1578.00, 
1579.00, 
1580.00, 
1581.00, 
1582.00, 
1583.00, 
1584.00, 
1585.00, 
1586.00, 
1587.00, 
1588.00, 
1589.00, 
1590.00, 
1591.00, 
1592.00, 
1593.00, 
1594.00, 
1595.00, 
1596.00, 
1597.00, 
1598.00, 
1599.00, 
1600.00, 
1601.00, 
1602.00, 
1603.00, 
1604.00, 
1605.00, 
1606.00, 
1607.00, 
1608.00, 
1609.00, 
1610.00, 
1611.00, 
1612.00, 
1613.00, 
1614.00, 
1615.00, 
1616.00, 
1617.00, 
1618.00, 
1619.00, 
1620.00, 
1621.00, 
1622.00, 
1623.00, 
1624.00, 
1625.00, 
1626.00, 
1627.00, 
1628.00, 
1629.00, 
1630.00, 
1631.00, 
1632.00, 
1633.00, 
1634.00, 
1635.00, 
1636.00, 
1637.00, 
1638.00, 
1639.00, 
1640.00, 
1641.00, 
1642.00, 
1643.00, 
1644.00, 
1645.00, 
1646.00, 
1647.00, 
1648.00, 
1649.00, 
1650.00, 
1651.00, 
1652.00, 
1653.00, 
1654.00, 
1655.00, 
1656.00, 
1657.00, 
1658.00, 
1659.00, 
1660.00, 
1661.00, 
1662.00, 
1663.00, 
1664.00, 
1665.00, 
1666.00, 
1667.00, 
1668.00, 
1669.00, 
1670.00, 
1671.00, 
1672.00, 
1673.00, 
1674.00, 
1675.00, 
1676.00, 
1677.00, 
1678.00, 
1679.00, 
1680.00, 
1681.00, 
1682.00, 
1683.00, 
1684.00, 
1685.00, 
1686.00, 
1687.00, 
1688.00, 
1689.00, 
1690.00, 
1691.00, 
1692.00, 
1693.00, 
1694.00, 
1695.00, 
1696.00, 
1697.00, 
1698.00, 
1699.00, 
1700.00, 
1701.00, 
1702.00, 
1703.00, 
1704.00, 
1705.00, 
1706.00, 
1707.00, 
1708.00, 
1709.00, 
1710.00, 
1711.00, 
1712.00, 
1713.00, 
1714.00, 
1715.00, 
1716.00, 
1717.00, 
1718.00, 
1719.00, 
1720.00, 
1721.00, 
1722.00, 
1723.00, 
1724.00, 
1725.00, 
1726.00, 
1727.00, 
1728.00, 
1729.00, 
1730.00, 
1731.00, 
1732.00, 
1733.00, 
1734.00, 
1735.00, 
1736.00, 
1737.00, 
1738.00, 
1739.00, 
1740.00, 
1741.00, 
1742.00, 
1743.00, 
1744.00, 
1745.00, 
1746.00, 
1747.00, 
1748.00, 
1749.00, 
1750.00, 
1751.00, 
1752.00, 
1753.00, 
1754.00, 
1755.00, 
1756.00, 
1757.00, 
1758.00, 
1759.00, 
1760.00, 
1761.00, 
1762.00, 
1763.00, 
1764.00, 
1765.00, 
1766.00, 
1767.00, 
1768.00, 
1769.00, 
1770.00, 
1771.00, 
1772.00, 
1773.00, 
1774.00, 
1775.00, 
1776.00, 
1777.00, 
1778.00, 
1779.00, 
1780.00, 
1781.00, 
1782.00, 
1783.00, 
1784.00, 
1785.00, 
1786.00, 
1787.00, 
1788.00, 
1789.00, 
1790.00, 
1791.00, 
1792.00, 
1793.00, 
1794.00, 
1795.00, 
1796.00, 
1797.00, 
1798.00, 
1799.00, 
1800.00, 
1801.00, 
1802.00, 
1803.00, 
1804.00, 
1805.00, 
1806.00, 
1807.00, 
1808.00, 
1809.00, 
1810.00, 
1811.00, 
1812.00, 
1813.00, 
1814.00, 
1815.00, 
1816.00, 
1817.00, 
1818.00, 
1819.00, 
1820.00, 
1821.00, 
1822.00, 
1823.00, 
1824.00, 
1825.00, 
1826.00, 
1827.00, 
1828.00, 
1829.00, 
1830.00, 
1831.00, 
1832.00, 
1833.00, 
1834.00, 
1835.00, 
1836.00, 
1837.00, 
1838.00, 
1839.00, 
1840.00, 
1841.00, 
1842.00, 
1843.00, 
1844.00, 
1845.00, 
1846.00, 
1847.00, 
1848.00, 
1849.00, 
1850.00, 
1851.00, 
1852.00, 
1853.00, 
1854.00, 
1855.00, 
1856.00, 
1857.00, 
1858.00, 
1859.00, 
1860.00, 
1861.00, 
1862.00, 
1863.00, 
1864.00, 
1865.00, 
1866.00, 
1867.00, 
1868.00, 
1869.00, 
1870.00, 
1871.00, 
1872.00, 
1873.00, 
1874.00, 
1875.00, 
1876.00, 
1877.00, 
1878.00, 
1879.00, 
1880.00, 
1881.00, 
1882.00, 
1883.00, 
1884.00, 
1885.00, 
1886.00, 
1887.00, 
1888.00, 
1889.00, 
1890.00, 
1891.00, 
1892.00, 
1893.00, 
1894.00, 
1895.00, 
1896.00, 
1897.00, 
1898.00, 
1899.00, 
1900.00, 
1901.00, 
1902.00, 
1903.00, 
1904.00, 
1905.00, 
1906.00, 
1907.00, 
1908.00, 
1909.00, 
1910.00, 
1911.00, 
1912.00, 
1913.00, 
1914.00, 
1915.00, 
1916.00, 
1917.00, 
1918.00, 
1919.00, 
1920.00, 
1921.00, 
1922.00, 
1923.00, 
1924.00, 
1925.00, 
1926.00, 
1927.00, 
1928.00, 
1929.00, 
1930.00, 
1931.00, 
1932.00, 
1933.00, 
1934.00, 
1935.00, 
1936.00, 
1937.00, 
1938.00, 
1939.00, 
1940.00, 
1941.00, 
1942.00, 
1943.00, 
1944.00, 
1945.00, 
1946.00, 
1947.00, 
1948.00, 
1949.00, 
1950.00, 
1951.00, 
1952.00, 
1953.00, 
1954.00, 
1955.00, 
1956.00, 
1957.00, 
1958.00, 
1959.00, 
1960.00, 
1961.00, 
1962.00, 
1963.00, 
1964.00, 
1965.00, 
1966.00, 
1967.00, 
1968.00, 
1969.00, 
1970.00, 
1971.00, 
1972.00, 
1973.00, 
1974.00, 
1975.00, 
1976.00, 
1977.00, 
1978.00, 
1979.00, 
1980.00, 
1981.00, 
1982.00, 
1983.00, 
1984.00, 
1985.00, 
1986.00, 
1987.00, 
1988.00, 
1989.00, 
1990.00, 
1991.00, 
1992.00, 
1993.00, 
1994.00, 
1995.00, 
1996.00, 
1997.00, 
1998.00, 
1999.00, 
2000.00, 
2001.00, 
2002.00, 
2003.00, 
2004.00, 
2005.00, 
2006.00, 
2007.00, 
2008.00, 
2009.00, 
2010.00, 
2011.00, 
2012.00, 
2013.00, 
2014.00, 
2015.00, 
2016.00, 
2017.00, 
2018.00, 
2019.00, 
2020.00, 
2021.00, 
2022.00, 
2023.00, 
2024.00, 
2025.00, 
2026.00, 
2027.00, 
2028.00, 
2029.00, 
2030.00, 
2031.00, 
2032.00, 
2033.00, 
2034.00, 
2035.00, 
2036.00, 
2037.00, 
2038.00, 
2039.00, 
2040.00, 
2041.00, 
2042.00, 
2043.00, 
2044.00, 
2045.00, 
2046.00, 
2047.00, 
2048.00, 
2049.00, 
2050.00, 
2051.00, 
2052.00, 
2053.00, 
2054.00, 
2055.00, 
2056.00, 
2057.00, 
2058.00, 
2059.00, 
2060.00, 
2061.00, 
2062.00, 
2063.00, 
2064.00, 
2065.00, 
2066.00, 
2067.00, 
2068.00, 
2069.00, 
2070.00, 
2071.00, 
2072.00, 
2073.00, 
2074.00, 
2075.00, 
2076.00, 
2077.00, 
2078.00, 
2079.00, 
2080.00, 
2081.00, 
2082.00, 
2083.00, 
2084.00, 
2085.00, 
2086.00, 
2087.00, 
2088.00, 
2089.00, 
2090.00, 
2091.00, 
2092.00, 
2093.00, 
2094.00, 
2095.00, 
2096.00, 
2097.00, 
2098.00, 
2099.00, 
2100.00, 
2101.00, 
2102.00, 
2103.00, 
2104.00, 
2105.00, 
2106.00, 
2107.00, 
2108.00, 
2109.00, 
2110.00, 
2111.00, 
2112.00, 
2113.00, 
2114.00, 
2115.00, 
2116.00, 
2117.00, 
2118.00, 
2119.00, 
2120.00, 
2121.00, 
2122.00, 
2123.00, 
2124.00, 
2125.00, 
2126.00, 
2127.00, 
2128.00, 
2129.00, 
2130.00, 
2131.00, 
2132.00, 
2133.00, 
2134.00, 
2135.00, 
2136.00, 
2137.00, 
2138.00, 
2139.00, 
2140.00, 
2141.00, 
2142.00, 
2143.00, 
2144.00, 
2145.00, 
2146.00, 
2147.00, 
2148.00, 
2149.00, 
2150.00, 
2151.00, 
2152.00, 
2153.00, 
2154.00, 
2155.00, 
2156.00, 
2157.00, 
2158.00, 
2159.00, 
2160.00, 
2161.00, 
2162.00, 
2163.00, 
2164.00, 
2165.00, 
2166.00, 
2167.00, 
2168.00, 
2169.00, 
2170.00, 
2171.00, 
2172.00, 
2173.00, 
2174.00, 
2175.00, 
2176.00, 
2177.00, 
2178.00, 
2179.00, 
2180.00, 
2181.00, 
2182.00, 
2183.00, 
2184.00, 
2185.00, 
2186.00, 
2187.00, 
2188.00, 
2189.00, 
2190.00, 
2191.00, 
2192.00, 
2193.00, 
2194.00, 
2195.00, 
2196.00, 
2197.00, 
2198.00, 
2199.00, 
2200.00, 
2201.00, 
2202.00, 
2203.00, 
2204.00, 
2205.00, 
2206.00, 
2207.00, 
2208.00, 
2209.00, 
2210.00, 
2211.00, 
2212.00, 
2213.00, 
2214.00, 
2215.00, 
2216.00, 
2217.00, 
2218.00, 
2219.00, 
2220.00, 
2221.00, 
2222.00, 
2223.00, 
2224.00, 
2225.00, 
2226.00, 
2227.00, 
2228.00, 
2229.00, 
2230.00, 
2231.00, 
2232.00, 
2233.00, 
2234.00, 
2235.00, 
2236.00, 
2237.00, 
2238.00, 
2239.00, 
2240.00, 
2241.00, 
2242.00, 
2243.00, 
2244.00, 
2245.00, 
2246.00, 
2247.00, 
2248.00, 
2249.00, 
2250.00, 
2251.00, 
2252.00, 
2253.00, 
2254.00, 
2255.00, 
2256.00, 
2257.00, 
2258.00, 
2259.00, 
2260.00, 
2261.00, 
2262.00, 
2263.00, 
2264.00, 
2265.00, 
2266.00, 
2267.00, 
2268.00, 
2269.00, 
2270.00, 
2271.00, 
2272.00, 
2273.00, 
2274.00, 
2275.00, 
2276.00, 
2277.00, 
2278.00, 
2279.00, 
2280.00, 
2281.00, 
2282.00, 
2283.00, 
2284.00, 
2285.00, 
2286.00, 
2287.00, 
2288.00, 
2289.00, 
2290.00, 
2291.00, 
2292.00, 
2293.00, 
2294.00, 
2295.00, 
2296.00, 
2297.00, 
2298.00, 
2299.00, 
2300.00, 
2301.00, 
2302.00, 
2303.00, 
2304.00, 
2305.00, 
2306.00, 
2307.00, 
2308.00, 
2309.00, 
2310.00, 
2311.00, 
2312.00, 
2313.00, 
2314.00, 
2315.00, 
2316.00, 
2317.00, 
2318.00, 
2319.00, 
2320.00, 
2321.00, 
2322.00, 
2323.00, 
2324.00, 
2325.00, 
2326.00, 
2327.00, 
2328.00, 
2329.00, 
2330.00, 
2331.00, 
2332.00, 
2333.00, 
2334.00, 
2335.00, 
2336.00, 
2337.00, 
2338.00, 
2339.00, 
2340.00, 
2341.00, 
2342.00, 
2343.00, 
2344.00, 
2345.00, 
2346.00, 
2347.00, 
2348.00, 
2349.00, 
2350.00, 
2351.00, 
2352.00, 
2353.00, 
2354.00, 
2355.00, 
2356.00, 
2357.00, 
2358.00, 
2359.00, 
2360.00, 
2361.00, 
2362.00, 
2363.00, 
2364.00, 
2365.00, 
2366.00, 
2367.00, 
2368.00, 
2369.00, 
2370.00, 
2371.00, 
2372.00, 
2373.00, 
2374.00, 
2375.00, 
2376.00, 
2377.00, 
2378.00, 
2379.00, 
2380.00, 
2381.00, 
2382.00, 
2383.00, 
2384.00, 
2385.00, 
2386.00, 
2387.00, 
2388.00, 
2389.00, 
2390.00, 
2391.00, 
2392.00, 
2393.00, 
2394.00, 
2395.00, 
2396.00, 
2397.00, 
2398.00, 
2399.00, 
2400.00, 
2401.00, 
2402.00, 
2403.00, 
2404.00, 
2405.00, 
2406.00, 
2407.00, 
2408.00, 
2409.00, 
2410.00, 
2411.00, 
2412.00, 
2413.00, 
2414.00, 
2415.00, 
2416.00, 
2417.00, 
2418.00, 
2419.00, 
2420.00, 
2421.00, 
2422.00, 
2423.00, 
2424.00, 
2425.00, 
2426.00, 
2427.00, 
2428.00, 
2429.00, 
2430.00, 
2431.00, 
2432.00, 
2433.00, 
2434.00, 
2435.00, 
2436.00, 
2437.00, 
2438.00, 
2439.00, 
2440.00, 
2441.00, 
2442.00, 
2443.00, 
2444.00, 
2445.00, 
2446.00, 
2447.00, 
2448.00, 
2449.00, 
2450.00, 
2451.00, 
2452.00, 
2453.00, 
2454.00, 
2455.00, 
2456.00, 
2457.00, 
2458.00, 
2459.00, 
2460.00, 
2461.00, 
2462.00, 
2463.00, 
2464.00, 
2465.00, 
2466.00, 
2467.00, 
2468.00, 
2469.00, 
2470.00, 
2471.00, 
2472.00, 
2473.00, 
2474.00, 
2475.00, 
2476.00, 
2477.00, 
2478.00, 
2479.00, 
2480.00, 
2481.00, 
2482.00, 
2483.00, 
2484.00, 
2485.00, 
2486.00, 
2487.00, 
2488.00, 
2489.00, 
2490.00, 
2491.00, 
2492.00, 
2493.00, 
2494.00, 
2495.00, 
2496.00, 
2497.00, 
2498.00, 
2499.00, 
2500.00, 
2501.00, 
2502.00, 
2503.00, 
2504.00, 
2505.00, 
2506.00, 
2507.00, 
2508.00, 
2509.00, 
2510.00, 
2511.00, 
2512.00, 
2513.00, 
2514.00, 
2515.00, 
2516.00, 
2517.00, 
2518.00, 
2519.00, 
2520.00, 
2521.00, 
2522.00, 
2523.00, 
2524.00, 
2525.00, 
2526.00, 
2527.00, 
2528.00, 
2529.00, 
2530.00, 
2531.00, 
2532.00, 
2533.00, 
2534.00, 
2535.00, 
2536.00, 
2537.00, 
2538.00, 
2539.00, 
2540.00, 
2541.00, 
2542.00, 
2543.00, 
2544.00, 
2545.00, 
2546.00, 
2547.00, 
2548.00, 
2549.00, 
2550.00, 
2551.00, 
2552.00, 
2553.00, 
2554.00, 
2555.00, 
2556.00, 
2557.00, 
2558.00, 
2559.00, 
2560.00, 
2561.00, 
2562.00, 
2563.00, 
2564.00, 
2565.00, 
2566.00, 
2567.00, 
2568.00, 
2569.00, 
2570.00, 
2571.00, 
2572.00, 
2573.00, 
2574.00, 
2575.00, 
2576.00, 
2577.00, 
2578.00, 
2579.00, 
2580.00, 
2581.00, 
2582.00, 
2583.00, 
2584.00, 
2585.00, 
2586.00, 
2587.00, 
2588.00, 
2589.00, 
2590.00, 
2591.00, 
2592.00, 
2593.00, 
2594.00, 
2595.00, 
2596.00, 
2597.00, 
2598.00, 
2599.00, 
2600.00, 
