"1cP1 - RawData"
"Wavelength nm.","T%"
200.00,0.002
201.00,0.002
202.00,0.001
203.00,0.002
204.00,0.002
205.00,0.002
206.00,0.001
207.00,0.002
208.00,0.001
209.00,0.003
210.00,0.002
211.00,0.001
212.00,0.001
213.00,0.000
214.00,-0.001
215.00,0.002
216.00,0.001
217.00,0.004
218.00,0.002
219.00,0.000
220.00,0.002
221.00,-0.001
222.00,0.000
223.00,0.001
224.00,0.002
225.00,0.001
226.00,0.001
227.00,0.001
228.00,0.001
229.00,-0.001
230.00,-0.000
231.00,0.001
232.00,0.001
233.00,0.001
234.00,-0.000
235.00,-0.001
236.00,-0.000
237.00,-0.000
238.00,0.001
239.00,-0.002
240.00,0.001
241.00,0.001
242.00,0.000
243.00,0.002
244.00,0.002
245.00,0.001
246.00,0.001
247.00,-0.001
248.00,0.000
249.00,-0.001
250.00,0.000
251.00,0.000
252.00,0.001
253.00,0.000
254.00,-0.000
255.00,0.002
256.00,0.001
257.00,0.000
258.00,0.001
259.00,-0.001
260.00,-0.002
261.00,0.001
262.00,0.001
263.00,-0.000
264.00,-0.000
265.00,0.001
266.00,-0.000
267.00,0.001
268.00,0.001
269.00,0.000
270.00,0.001
271.00,0.000
272.00,-0.001
273.00,-0.001
274.00,0.001
275.00,0.002
276.00,0.001
277.00,-0.000
278.00,-0.000
279.00,-0.001
280.00,-0.000
281.00,0.000
282.00,0.001
283.00,0.002
284.00,0.001
285.00,-0.001
286.00,-0.002
287.00,0.000
288.00,0.000
289.00,-0.001
290.00,0.000
291.00,0.001
292.00,-0.000
293.00,-0.000
294.00,0.000
295.00,0.000
296.00,0.001
297.00,-0.000
298.00,-0.000
299.00,-0.000
300.00,-0.000
301.00,-0.002
302.00,0.000
303.00,0.002
304.00,0.001
305.00,0.000
306.00,0.002
307.00,0.004
308.00,0.005
309.00,0.012
310.00,0.017
311.00,0.023
312.00,0.044
313.00,0.064
314.00,0.100
315.00,0.150
316.00,0.213
317.00,0.309
318.00,0.417
319.00,0.557
320.00,0.745
321.00,0.961
322.00,1.233
323.00,1.590
324.00,1.886
325.00,2.340
326.00,2.767
327.00,3.302
328.00,3.866
329.00,4.436
330.00,5.081
331.00,5.757
332.00,6.488
333.00,7.264
334.00,8.020
335.00,8.791
336.00,9.620
337.00,10.461
338.00,11.288
339.00,11.923
340.00,12.818
341.00,13.622
342.00,14.355
343.00,15.045
344.00,15.769
345.00,16.483
346.00,17.119
347.00,17.734
348.00,18.291
349.00,18.838
350.00,19.372
351.00,19.853
352.00,20.291
353.00,20.703
354.00,21.136
355.00,21.538
356.00,21.918
357.00,22.230
358.00,22.538
359.00,22.861
360.00,23.180
361.00,23.357
362.00,23.618
363.00,23.855
364.00,23.982
365.00,24.159
366.00,24.320
367.00,24.425
368.00,24.502
369.00,24.538
370.00,24.679
371.00,24.725
372.00,24.687
373.00,24.706
374.00,24.683
375.00,24.722
376.00,24.593
377.00,24.510
378.00,24.395
379.00,24.324
380.00,24.311
381.00,24.334
382.00,24.325
383.00,24.387
384.00,24.456
385.00,24.520
386.00,24.535
387.00,24.686
388.00,24.793
389.00,24.818
390.00,24.909
391.00,24.967
392.00,25.029
393.00,25.060
394.00,25.106
395.00,25.158
396.00,25.141
397.00,25.167
398.00,25.225
399.00,25.211
400.00,25.216
401.00,25.220
402.00,25.243
403.00,25.168
404.00,25.195
405.00,25.213
406.00,25.204
407.00,25.141
408.00,25.136
409.00,25.066
410.00,25.014
411.00,25.023
412.00,24.931
413.00,24.962
414.00,24.949
415.00,24.922
416.00,25.003
417.00,25.017
418.00,24.983
419.00,25.040
420.00,25.070
421.00,25.106
422.00,25.126
423.00,25.175
424.00,25.206
425.00,25.246
426.00,25.244
427.00,25.308
428.00,25.310
429.00,25.335
430.00,25.443
431.00,25.470
432.00,25.447
433.00,25.541
434.00,25.517
435.00,25.654
436.00,25.699
437.00,25.778
438.00,25.829
439.00,25.888
440.00,25.963
441.00,26.014
442.00,26.079
443.00,26.156
444.00,26.258
445.00,26.343
446.00,26.438
447.00,26.533
448.00,26.611
449.00,26.658
450.00,26.822
451.00,26.913
452.00,26.971
453.00,27.125
454.00,27.186
455.00,27.289
456.00,27.432
457.00,27.541
458.00,27.616
459.00,27.759
460.00,27.865
461.00,27.988
462.00,28.088
463.00,28.222
464.00,28.361
465.00,28.447
466.00,28.600
467.00,28.727
468.00,28.785
469.00,28.885
470.00,28.984
471.00,29.053
472.00,29.166
473.00,29.273
474.00,29.364
475.00,29.506
476.00,29.585
477.00,29.693
478.00,29.817
479.00,30.001
480.00,30.134
481.00,30.202
482.00,30.374
483.00,30.481
484.00,30.666
485.00,30.810
486.00,30.944
487.00,31.115
488.00,31.203
489.00,31.368
490.00,31.483
491.00,31.597
492.00,31.817
493.00,31.965
494.00,31.957
495.00,32.106
496.00,32.228
497.00,32.321
498.00,32.479
499.00,32.598
500.00,32.704
501.00,32.834
502.00,32.965
503.00,33.070
504.00,33.046
505.00,33.259
506.00,33.363
507.00,33.429
508.00,33.583
509.00,33.726
510.00,33.838
511.00,33.956
512.00,34.091
513.00,34.237
514.00,34.334
515.00,34.467
516.00,34.559
517.00,34.637
518.00,34.761
519.00,34.806
520.00,34.839
521.00,34.982
522.00,35.064
523.00,35.056
524.00,35.198
525.00,35.306
526.00,35.387
527.00,35.449
528.00,35.516
529.00,35.705
530.00,35.845
531.00,35.977
532.00,36.002
533.00,36.096
534.00,36.246
535.00,36.269
536.00,36.409
537.00,36.513
538.00,36.630
539.00,36.555
540.00,36.711
541.00,36.690
542.00,36.728
543.00,36.818
544.00,36.929
545.00,36.976
546.00,36.977
547.00,37.143
548.00,37.221
549.00,37.223
550.00,37.360
551.00,37.489
552.00,37.455
553.00,37.508
554.00,37.649
555.00,37.628
556.00,37.727
557.00,37.794
558.00,37.848
559.00,37.949
560.00,37.971
561.00,38.093
562.00,38.108
563.00,38.137
564.00,38.199
565.00,38.217
566.00,38.252
567.00,38.313
568.00,38.348
569.00,38.368
570.00,38.396
571.00,38.477
572.00,38.456
573.00,38.476
574.00,38.525
575.00,38.539
576.00,38.533
577.00,38.613
578.00,38.677
579.00,38.740
580.00,38.792
581.00,38.929
582.00,38.938
583.00,38.978
584.00,39.092
585.00,39.082
586.00,39.198
587.00,39.294
588.00,39.295
589.00,39.258
590.00,39.288
591.00,39.333
592.00,39.301
593.00,39.397
594.00,39.542
595.00,39.538
596.00,39.522
597.00,39.605
598.00,39.698
599.00,39.698
600.00,39.728
601.00,39.803
602.00,39.823
603.00,39.870
604.00,39.848
605.00,39.965
606.00,39.907
607.00,39.839
608.00,40.124
609.00,40.109
610.00,39.880
611.00,40.282
612.00,40.381
613.00,40.235
614.00,40.374
615.00,40.411
616.00,40.475
617.00,40.478
618.00,40.477
619.00,40.575
620.00,40.478
621.00,40.652
622.00,40.688
623.00,40.738
624.00,40.782
625.00,40.856
626.00,40.873
627.00,40.970
628.00,40.965
629.00,40.941
630.00,41.029
631.00,41.092
632.00,41.142
633.00,41.219
634.00,41.290
635.00,41.399
636.00,41.470
637.00,41.516
638.00,41.542
639.00,41.635
640.00,41.599
641.00,41.660
642.00,41.768
643.00,41.781
644.00,41.900
645.00,41.911
646.00,42.075
647.00,42.114
648.00,42.105
649.00,42.070
650.00,42.183
651.00,42.283
652.00,42.365
653.00,42.319
654.00,42.416
655.00,42.583
656.00,42.830
657.00,42.726
658.00,42.870
659.00,42.926
660.00,42.955
661.00,42.987
662.00,43.015
663.00,43.099
664.00,43.326
665.00,43.477
666.00,43.313
667.00,43.367
668.00,43.338
669.00,43.623
670.00,43.823
671.00,43.787
672.00,43.842
673.00,43.790
674.00,43.811
675.00,44.018
676.00,44.290
677.00,44.360
678.00,44.135
679.00,44.267
680.00,44.426
681.00,44.495
682.00,44.619
683.00,44.554
684.00,44.770
685.00,44.783
686.00,44.650
687.00,44.769
688.00,44.896
689.00,44.891
690.00,45.113
691.00,45.320
692.00,45.033
693.00,44.988
694.00,45.189
695.00,45.296
696.00,45.259
697.00,45.135
698.00,45.617
699.00,46.068
700.00,45.804
701.00,45.696
702.00,45.880
703.00,46.087
704.00,46.115
705.00,45.963
706.00,46.074
707.00,45.990
708.00,46.089
709.00,46.617
710.00,46.310
711.00,46.295
712.00,46.374
713.00,46.436
714.00,46.609
715.00,46.606
716.00,46.481
717.00,46.573
718.00,46.772
719.00,46.728
720.00,46.836
721.00,51.532
722.00,51.462
723.00,51.415
724.00,51.500
725.00,51.407
726.00,51.467
727.00,51.493
728.00,51.422
729.00,51.507
730.00,51.552
731.00,51.543
732.00,51.497
733.00,51.548
734.00,51.555
735.00,51.576
736.00,51.626
737.00,51.718
738.00,51.677
739.00,51.665
740.00,51.619
741.00,51.735
742.00,51.752
743.00,51.695
744.00,51.599
745.00,51.697
746.00,51.646
747.00,51.618
748.00,51.618
749.00,51.611
750.00,51.663
751.00,51.655
752.00,51.622
753.00,51.542
754.00,51.617
755.00,51.541
756.00,51.556
757.00,51.554
758.00,51.572
759.00,51.529
760.00,51.633
761.00,51.573
762.00,51.582
763.00,51.624
764.00,51.685
765.00,51.542
766.00,51.603
767.00,51.684
768.00,51.664
769.00,51.549
770.00,51.624
771.00,51.590
772.00,51.603
773.00,51.551
774.00,51.593
775.00,51.638
776.00,51.549
777.00,51.541
778.00,51.602
779.00,51.675
780.00,51.523
781.00,51.571
782.00,51.539
783.00,51.533
784.00,51.608
785.00,51.492
786.00,51.533
787.00,51.533
788.00,51.470
789.00,51.488
790.00,51.440
791.00,51.481
792.00,51.344
793.00,51.380
794.00,51.398
795.00,51.387
796.00,51.342
797.00,51.365
798.00,51.404
799.00,51.291
800.00,51.292
801.00,51.244
802.00,51.275
803.00,51.199
804.00,51.097
805.00,51.219
806.00,51.084
807.00,51.119
808.00,51.199
809.00,51.059
810.00,51.050
811.00,51.120
812.00,51.061
813.00,50.957
814.00,51.047
815.00,50.947
816.00,51.020
817.00,50.972
818.00,50.864
819.00,50.906
820.00,50.906
821.00,50.870
822.00,50.846
823.00,50.834
824.00,50.827
825.00,50.749
826.00,50.758
827.00,50.801
828.00,50.812
829.00,50.722
830.00,50.736
831.00,53.052
832.00,52.953
833.00,52.899
834.00,52.985
835.00,52.895
836.00,52.910
837.00,52.853
838.00,52.842
839.00,52.851
840.00,52.786
841.00,52.805
842.00,52.776
843.00,52.750
844.00,52.759
845.00,52.722
846.00,52.664
847.00,52.627
848.00,52.808
849.00,52.612
850.00,52.549
851.00,52.514
852.00,52.540
853.00,52.480
854.00,52.429
855.00,52.365
856.00,52.386
857.00,52.381
858.00,52.312
859.00,52.314
860.00,52.328
861.00,52.284
862.00,52.204
863.00,52.311
864.00,52.181
865.00,52.216
866.00,52.160
867.00,52.175
868.00,52.185
869.00,52.134
870.00,52.146
871.00,52.128
872.00,52.124
873.00,52.117
874.00,52.106
875.00,52.058
876.00,52.085
877.00,52.064
878.00,52.028
879.00,52.075
880.00,51.905
881.00,51.981
882.00,52.004
883.00,51.966
884.00,51.933
885.00,51.950
886.00,51.919
887.00,51.883
888.00,51.853
889.00,51.841
890.00,51.840
891.00,51.767
892.00,51.760
893.00,51.711
894.00,51.782
895.00,51.552
896.00,51.686
897.00,51.661
898.00,51.620
899.00,51.641
900.00,51.610
901.00,51.606
902.00,51.590
903.00,51.553
904.00,51.544
905.00,51.514
906.00,51.513
907.00,51.475
908.00,51.454
909.00,51.436
910.00,51.400
911.00,51.422
912.00,51.414
913.00,51.379
914.00,51.351
915.00,51.345
916.00,51.306
917.00,51.295
918.00,51.272
919.00,51.227
920.00,51.226
921.00,51.212
922.00,51.195
923.00,51.167
924.00,51.127
925.00,51.131
926.00,51.130
927.00,51.095
928.00,51.089
929.00,51.075
930.00,51.034
931.00,51.049
932.00,50.974
933.00,50.996
934.00,50.969
935.00,50.946
936.00,50.913
937.00,50.918
938.00,50.881
939.00,50.899
940.00,50.865
941.00,50.824
942.00,50.816
943.00,50.803
944.00,50.760
945.00,50.769
946.00,50.741
947.00,50.697
948.00,50.713
949.00,50.671
950.00,50.661
951.00,50.642
952.00,50.614
953.00,50.592
954.00,50.561
955.00,50.533
956.00,50.518
957.00,50.453
958.00,50.465
959.00,50.419
960.00,50.406
961.00,50.398
962.00,50.410
963.00,50.350
964.00,50.360
965.00,50.343
966.00,50.331
967.00,50.321
968.00,50.296
969.00,50.321
970.00,50.307
971.00,50.312
972.00,50.285
973.00,50.317
974.00,50.305
975.00,50.291
976.00,50.300
977.00,50.292
978.00,50.334
979.00,50.339
980.00,50.306
981.00,50.294
982.00,50.276
983.00,50.284
984.00,50.270
985.00,50.296
986.00,50.263
987.00,50.268
988.00,50.235
989.00,50.240
990.00,50.222
991.00,50.207
992.00,50.241
993.00,50.190
994.00,50.185
995.00,50.178
996.00,50.170
997.00,50.151
998.00,50.113
999.00,50.143
1000.00,50.116
1001.00,50.097
1002.00,50.080
1003.00,50.087
1004.00,50.047
1005.00,50.017
1006.00,50.057
1007.00,50.029
1008.00,49.981
1009.00,49.970
1010.00,50.006
1011.00,49.977
1012.00,49.948
1013.00,49.968
1014.00,49.929
1015.00,49.929
1016.00,49.878
1017.00,49.864
1018.00,49.846
1019.00,49.830
1020.00,49.821
1021.00,49.797
1022.00,49.799
1023.00,49.758
1024.00,49.762
1025.00,49.741
1026.00,49.744
1027.00,49.733
1028.00,49.733
1029.00,49.708
1030.00,49.680
1031.00,49.676
1032.00,49.633
1033.00,49.646
1034.00,49.622
1035.00,49.583
1036.00,49.562
1037.00,49.538
1038.00,49.522
1039.00,49.496
1040.00,49.494
1041.00,49.470
1042.00,49.468
1043.00,49.446
1044.00,49.491
1045.00,49.456
1046.00,49.434
1047.00,49.472
1048.00,49.471
1049.00,49.488
1050.00,49.491
1051.00,49.521
1052.00,49.521
1053.00,49.527
1054.00,49.528
1055.00,49.545
1056.00,49.523
1057.00,49.559
1058.00,49.541
1059.00,49.532
1060.00,49.554
1061.00,49.536
1062.00,49.514
1063.00,49.525
1064.00,49.518
1065.00,49.496
1066.00,49.480
1067.00,49.473
1068.00,49.484
1069.00,49.453
1070.00,49.451
1071.00,49.480
1072.00,49.447
1073.00,49.409
1074.00,49.419
1075.00,49.409
1076.00,49.414
1077.00,49.402
1078.00,49.379
1079.00,49.392
1080.00,49.401
1081.00,49.370
1082.00,49.373
1083.00,49.362
1084.00,49.351
1085.00,49.356
1086.00,49.329
1087.00,49.330
1088.00,49.319
1089.00,49.312
1090.00,49.307
1091.00,49.322
1092.00,49.308
1093.00,49.295
1094.00,49.274
1095.00,49.257
1096.00,49.247
1097.00,49.234
1098.00,49.236
1099.00,49.249
1100.00,49.222
1101.00,49.209
1102.00,49.211
1103.00,49.210
1104.00,49.198
1105.00,49.179
1106.00,49.163
1107.00,49.163
1108.00,49.142
1109.00,49.143
1110.00,49.145
1111.00,49.125
1112.00,49.111
1113.00,49.120
1114.00,49.098
1115.00,49.116
1116.00,49.118
1117.00,49.088
1118.00,49.091
1119.00,49.085
1120.00,49.076
1121.00,49.082
1122.00,49.057
1123.00,49.045
1124.00,49.046
1125.00,49.038
1126.00,49.032
1127.00,49.024
1128.00,49.007
1129.00,48.988
1130.00,48.969
1131.00,49.001
1132.00,48.961
1133.00,48.982
1134.00,48.958
1135.00,48.950
1136.00,48.954
1137.00,48.968
1138.00,48.959
1139.00,48.963
1140.00,48.955
1141.00,48.944
1142.00,48.948
1143.00,48.977
1144.00,48.943
1145.00,48.941
1146.00,48.918
1147.00,48.902
1148.00,48.916
1149.00,48.936
1150.00,48.920
1151.00,48.932
1152.00,48.905
1153.00,48.900
1154.00,48.910
1155.00,48.905
1156.00,48.893
1157.00,48.909
1158.00,48.889
1159.00,48.870
1160.00,48.866
1161.00,48.883
1162.00,48.892
1163.00,48.875
1164.00,48.888
1165.00,48.895
1166.00,48.894
1167.00,48.880
1168.00,48.911
1169.00,48.886
1170.00,48.888
1171.00,48.875
1172.00,48.878
1173.00,48.870
1174.00,48.880
1175.00,48.875
1176.00,48.883
1177.00,48.872
1178.00,48.865
1179.00,48.883
1180.00,48.858
1181.00,48.882
1182.00,48.877
1183.00,48.866
1184.00,48.861
1185.00,48.865
1186.00,48.859
1187.00,48.863
1188.00,48.852
1189.00,48.851
1190.00,48.840
1191.00,48.835
1192.00,48.884
1193.00,48.882
1194.00,48.857
1195.00,48.833
1196.00,48.851
1197.00,48.851
1198.00,48.851
1199.00,48.853
1200.00,48.847
1201.00,48.876
1202.00,48.849
1203.00,48.852
1204.00,48.855
1205.00,48.859
1206.00,48.854
1207.00,48.863
1208.00,48.866
1209.00,48.887
1210.00,48.867
1211.00,48.862
1212.00,48.888
1213.00,48.832
1214.00,48.862
1215.00,48.842
1216.00,48.844
1217.00,48.853
1218.00,48.841
1219.00,48.871
1220.00,48.858
1221.00,48.864
1222.00,48.859
1223.00,48.893
1224.00,48.870
1225.00,48.865
1226.00,48.860
1227.00,48.850
1228.00,48.883
1229.00,48.868
1230.00,48.910
1231.00,48.907
1232.00,48.931
1233.00,48.936
1234.00,48.936
1235.00,48.929
1236.00,48.934
1237.00,48.947
1238.00,48.938
1239.00,48.948
1240.00,48.919
1241.00,48.937
1242.00,48.955
1243.00,48.958
1244.00,48.932
1245.00,48.970
1246.00,48.978
1247.00,48.967
1248.00,48.975
1249.00,48.990
1250.00,48.995
1251.00,49.004
1252.00,49.014
1253.00,49.020
1254.00,49.037
1255.00,48.996
1256.00,48.985
1257.00,48.968
1258.00,49.018
1259.00,49.001
1260.00,49.015
1261.00,49.026
1262.00,49.017
1263.00,49.024
1264.00,49.031
1265.00,49.045
1266.00,49.045
1267.00,49.064
1268.00,49.068
1269.00,49.060
1270.00,49.075
1271.00,49.074
1272.00,49.086
1273.00,49.104
1274.00,49.099
1275.00,49.118
1276.00,49.100
1277.00,49.110
1278.00,49.145
1279.00,49.139
1280.00,49.123
1281.00,49.140
1282.00,49.139
1283.00,49.142
1284.00,49.146
1285.00,49.141
1286.00,49.170
1287.00,49.157
1288.00,49.153
1289.00,49.150
1290.00,49.169
1291.00,49.177
1292.00,49.172
1293.00,49.172
1294.00,49.209
1295.00,49.212
1296.00,49.202
1297.00,49.233
1298.00,49.270
1299.00,49.235
1300.00,49.258
1301.00,49.242
1302.00,49.279
1303.00,49.275
1304.00,49.248
1305.00,49.285
1306.00,49.275
1307.00,49.270
1308.00,49.276
1309.00,49.283
1310.00,49.278
1311.00,49.292
1312.00,49.307
1313.00,49.325
1314.00,49.335
1315.00,49.341
1316.00,49.345
1317.00,49.364
1318.00,49.372
1319.00,49.383
1320.00,49.374
1321.00,49.583
1322.00,49.552
1323.00,49.513
1324.00,49.523
1325.00,49.527
1326.00,49.529
1327.00,49.533
1328.00,49.526
1329.00,49.512
1330.00,49.509
1331.00,49.509
1332.00,49.528
1333.00,49.529
1334.00,49.523
1335.00,49.602
1336.00,49.675
1337.00,49.614
1338.00,49.727
1339.00,49.776
1340.00,49.815
1341.00,49.869
1342.00,49.931
1343.00,50.005
1344.00,50.046
1345.00,50.086
1346.00,50.141
1347.00,50.165
1348.00,50.163
1349.00,50.219
1350.00,50.222
1351.00,50.255
1352.00,50.274
1353.00,50.279
1354.00,50.266
1355.00,50.207
1356.00,50.285
1357.00,50.296
1358.00,50.308
1359.00,50.279
1360.00,50.336
1361.00,50.333
1362.00,50.234
1363.00,50.297
1364.00,50.378
1365.00,50.316
1366.00,50.480
1367.00,50.439
1368.00,50.287
1369.00,50.322
1370.00,50.285
1371.00,50.272
1372.00,50.302
1373.00,50.295
1374.00,50.340
1375.00,50.313
1376.00,50.301
1377.00,50.300
1378.00,50.269
1379.00,50.307
1380.00,50.314
1381.00,50.259
1382.00,50.341
1383.00,50.343
1384.00,50.290
1385.00,50.304
1386.00,50.342
1387.00,50.275
1388.00,50.288
1389.00,50.324
1390.00,50.318
1391.00,50.287
1392.00,50.260
1393.00,50.269
1394.00,50.277
1395.00,50.238
1396.00,50.179
1397.00,50.368
1398.00,50.344
1399.00,50.273
1400.00,50.269
1401.00,50.287
1402.00,50.407
1403.00,50.315
1404.00,50.335
1405.00,50.374
1406.00,50.358
1407.00,50.177
1408.00,50.348
1409.00,50.354
1410.00,50.397
1411.00,50.374
1412.00,50.431
1413.00,50.324
1414.00,50.381
1415.00,50.425
1416.00,50.441
1417.00,50.457
1418.00,50.438
1419.00,50.442
1420.00,50.473
1421.00,50.549
1422.00,50.513
1423.00,50.522
1424.00,50.532
1425.00,50.530
1426.00,50.550
1427.00,50.577
1428.00,50.569
1429.00,50.607
1430.00,50.606
1431.00,50.641
1432.00,50.656
1433.00,50.654
1434.00,50.677
1435.00,50.730
1436.00,50.726
1437.00,50.735
1438.00,50.762
1439.00,50.786
1440.00,50.817
1441.00,50.817
1442.00,50.847
1443.00,50.879
1444.00,50.918
1445.00,50.872
1446.00,50.897
1447.00,50.922
1448.00,50.980
1449.00,50.977
1450.00,50.972
1451.00,50.996
1452.00,51.001
1453.00,51.006
1454.00,51.045
1455.00,51.048
1456.00,51.075
1457.00,51.073
1458.00,51.091
1459.00,51.122
1460.00,51.143
1461.00,51.152
1462.00,51.225
1463.00,51.166
1464.00,51.211
1465.00,51.223
1466.00,51.214
1467.00,51.263
1468.00,51.316
1469.00,51.254
1470.00,51.282
1471.00,51.308
1472.00,51.312
1473.00,51.339
1474.00,51.362
1475.00,51.396
1476.00,51.418
1477.00,51.371
1478.00,51.430
1479.00,51.447
1480.00,51.429
1481.00,51.447
1482.00,51.477
1483.00,51.483
1484.00,51.498
1485.00,51.483
1486.00,51.515
1487.00,51.539
1488.00,51.564
1489.00,51.584
1490.00,51.593
1491.00,51.586
1492.00,51.623
1493.00,51.608
1494.00,51.630
1495.00,51.630
1496.00,51.651
1497.00,51.663
1498.00,51.687
1499.00,51.687
1500.00,51.721
1501.00, 
1502.00, 
1503.00, 
1504.00, 
1505.00, 
1506.00, 
1507.00, 
1508.00, 
1509.00, 
1510.00, 
1511.00, 
1512.00, 
1513.00, 
1514.00, 
1515.00, 
1516.00, 
1517.00, 
1518.00, 
1519.00, 
1520.00, 
1521.00, 
1522.00, 
1523.00, 
1524.00, 
1525.00, 
1526.00, 
1527.00, 
1528.00, 
1529.00, 
1530.00, 
1531.00, 
1532.00, 
1533.00, 
1534.00, 
1535.00, 
1536.00, 
1537.00, 
1538.00, 
1539.00, 
1540.00, 
1541.00, 
1542.00, 
1543.00, 
1544.00, 
1545.00, 
1546.00, 
1547.00, 
1548.00, 
1549.00, 
1550.00, 
1551.00, 
1552.00, 
1553.00, 
1554.00, 
1555.00, 
1556.00, 
1557.00, 
1558.00, 
1559.00, 
1560.00, 
1561.00, 
1562.00, 
1563.00, 
1564.00, 
1565.00, 
1566.00, 
1567.00, 
1568.00, 
1569.00, 
1570.00, 
1571.00, 
1572.00, 
1573.00, 
1574.00, 
1575.00, 
1576.00, 
1577.00, 
1578.00, 
1579.00, 
1580.00, 
1581.00, 
1582.00, 
1583.00, 
1584.00, 
1585.00, 
1586.00, 
1587.00, 
1588.00, 
1589.00, 
1590.00, 
1591.00, 
1592.00, 
1593.00, 
1594.00, 
1595.00, 
1596.00, 
1597.00, 
1598.00, 
1599.00, 
1600.00, 
1601.00, 
1602.00, 
1603.00, 
1604.00, 
1605.00, 
1606.00, 
1607.00, 
1608.00, 
1609.00, 
1610.00, 
1611.00, 
1612.00, 
1613.00, 
1614.00, 
1615.00, 
1616.00, 
1617.00, 
1618.00, 
1619.00, 
1620.00, 
1621.00, 
1622.00, 
1623.00, 
1624.00, 
1625.00, 
1626.00, 
1627.00, 
1628.00, 
1629.00, 
1630.00, 
1631.00, 
1632.00, 
1633.00, 
1634.00, 
1635.00, 
1636.00, 
1637.00, 
1638.00, 
1639.00, 
1640.00, 
1641.00, 
1642.00, 
1643.00, 
1644.00, 
1645.00, 
1646.00, 
1647.00, 
1648.00, 
1649.00, 
1650.00, 
1651.00, 
1652.00, 
1653.00, 
1654.00, 
1655.00, 
1656.00, 
1657.00, 
1658.00, 
1659.00, 
1660.00, 
1661.00, 
1662.00, 
1663.00, 
1664.00, 
1665.00, 
1666.00, 
1667.00, 
1668.00, 
1669.00, 
1670.00, 
1671.00, 
1672.00, 
1673.00, 
1674.00, 
1675.00, 
1676.00, 
1677.00, 
1678.00, 
1679.00, 
1680.00, 
1681.00, 
1682.00, 
1683.00, 
1684.00, 
1685.00, 
1686.00, 
1687.00, 
1688.00, 
1689.00, 
1690.00, 
1691.00, 
1692.00, 
1693.00, 
1694.00, 
1695.00, 
1696.00, 
1697.00, 
1698.00, 
1699.00, 
1700.00, 
1701.00, 
1702.00, 
1703.00, 
1704.00, 
1705.00, 
1706.00, 
1707.00, 
1708.00, 
1709.00, 
1710.00, 
1711.00, 
1712.00, 
1713.00, 
1714.00, 
1715.00, 
1716.00, 
1717.00, 
1718.00, 
1719.00, 
1720.00, 
1721.00, 
1722.00, 
1723.00, 
1724.00, 
1725.00, 
1726.00, 
1727.00, 
1728.00, 
1729.00, 
1730.00, 
1731.00, 
1732.00, 
1733.00, 
1734.00, 
1735.00, 
1736.00, 
1737.00, 
1738.00, 
1739.00, 
1740.00, 
1741.00, 
1742.00, 
1743.00, 
1744.00, 
1745.00, 
1746.00, 
1747.00, 
1748.00, 
1749.00, 
1750.00, 
1751.00, 
1752.00, 
1753.00, 
1754.00, 
1755.00, 
1756.00, 
1757.00, 
1758.00, 
1759.00, 
1760.00, 
1761.00, 
1762.00, 
1763.00, 
1764.00, 
1765.00, 
1766.00, 
1767.00, 
1768.00, 
1769.00, 
1770.00, 
1771.00, 
1772.00, 
1773.00, 
1774.00, 
1775.00, 
1776.00, 
1777.00, 
1778.00, 
1779.00, 
1780.00, 
1781.00, 
1782.00, 
1783.00, 
1784.00, 
1785.00, 
1786.00, 
1787.00, 
1788.00, 
1789.00, 
1790.00, 
1791.00, 
1792.00, 
1793.00, 
1794.00, 
1795.00, 
1796.00, 
1797.00, 
1798.00, 
1799.00, 
1800.00, 
1801.00, 
1802.00, 
1803.00, 
1804.00, 
1805.00, 
1806.00, 
1807.00, 
1808.00, 
1809.00, 
1810.00, 
1811.00, 
1812.00, 
1813.00, 
1814.00, 
1815.00, 
1816.00, 
1817.00, 
1818.00, 
1819.00, 
1820.00, 
1821.00, 
1822.00, 
1823.00, 
1824.00, 
1825.00, 
1826.00, 
1827.00, 
1828.00, 
1829.00, 
1830.00, 
1831.00, 
1832.00, 
1833.00, 
1834.00, 
1835.00, 
1836.00, 
1837.00, 
1838.00, 
1839.00, 
1840.00, 
1841.00, 
1842.00, 
1843.00, 
1844.00, 
1845.00, 
1846.00, 
1847.00, 
1848.00, 
1849.00, 
1850.00, 
1851.00, 
1852.00, 
1853.00, 
1854.00, 
1855.00, 
1856.00, 
1857.00, 
1858.00, 
1859.00, 
1860.00, 
1861.00, 
1862.00, 
1863.00, 
1864.00, 
1865.00, 
1866.00, 
1867.00, 
1868.00, 
1869.00, 
1870.00, 
1871.00, 
1872.00, 
1873.00, 
1874.00, 
1875.00, 
1876.00, 
1877.00, 
1878.00, 
1879.00, 
1880.00, 
1881.00, 
1882.00, 
1883.00, 
1884.00, 
1885.00, 
1886.00, 
1887.00, 
1888.00, 
1889.00, 
1890.00, 
1891.00, 
1892.00, 
1893.00, 
1894.00, 
1895.00, 
1896.00, 
1897.00, 
1898.00, 
1899.00, 
1900.00, 
1901.00, 
1902.00, 
1903.00, 
1904.00, 
1905.00, 
1906.00, 
1907.00, 
1908.00, 
1909.00, 
1910.00, 
1911.00, 
1912.00, 
1913.00, 
1914.00, 
1915.00, 
1916.00, 
1917.00, 
1918.00, 
1919.00, 
1920.00, 
1921.00, 
1922.00, 
1923.00, 
1924.00, 
1925.00, 
1926.00, 
1927.00, 
1928.00, 
1929.00, 
1930.00, 
1931.00, 
1932.00, 
1933.00, 
1934.00, 
1935.00, 
1936.00, 
1937.00, 
1938.00, 
1939.00, 
1940.00, 
1941.00, 
1942.00, 
1943.00, 
1944.00, 
1945.00, 
1946.00, 
1947.00, 
1948.00, 
1949.00, 
1950.00, 
1951.00, 
1952.00, 
1953.00, 
1954.00, 
1955.00, 
1956.00, 
1957.00, 
1958.00, 
1959.00, 
1960.00, 
1961.00, 
1962.00, 
1963.00, 
1964.00, 
1965.00, 
1966.00, 
1967.00, 
1968.00, 
1969.00, 
1970.00, 
1971.00, 
1972.00, 
1973.00, 
1974.00, 
1975.00, 
1976.00, 
1977.00, 
1978.00, 
1979.00, 
1980.00, 
1981.00, 
1982.00, 
1983.00, 
1984.00, 
1985.00, 
1986.00, 
1987.00, 
1988.00, 
1989.00, 
1990.00, 
1991.00, 
1992.00, 
1993.00, 
1994.00, 
1995.00, 
1996.00, 
1997.00, 
1998.00, 
1999.00, 
2000.00, 
2001.00, 
2002.00, 
2003.00, 
2004.00, 
2005.00, 
2006.00, 
2007.00, 
2008.00, 
2009.00, 
2010.00, 
2011.00, 
2012.00, 
2013.00, 
2014.00, 
2015.00, 
2016.00, 
2017.00, 
2018.00, 
2019.00, 
2020.00, 
2021.00, 
2022.00, 
2023.00, 
2024.00, 
2025.00, 
2026.00, 
2027.00, 
2028.00, 
2029.00, 
2030.00, 
2031.00, 
2032.00, 
2033.00, 
2034.00, 
2035.00, 
2036.00, 
2037.00, 
2038.00, 
2039.00, 
2040.00, 
2041.00, 
2042.00, 
2043.00, 
2044.00, 
2045.00, 
2046.00, 
2047.00, 
2048.00, 
2049.00, 
2050.00, 
2051.00, 
2052.00, 
2053.00, 
2054.00, 
2055.00, 
2056.00, 
2057.00, 
2058.00, 
2059.00, 
2060.00, 
2061.00, 
2062.00, 
2063.00, 
2064.00, 
2065.00, 
2066.00, 
2067.00, 
2068.00, 
2069.00, 
2070.00, 
2071.00, 
2072.00, 
2073.00, 
2074.00, 
2075.00, 
2076.00, 
2077.00, 
2078.00, 
2079.00, 
2080.00, 
2081.00, 
2082.00, 
2083.00, 
2084.00, 
2085.00, 
2086.00, 
2087.00, 
2088.00, 
2089.00, 
2090.00, 
2091.00, 
2092.00, 
2093.00, 
2094.00, 
2095.00, 
2096.00, 
2097.00, 
2098.00, 
2099.00, 
2100.00, 
2101.00, 
2102.00, 
2103.00, 
2104.00, 
2105.00, 
2106.00, 
2107.00, 
2108.00, 
2109.00, 
2110.00, 
2111.00, 
2112.00, 
2113.00, 
2114.00, 
2115.00, 
2116.00, 
2117.00, 
2118.00, 
2119.00, 
2120.00, 
2121.00, 
2122.00, 
2123.00, 
2124.00, 
2125.00, 
2126.00, 
2127.00, 
2128.00, 
2129.00, 
2130.00, 
2131.00, 
2132.00, 
2133.00, 
2134.00, 
2135.00, 
2136.00, 
2137.00, 
2138.00, 
2139.00, 
2140.00, 
2141.00, 
2142.00, 
2143.00, 
2144.00, 
2145.00, 
2146.00, 
2147.00, 
2148.00, 
2149.00, 
2150.00, 
2151.00, 
2152.00, 
2153.00, 
2154.00, 
2155.00, 
2156.00, 
2157.00, 
2158.00, 
2159.00, 
2160.00, 
2161.00, 
2162.00, 
2163.00, 
2164.00, 
2165.00, 
2166.00, 
2167.00, 
2168.00, 
2169.00, 
2170.00, 
2171.00, 
2172.00, 
2173.00, 
2174.00, 
2175.00, 
2176.00, 
2177.00, 
2178.00, 
2179.00, 
2180.00, 
2181.00, 
2182.00, 
2183.00, 
2184.00, 
2185.00, 
2186.00, 
2187.00, 
2188.00, 
2189.00, 
2190.00, 
2191.00, 
2192.00, 
2193.00, 
2194.00, 
2195.00, 
2196.00, 
2197.00, 
2198.00, 
2199.00, 
2200.00, 
2201.00, 
2202.00, 
2203.00, 
2204.00, 
2205.00, 
2206.00, 
2207.00, 
2208.00, 
2209.00, 
2210.00, 
2211.00, 
2212.00, 
2213.00, 
2214.00, 
2215.00, 
2216.00, 
2217.00, 
2218.00, 
2219.00, 
2220.00, 
2221.00, 
2222.00, 
2223.00, 
2224.00, 
2225.00, 
2226.00, 
2227.00, 
2228.00, 
2229.00, 
2230.00, 
2231.00, 
2232.00, 
2233.00, 
2234.00, 
2235.00, 
2236.00, 
2237.00, 
2238.00, 
2239.00, 
2240.00, 
2241.00, 
2242.00, 
2243.00, 
2244.00, 
2245.00, 
2246.00, 
2247.00, 
2248.00, 
2249.00, 
2250.00, 
2251.00, 
2252.00, 
2253.00, 
2254.00, 
2255.00, 
2256.00, 
2257.00, 
2258.00, 
2259.00, 
2260.00, 
2261.00, 
2262.00, 
2263.00, 
2264.00, 
2265.00, 
2266.00, 
2267.00, 
2268.00, 
2269.00, 
2270.00, 
2271.00, 
2272.00, 
2273.00, 
2274.00, 
2275.00, 
2276.00, 
2277.00, 
2278.00, 
2279.00, 
2280.00, 
2281.00, 
2282.00, 
2283.00, 
2284.00, 
2285.00, 
2286.00, 
2287.00, 
2288.00, 
2289.00, 
2290.00, 
2291.00, 
2292.00, 
2293.00, 
2294.00, 
2295.00, 
2296.00, 
2297.00, 
2298.00, 
2299.00, 
2300.00, 
2301.00, 
2302.00, 
2303.00, 
2304.00, 
2305.00, 
2306.00, 
2307.00, 
2308.00, 
2309.00, 
2310.00, 
2311.00, 
2312.00, 
2313.00, 
2314.00, 
2315.00, 
2316.00, 
2317.00, 
2318.00, 
2319.00, 
2320.00, 
2321.00, 
2322.00, 
2323.00, 
2324.00, 
2325.00, 
2326.00, 
2327.00, 
2328.00, 
2329.00, 
2330.00, 
2331.00, 
2332.00, 
2333.00, 
2334.00, 
2335.00, 
2336.00, 
2337.00, 
2338.00, 
2339.00, 
2340.00, 
2341.00, 
2342.00, 
2343.00, 
2344.00, 
2345.00, 
2346.00, 
2347.00, 
2348.00, 
2349.00, 
2350.00, 
2351.00, 
2352.00, 
2353.00, 
2354.00, 
2355.00, 
2356.00, 
2357.00, 
2358.00, 
2359.00, 
2360.00, 
2361.00, 
2362.00, 
2363.00, 
2364.00, 
2365.00, 
2366.00, 
2367.00, 
2368.00, 
2369.00, 
2370.00, 
2371.00, 
2372.00, 
2373.00, 
2374.00, 
2375.00, 
2376.00, 
2377.00, 
2378.00, 
2379.00, 
2380.00, 
2381.00, 
2382.00, 
2383.00, 
2384.00, 
2385.00, 
2386.00, 
2387.00, 
2388.00, 
2389.00, 
2390.00, 
2391.00, 
2392.00, 
2393.00, 
2394.00, 
2395.00, 
2396.00, 
2397.00, 
2398.00, 
2399.00, 
2400.00, 
2401.00, 
2402.00, 
2403.00, 
2404.00, 
2405.00, 
2406.00, 
2407.00, 
2408.00, 
2409.00, 
2410.00, 
2411.00, 
2412.00, 
2413.00, 
2414.00, 
2415.00, 
2416.00, 
2417.00, 
2418.00, 
2419.00, 
2420.00, 
2421.00, 
2422.00, 
2423.00, 
2424.00, 
2425.00, 
2426.00, 
2427.00, 
2428.00, 
2429.00, 
2430.00, 
2431.00, 
2432.00, 
2433.00, 
2434.00, 
2435.00, 
2436.00, 
2437.00, 
2438.00, 
2439.00, 
2440.00, 
2441.00, 
2442.00, 
2443.00, 
2444.00, 
2445.00, 
2446.00, 
2447.00, 
2448.00, 
2449.00, 
2450.00, 
2451.00, 
2452.00, 
2453.00, 
2454.00, 
2455.00, 
2456.00, 
2457.00, 
2458.00, 
2459.00, 
2460.00, 
2461.00, 
2462.00, 
2463.00, 
2464.00, 
2465.00, 
2466.00, 
2467.00, 
2468.00, 
2469.00, 
2470.00, 
2471.00, 
2472.00, 
2473.00, 
2474.00, 
2475.00, 
2476.00, 
2477.00, 
2478.00, 
2479.00, 
2480.00, 
2481.00, 
2482.00, 
2483.00, 
2484.00, 
2485.00, 
2486.00, 
2487.00, 
2488.00, 
2489.00, 
2490.00, 
2491.00, 
2492.00, 
2493.00, 
2494.00, 
2495.00, 
2496.00, 
2497.00, 
2498.00, 
2499.00, 
2500.00, 
2501.00, 
2502.00, 
2503.00, 
2504.00, 
2505.00, 
2506.00, 
2507.00, 
2508.00, 
2509.00, 
2510.00, 
2511.00, 
2512.00, 
2513.00, 
2514.00, 
2515.00, 
2516.00, 
2517.00, 
2518.00, 
2519.00, 
2520.00, 
2521.00, 
2522.00, 
2523.00, 
2524.00, 
2525.00, 
2526.00, 
2527.00, 
2528.00, 
2529.00, 
2530.00, 
2531.00, 
2532.00, 
2533.00, 
2534.00, 
2535.00, 
2536.00, 
2537.00, 
2538.00, 
2539.00, 
2540.00, 
2541.00, 
2542.00, 
2543.00, 
2544.00, 
2545.00, 
2546.00, 
2547.00, 
2548.00, 
2549.00, 
2550.00, 
2551.00, 
2552.00, 
2553.00, 
2554.00, 
2555.00, 
2556.00, 
2557.00, 
2558.00, 
2559.00, 
2560.00, 
2561.00, 
2562.00, 
2563.00, 
2564.00, 
2565.00, 
2566.00, 
2567.00, 
2568.00, 
2569.00, 
2570.00, 
2571.00, 
2572.00, 
2573.00, 
2574.00, 
2575.00, 
2576.00, 
2577.00, 
2578.00, 
2579.00, 
2580.00, 
2581.00, 
2582.00, 
2583.00, 
2584.00, 
2585.00, 
2586.00, 
2587.00, 
2588.00, 
2589.00, 
2590.00, 
2591.00, 
2592.00, 
2593.00, 
2594.00, 
2595.00, 
2596.00, 
2597.00, 
2598.00, 
2599.00, 
2600.00, 
