"1cP4 - RawData"
"Wavelength nm.","T%"
200.00,-0.001
201.00,0.001
202.00,0.003
203.00,0.001
204.00,-0.000
205.00,0.003
206.00,0.003
207.00,0.002
208.00,0.002
209.00,-0.002
210.00,0.001
211.00,0.002
212.00,-0.002
213.00,0.002
214.00,0.001
215.00,0.001
216.00,0.001
217.00,0.002
218.00,0.000
219.00,0.004
220.00,0.001
221.00,-0.001
222.00,0.000
223.00,0.003
224.00,0.002
225.00,0.000
226.00,-0.000
227.00,0.002
228.00,0.000
229.00,0.002
230.00,0.001
231.00,0.001
232.00,0.002
233.00,0.002
234.00,0.000
235.00,-0.001
236.00,0.001
237.00,0.002
238.00,-0.002
239.00,0.002
240.00,-0.001
241.00,0.000
242.00,0.001
243.00,-0.000
244.00,-0.000
245.00,0.001
246.00,0.001
247.00,-0.001
248.00,0.000
249.00,0.001
250.00,0.003
251.00,0.001
252.00,0.001
253.00,-0.001
254.00,-0.001
255.00,0.002
256.00,0.001
257.00,-0.002
258.00,0.000
259.00,-0.001
260.00,0.002
261.00,0.001
262.00,-0.001
263.00,-0.001
264.00,0.001
265.00,0.001
266.00,0.001
267.00,-0.000
268.00,-0.001
269.00,0.001
270.00,-0.000
271.00,-0.001
272.00,-0.001
273.00,0.000
274.00,-0.002
275.00,-0.001
276.00,0.000
277.00,-0.001
278.00,0.001
279.00,0.001
280.00,0.001
281.00,0.002
282.00,-0.001
283.00,-0.000
284.00,0.002
285.00,-0.001
286.00,-0.001
287.00,0.002
288.00,0.001
289.00,-0.000
290.00,0.001
291.00,-0.002
292.00,0.001
293.00,0.001
294.00,-0.000
295.00,0.000
296.00,0.001
297.00,0.002
298.00,-0.001
299.00,0.001
300.00,-0.000
301.00,-0.000
302.00,0.001
303.00,0.001
304.00,0.001
305.00,0.001
306.00,0.003
307.00,0.003
308.00,0.006
309.00,0.010
310.00,0.015
311.00,0.023
312.00,0.038
313.00,0.057
314.00,0.087
315.00,0.128
316.00,0.185
317.00,0.257
318.00,0.342
319.00,0.464
320.00,0.614
321.00,0.790
322.00,1.011
323.00,1.291
324.00,1.584
325.00,1.916
326.00,2.264
327.00,2.705
328.00,3.150
329.00,3.649
330.00,4.092
331.00,4.695
332.00,5.263
333.00,5.896
334.00,6.485
335.00,7.126
336.00,7.773
337.00,8.448
338.00,9.073
339.00,9.691
340.00,10.353
341.00,10.997
342.00,11.544
343.00,12.129
344.00,12.764
345.00,13.262
346.00,13.762
347.00,14.214
348.00,14.756
349.00,15.127
350.00,15.532
351.00,15.940
352.00,16.232
353.00,16.593
354.00,16.921
355.00,17.237
356.00,17.472
357.00,17.712
358.00,17.992
359.00,18.244
360.00,18.456
361.00,18.557
362.00,18.752
363.00,18.896
364.00,18.935
365.00,19.065
366.00,19.218
367.00,19.208
368.00,19.286
369.00,19.329
370.00,19.397
371.00,19.343
372.00,19.366
373.00,19.362
374.00,19.370
375.00,19.267
376.00,19.208
377.00,19.152
378.00,19.027
379.00,18.929
380.00,18.924
381.00,18.907
382.00,18.884
383.00,18.907
384.00,18.958
385.00,19.011
386.00,19.023
387.00,19.136
388.00,19.150
389.00,19.155
390.00,19.188
391.00,19.220
392.00,19.233
393.00,19.239
394.00,19.283
395.00,19.308
396.00,19.277
397.00,19.310
398.00,19.301
399.00,19.284
400.00,19.300
401.00,19.270
402.00,19.261
403.00,19.258
404.00,19.255
405.00,19.214
406.00,19.203
407.00,19.132
408.00,19.168
409.00,19.096
410.00,19.059
411.00,19.094
412.00,19.017
413.00,19.063
414.00,18.997
415.00,19.051
416.00,19.110
417.00,19.113
418.00,19.068
419.00,19.167
420.00,19.183
421.00,19.181
422.00,19.168
423.00,19.218
424.00,19.257
425.00,19.284
426.00,19.302
427.00,19.377
428.00,19.389
429.00,19.456
430.00,19.490
431.00,19.549
432.00,19.553
433.00,19.618
434.00,19.697
435.00,19.728
436.00,19.777
437.00,19.866
438.00,19.947
439.00,20.004
440.00,20.054
441.00,20.133
442.00,20.217
443.00,20.263
444.00,20.459
445.00,20.483
446.00,20.571
447.00,20.653
448.00,20.801
449.00,20.889
450.00,20.992
451.00,21.080
452.00,21.193
453.00,21.334
454.00,21.401
455.00,21.508
456.00,21.644
457.00,21.753
458.00,21.848
459.00,22.019
460.00,22.138
461.00,22.276
462.00,22.391
463.00,22.519
464.00,22.674
465.00,22.759
466.00,22.897
467.00,23.074
468.00,23.152
469.00,23.274
470.00,23.389
471.00,23.461
472.00,23.613
473.00,23.690
474.00,23.838
475.00,23.974
476.00,24.045
477.00,24.206
478.00,24.309
479.00,24.483
480.00,24.617
481.00,24.727
482.00,24.922
483.00,25.097
484.00,25.229
485.00,25.439
486.00,25.542
487.00,25.697
488.00,25.841
489.00,25.981
490.00,26.157
491.00,26.275
492.00,26.431
493.00,26.655
494.00,26.815
495.00,26.845
496.00,26.998
497.00,27.058
498.00,27.176
499.00,27.378
500.00,27.481
501.00,27.622
502.00,27.788
503.00,27.946
504.00,28.000
505.00,28.132
506.00,28.234
507.00,28.370
508.00,28.479
509.00,28.682
510.00,28.875
511.00,28.884
512.00,29.010
513.00,29.145
514.00,29.298
515.00,29.378
516.00,29.550
517.00,29.652
518.00,29.813
519.00,29.864
520.00,29.929
521.00,30.096
522.00,30.163
523.00,30.203
524.00,30.390
525.00,30.496
526.00,30.559
527.00,30.625
528.00,30.719
529.00,30.908
530.00,31.051
531.00,31.119
532.00,31.193
533.00,31.371
534.00,31.374
535.00,31.455
536.00,31.585
537.00,31.666
538.00,31.716
539.00,31.824
540.00,31.909
541.00,31.939
542.00,31.991
543.00,32.066
544.00,32.149
545.00,32.239
546.00,32.287
547.00,32.456
548.00,32.530
549.00,32.564
550.00,32.623
551.00,32.744
552.00,32.812
553.00,32.827
554.00,32.906
555.00,32.945
556.00,33.003
557.00,33.067
558.00,33.188
559.00,33.284
560.00,33.259
561.00,33.404
562.00,33.451
563.00,33.415
564.00,33.515
565.00,33.525
566.00,33.535
567.00,33.564
568.00,33.609
569.00,33.700
570.00,33.772
571.00,33.724
572.00,33.809
573.00,33.856
574.00,33.871
575.00,33.876
576.00,33.909
577.00,33.932
578.00,34.040
579.00,34.124
580.00,34.108
581.00,34.321
582.00,34.353
583.00,34.318
584.00,34.522
585.00,34.492
586.00,34.404
587.00,34.545
588.00,34.629
589.00,34.621
590.00,34.784
591.00,34.801
592.00,34.838
593.00,34.919
594.00,34.982
595.00,35.038
596.00,35.037
597.00,35.114
598.00,35.160
599.00,35.174
600.00,35.264
601.00,35.299
602.00,35.368
603.00,35.351
604.00,35.357
605.00,35.447
606.00,35.487
607.00,35.535
608.00,35.690
609.00,35.775
610.00,35.615
611.00,35.745
612.00,35.698
613.00,35.753
614.00,35.800
615.00,35.973
616.00,36.141
617.00,36.088
618.00,36.077
619.00,36.150
620.00,36.170
621.00,36.256
622.00,36.340
623.00,36.384
624.00,36.520
625.00,36.565
626.00,36.652
627.00,36.702
628.00,36.716
629.00,36.808
630.00,36.864
631.00,36.927
632.00,36.989
633.00,37.092
634.00,37.224
635.00,37.281
636.00,37.359
637.00,37.396
638.00,37.419
639.00,37.541
640.00,37.628
641.00,37.694
642.00,37.819
643.00,37.840
644.00,37.964
645.00,38.065
646.00,38.185
647.00,38.276
648.00,38.307
649.00,38.338
650.00,38.382
651.00,38.588
652.00,38.665
653.00,38.584
654.00,38.732
655.00,38.878
656.00,39.183
657.00,39.289
658.00,38.878
659.00,39.401
660.00,39.457
661.00,39.449
662.00,39.598
663.00,39.690
664.00,39.927
665.00,40.117
666.00,40.032
667.00,40.186
668.00,40.193
669.00,40.443
670.00,40.669
671.00,40.508
672.00,40.741
673.00,40.871
674.00,40.877
675.00,40.999
676.00,41.217
677.00,41.415
678.00,41.220
679.00,41.413
680.00,41.642
681.00,41.821
682.00,41.686
683.00,41.789
684.00,42.016
685.00,42.086
686.00,41.960
687.00,42.208
688.00,42.363
689.00,42.318
690.00,42.607
691.00,42.932
692.00,42.606
693.00,42.491
694.00,42.824
695.00,43.019
696.00,43.128
697.00,43.144
698.00,43.259
699.00,43.374
700.00,43.360
701.00,43.465
702.00,43.731
703.00,43.869
704.00,43.887
705.00,43.906
706.00,44.001
707.00,44.135
708.00,43.984
709.00,44.401
710.00,44.792
711.00,44.383
712.00,44.457
713.00,44.619
714.00,44.741
715.00,44.756
716.00,44.769
717.00,44.939
718.00,45.128
719.00,45.150
720.00,45.126
721.00,49.557
722.00,49.582
723.00,49.636
724.00,49.676
725.00,49.677
726.00,49.751
727.00,49.773
728.00,49.833
729.00,49.857
730.00,49.904
731.00,49.955
732.00,49.981
733.00,49.993
734.00,50.029
735.00,50.198
736.00,50.183
737.00,50.253
738.00,50.285
739.00,50.280
740.00,50.351
741.00,50.306
742.00,50.391
743.00,50.433
744.00,50.495
745.00,50.468
746.00,50.466
747.00,50.546
748.00,50.527
749.00,50.505
750.00,50.624
751.00,50.576
752.00,50.548
753.00,50.643
754.00,50.670
755.00,50.622
756.00,50.640
757.00,50.657
758.00,50.731
759.00,50.727
760.00,50.715
761.00,50.801
762.00,50.801
763.00,50.866
764.00,50.794
765.00,50.878
766.00,50.904
767.00,50.866
768.00,50.897
769.00,50.924
770.00,50.942
771.00,50.936
772.00,51.020
773.00,50.963
774.00,51.023
775.00,51.046
776.00,50.984
777.00,51.044
778.00,50.950
779.00,51.097
780.00,51.064
781.00,51.085
782.00,51.062
783.00,51.075
784.00,51.180
785.00,51.111
786.00,51.105
787.00,51.114
788.00,51.102
789.00,51.053
790.00,51.125
791.00,51.121
792.00,51.041
793.00,51.071
794.00,51.037
795.00,51.053
796.00,51.037
797.00,51.021
798.00,51.094
799.00,50.954
800.00,51.021
801.00,50.983
802.00,51.003
803.00,50.996
804.00,50.907
805.00,50.992
806.00,50.989
807.00,50.957
808.00,50.986
809.00,50.957
810.00,50.969
811.00,50.899
812.00,51.025
813.00,50.873
814.00,50.907
815.00,50.817
816.00,50.923
817.00,50.908
818.00,50.796
819.00,50.858
820.00,50.759
821.00,50.829
822.00,50.852
823.00,50.751
824.00,50.881
825.00,50.801
826.00,50.671
827.00,50.805
828.00,50.851
829.00,50.814
830.00,50.833
831.00,53.031
832.00,53.055
833.00,52.987
834.00,53.011
835.00,53.028
836.00,53.023
837.00,52.988
838.00,52.968
839.00,52.962
840.00,52.886
841.00,52.953
842.00,52.897
843.00,52.898
844.00,52.865
845.00,52.819
846.00,52.824
847.00,52.791
848.00,52.792
849.00,52.739
850.00,52.696
851.00,52.646
852.00,52.663
853.00,52.657
854.00,52.616
855.00,52.591
856.00,52.549
857.00,52.546
858.00,52.515
859.00,52.498
860.00,52.493
861.00,52.520
862.00,52.472
863.00,52.439
864.00,52.437
865.00,52.468
866.00,52.439
867.00,52.456
868.00,52.454
869.00,52.409
870.00,52.417
871.00,52.391
872.00,52.372
873.00,52.358
874.00,52.340
875.00,52.330
876.00,52.332
877.00,52.328
878.00,52.356
879.00,52.327
880.00,52.305
881.00,52.296
882.00,52.345
883.00,52.272
884.00,52.241
885.00,52.222
886.00,52.258
887.00,52.175
888.00,52.125
889.00,52.154
890.00,52.139
891.00,52.032
892.00,52.088
893.00,52.055
894.00,52.069
895.00,52.024
896.00,52.016
897.00,52.004
898.00,51.954
899.00,51.943
900.00,51.938
901.00,51.958
902.00,51.933
903.00,51.889
904.00,51.855
905.00,51.973
906.00,51.891
907.00,51.840
908.00,51.800
909.00,51.805
910.00,51.768
911.00,51.741
912.00,51.761
913.00,51.734
914.00,51.700
915.00,51.758
916.00,51.617
917.00,51.675
918.00,51.684
919.00,51.644
920.00,51.559
921.00,51.593
922.00,51.587
923.00,51.577
924.00,51.553
925.00,51.542
926.00,51.585
927.00,51.484
928.00,51.476
929.00,51.498
930.00,51.426
931.00,51.392
932.00,51.485
933.00,51.399
934.00,51.372
935.00,51.364
936.00,51.320
937.00,51.319
938.00,51.311
939.00,51.276
940.00,51.272
941.00,51.245
942.00,51.223
943.00,51.189
944.00,51.177
945.00,51.171
946.00,51.122
947.00,51.102
948.00,51.098
949.00,51.102
950.00,51.063
951.00,51.060
952.00,51.047
953.00,50.997
954.00,50.971
955.00,50.939
956.00,50.930
957.00,50.896
958.00,50.903
959.00,50.857
960.00,50.845
961.00,50.825
962.00,50.839
963.00,50.790
964.00,50.783
965.00,50.792
966.00,50.757
967.00,50.769
968.00,50.761
969.00,50.770
970.00,50.750
971.00,50.777
972.00,50.712
973.00,50.776
974.00,50.793
975.00,50.744
976.00,50.742
977.00,50.674
978.00,50.783
979.00,50.737
980.00,50.765
981.00,50.764
982.00,50.741
983.00,50.735
984.00,50.728
985.00,50.742
986.00,50.698
987.00,50.723
988.00,50.684
989.00,50.696
990.00,50.685
991.00,50.669
992.00,50.675
993.00,50.639
994.00,50.623
995.00,50.620
996.00,50.622
997.00,50.596
998.00,50.597
999.00,50.578
1000.00,50.508
1001.00,50.535
1002.00,50.518
1003.00,50.530
1004.00,50.509
1005.00,50.469
1006.00,50.507
1007.00,50.464
1008.00,50.458
1009.00,50.428
1010.00,50.442
1011.00,50.429
1012.00,50.398
1013.00,50.398
1014.00,50.371
1015.00,50.370
1016.00,50.320
1017.00,50.344
1018.00,50.322
1019.00,50.277
1020.00,50.289
1021.00,50.306
1022.00,50.313
1023.00,50.275
1024.00,50.240
1025.00,50.216
1026.00,50.213
1027.00,50.168
1028.00,50.186
1029.00,50.163
1030.00,50.122
1031.00,50.148
1032.00,50.098
1033.00,50.091
1034.00,50.076
1035.00,50.038
1036.00,50.028
1037.00,50.009
1038.00,50.006
1039.00,49.970
1040.00,49.971
1041.00,49.914
1042.00,49.933
1043.00,49.907
1044.00,49.935
1045.00,49.910
1046.00,49.899
1047.00,49.935
1048.00,49.942
1049.00,49.935
1050.00,49.946
1051.00,49.981
1052.00,49.955
1053.00,49.969
1054.00,49.966
1055.00,50.002
1056.00,50.005
1057.00,49.994
1058.00,49.992
1059.00,49.999
1060.00,49.989
1061.00,49.994
1062.00,49.989
1063.00,49.981
1064.00,49.985
1065.00,49.956
1066.00,49.956
1067.00,49.950
1068.00,49.960
1069.00,49.927
1070.00,49.912
1071.00,49.887
1072.00,49.924
1073.00,49.896
1074.00,49.877
1075.00,49.865
1076.00,49.893
1077.00,49.862
1078.00,49.854
1079.00,49.856
1080.00,49.855
1081.00,49.840
1082.00,49.823
1083.00,49.841
1084.00,49.835
1085.00,49.819
1086.00,49.816
1087.00,49.823
1088.00,49.791
1089.00,49.784
1090.00,49.781
1091.00,49.786
1092.00,49.773
1093.00,49.751
1094.00,49.754
1095.00,49.750
1096.00,49.712
1097.00,49.732
1098.00,49.708
1099.00,49.707
1100.00,49.714
1101.00,49.689
1102.00,49.667
1103.00,49.675
1104.00,49.648
1105.00,49.650
1106.00,49.628
1107.00,49.626
1108.00,49.625
1109.00,49.626
1110.00,49.613
1111.00,49.608
1112.00,49.597
1113.00,49.595
1114.00,49.592
1115.00,49.590
1116.00,49.576
1117.00,49.570
1118.00,49.553
1119.00,49.556
1120.00,49.550
1121.00,49.548
1122.00,49.540
1123.00,49.554
1124.00,49.537
1125.00,49.557
1126.00,49.521
1127.00,49.535
1128.00,49.536
1129.00,49.479
1130.00,49.492
1131.00,49.501
1132.00,49.464
1133.00,49.468
1134.00,49.449
1135.00,49.437
1136.00,49.445
1137.00,49.448
1138.00,49.448
1139.00,49.469
1140.00,49.443
1141.00,49.449
1142.00,49.426
1143.00,49.440
1144.00,49.436
1145.00,49.439
1146.00,49.456
1147.00,49.429
1148.00,49.416
1149.00,49.437
1150.00,49.431
1151.00,49.422
1152.00,49.411
1153.00,49.430
1154.00,49.398
1155.00,49.410
1156.00,49.391
1157.00,49.394
1158.00,49.404
1159.00,49.379
1160.00,49.392
1161.00,49.428
1162.00,49.402
1163.00,49.410
1164.00,49.410
1165.00,49.392
1166.00,49.398
1167.00,49.373
1168.00,49.395
1169.00,49.385
1170.00,49.357
1171.00,49.364
1172.00,49.391
1173.00,49.371
1174.00,49.386
1175.00,49.383
1176.00,49.384
1177.00,49.383
1178.00,49.366
1179.00,49.386
1180.00,49.370
1181.00,49.376
1182.00,49.371
1183.00,49.379
1184.00,49.357
1185.00,49.379
1186.00,49.361
1187.00,49.374
1188.00,49.376
1189.00,49.371
1190.00,49.377
1191.00,49.376
1192.00,49.389
1193.00,49.380
1194.00,49.385
1195.00,49.350
1196.00,49.386
1197.00,49.384
1198.00,49.368
1199.00,49.386
1200.00,49.380
1201.00,49.393
1202.00,49.377
1203.00,49.366
1204.00,49.371
1205.00,49.389
1206.00,49.358
1207.00,49.379
1208.00,49.359
1209.00,49.370
1210.00,49.376
1211.00,49.353
1212.00,49.390
1213.00,49.361
1214.00,49.382
1215.00,49.372
1216.00,49.390
1217.00,49.384
1218.00,49.361
1219.00,49.380
1220.00,49.374
1221.00,49.392
1222.00,49.375
1223.00,49.400
1224.00,49.407
1225.00,49.371
1226.00,49.398
1227.00,49.395
1228.00,49.401
1229.00,49.402
1230.00,49.421
1231.00,49.416
1232.00,49.446
1233.00,49.444
1234.00,49.446
1235.00,49.466
1236.00,49.441
1237.00,49.464
1238.00,49.464
1239.00,49.461
1240.00,49.448
1241.00,49.451
1242.00,49.452
1243.00,49.465
1244.00,49.435
1245.00,49.480
1246.00,49.477
1247.00,49.449
1248.00,49.471
1249.00,49.504
1250.00,49.505
1251.00,49.491
1252.00,49.501
1253.00,49.483
1254.00,49.513
1255.00,49.485
1256.00,49.507
1257.00,49.492
1258.00,49.507
1259.00,49.523
1260.00,49.556
1261.00,49.528
1262.00,49.526
1263.00,49.531
1264.00,49.537
1265.00,49.542
1266.00,49.538
1267.00,49.566
1268.00,49.573
1269.00,49.563
1270.00,49.603
1271.00,49.601
1272.00,49.586
1273.00,49.618
1274.00,49.605
1275.00,49.615
1276.00,49.617
1277.00,49.633
1278.00,49.644
1279.00,49.637
1280.00,49.643
1281.00,49.685
1282.00,49.700
1283.00,49.661
1284.00,49.679
1285.00,49.662
1286.00,49.678
1287.00,49.678
1288.00,49.669
1289.00,49.659
1290.00,49.700
1291.00,49.693
1292.00,49.716
1293.00,49.702
1294.00,49.719
1295.00,49.748
1296.00,49.734
1297.00,49.748
1298.00,49.801
1299.00,49.748
1300.00,49.786
1301.00,49.778
1302.00,49.787
1303.00,49.802
1304.00,49.785
1305.00,49.809
1306.00,49.822
1307.00,49.823
1308.00,49.830
1309.00,49.853
1310.00,49.840
1311.00,49.839
1312.00,49.856
1313.00,49.848
1314.00,49.869
1315.00,49.885
1316.00,49.863
1317.00,49.907
1318.00,49.909
1319.00,49.904
1320.00,49.912
1321.00,50.072
1322.00,50.061
1323.00,50.057
1324.00,50.039
1325.00,50.052
1326.00,50.092
1327.00,50.044
1328.00,50.076
1329.00,50.076
1330.00,50.083
1331.00,50.075
1332.00,50.064
1333.00,50.080
1334.00,50.120
1335.00,50.121
1336.00,50.149
1337.00,50.177
1338.00,50.244
1339.00,50.279
1340.00,50.340
1341.00,50.410
1342.00,50.474
1343.00,50.538
1344.00,50.547
1345.00,50.620
1346.00,50.642
1347.00,50.669
1348.00,50.710
1349.00,50.716
1350.00,50.738
1351.00,50.763
1352.00,50.773
1353.00,50.788
1354.00,50.789
1355.00,50.783
1356.00,50.810
1357.00,50.833
1358.00,50.850
1359.00,50.838
1360.00,50.859
1361.00,50.860
1362.00,50.758
1363.00,50.859
1364.00,50.905
1365.00,50.834
1366.00,50.848
1367.00,50.844
1368.00,50.793
1369.00,50.852
1370.00,50.834
1371.00,50.784
1372.00,50.818
1373.00,50.844
1374.00,50.873
1375.00,50.843
1376.00,50.838
1377.00,50.803
1378.00,50.946
1379.00,50.855
1380.00,50.856
1381.00,50.909
1382.00,50.841
1383.00,50.850
1384.00,50.800
1385.00,50.772
1386.00,50.881
1387.00,50.826
1388.00,50.812
1389.00,50.812
1390.00,50.846
1391.00,50.856
1392.00,50.823
1393.00,50.871
1394.00,50.905
1395.00,50.805
1396.00,50.743
1397.00,50.881
1398.00,50.878
1399.00,50.870
1400.00,50.829
1401.00,50.799
1402.00,51.017
1403.00,50.903
1404.00,50.886
1405.00,50.913
1406.00,50.948
1407.00,50.916
1408.00,50.942
1409.00,50.913
1410.00,50.949
1411.00,50.923
1412.00,50.963
1413.00,50.960
1414.00,50.937
1415.00,50.919
1416.00,51.014
1417.00,51.036
1418.00,51.025
1419.00,51.074
1420.00,51.007
1421.00,51.053
1422.00,51.066
1423.00,51.093
1424.00,51.092
1425.00,51.113
1426.00,51.087
1427.00,51.140
1428.00,51.132
1429.00,51.147
1430.00,51.156
1431.00,51.193
1432.00,51.197
1433.00,51.233
1434.00,51.220
1435.00,51.291
1436.00,51.301
1437.00,51.307
1438.00,51.326
1439.00,51.345
1440.00,51.341
1441.00,51.378
1442.00,51.368
1443.00,51.435
1444.00,51.489
1445.00,51.412
1446.00,51.439
1447.00,51.469
1448.00,51.499
1449.00,51.527
1450.00,51.542
1451.00,51.550
1452.00,51.581
1453.00,51.578
1454.00,51.590
1455.00,51.627
1456.00,51.622
1457.00,51.627
1458.00,51.647
1459.00,51.666
1460.00,51.697
1461.00,51.681
1462.00,51.711
1463.00,51.744
1464.00,51.785
1465.00,51.783
1466.00,51.804
1467.00,51.814
1468.00,51.874
1469.00,51.834
1470.00,51.870
1471.00,51.899
1472.00,51.899
1473.00,51.902
1474.00,51.922
1475.00,51.973
1476.00,51.994
1477.00,51.985
1478.00,52.008
1479.00,52.015
1480.00,52.017
1481.00,52.014
1482.00,52.064
1483.00,52.078
1484.00,52.081
1485.00,52.085
1486.00,52.097
1487.00,52.123
1488.00,52.158
1489.00,52.127
1490.00,52.166
1491.00,52.165
1492.00,52.188
1493.00,52.178
1494.00,52.221
1495.00,52.194
1496.00,52.242
1497.00,52.221
1498.00,52.252
1499.00,52.267
1500.00,52.277
1501.00, 
1502.00, 
1503.00, 
1504.00, 
1505.00, 
1506.00, 
1507.00, 
1508.00, 
1509.00, 
1510.00, 
1511.00, 
1512.00, 
1513.00, 
1514.00, 
1515.00, 
1516.00, 
1517.00, 
1518.00, 
1519.00, 
1520.00, 
1521.00, 
1522.00, 
1523.00, 
1524.00, 
1525.00, 
1526.00, 
1527.00, 
1528.00, 
1529.00, 
1530.00, 
1531.00, 
1532.00, 
1533.00, 
1534.00, 
1535.00, 
1536.00, 
1537.00, 
1538.00, 
1539.00, 
1540.00, 
1541.00, 
1542.00, 
1543.00, 
1544.00, 
1545.00, 
1546.00, 
1547.00, 
1548.00, 
1549.00, 
1550.00, 
1551.00, 
1552.00, 
1553.00, 
1554.00, 
1555.00, 
1556.00, 
1557.00, 
1558.00, 
1559.00, 
1560.00, 
1561.00, 
1562.00, 
1563.00, 
1564.00, 
1565.00, 
1566.00, 
1567.00, 
1568.00, 
1569.00, 
1570.00, 
1571.00, 
1572.00, 
1573.00, 
1574.00, 
1575.00, 
1576.00, 
1577.00, 
1578.00, 
1579.00, 
1580.00, 
1581.00, 
1582.00, 
1583.00, 
1584.00, 
1585.00, 
1586.00, 
1587.00, 
1588.00, 
1589.00, 
1590.00, 
1591.00, 
1592.00, 
1593.00, 
1594.00, 
1595.00, 
1596.00, 
1597.00, 
1598.00, 
1599.00, 
1600.00, 
1601.00, 
1602.00, 
1603.00, 
1604.00, 
1605.00, 
1606.00, 
1607.00, 
1608.00, 
1609.00, 
1610.00, 
1611.00, 
1612.00, 
1613.00, 
1614.00, 
1615.00, 
1616.00, 
1617.00, 
1618.00, 
1619.00, 
1620.00, 
1621.00, 
1622.00, 
1623.00, 
1624.00, 
1625.00, 
1626.00, 
1627.00, 
1628.00, 
1629.00, 
1630.00, 
1631.00, 
1632.00, 
1633.00, 
1634.00, 
1635.00, 
1636.00, 
1637.00, 
1638.00, 
1639.00, 
1640.00, 
1641.00, 
1642.00, 
1643.00, 
1644.00, 
1645.00, 
1646.00, 
1647.00, 
1648.00, 
1649.00, 
1650.00, 
1651.00, 
1652.00, 
1653.00, 
1654.00, 
1655.00, 
1656.00, 
1657.00, 
1658.00, 
1659.00, 
1660.00, 
1661.00, 
1662.00, 
1663.00, 
1664.00, 
1665.00, 
1666.00, 
1667.00, 
1668.00, 
1669.00, 
1670.00, 
1671.00, 
1672.00, 
1673.00, 
1674.00, 
1675.00, 
1676.00, 
1677.00, 
1678.00, 
1679.00, 
1680.00, 
1681.00, 
1682.00, 
1683.00, 
1684.00, 
1685.00, 
1686.00, 
1687.00, 
1688.00, 
1689.00, 
1690.00, 
1691.00, 
1692.00, 
1693.00, 
1694.00, 
1695.00, 
1696.00, 
1697.00, 
1698.00, 
1699.00, 
1700.00, 
1701.00, 
1702.00, 
1703.00, 
1704.00, 
1705.00, 
1706.00, 
1707.00, 
1708.00, 
1709.00, 
1710.00, 
1711.00, 
1712.00, 
1713.00, 
1714.00, 
1715.00, 
1716.00, 
1717.00, 
1718.00, 
1719.00, 
1720.00, 
1721.00, 
1722.00, 
1723.00, 
1724.00, 
1725.00, 
1726.00, 
1727.00, 
1728.00, 
1729.00, 
1730.00, 
1731.00, 
1732.00, 
1733.00, 
1734.00, 
1735.00, 
1736.00, 
1737.00, 
1738.00, 
1739.00, 
1740.00, 
1741.00, 
1742.00, 
1743.00, 
1744.00, 
1745.00, 
1746.00, 
1747.00, 
1748.00, 
1749.00, 
1750.00, 
1751.00, 
1752.00, 
1753.00, 
1754.00, 
1755.00, 
1756.00, 
1757.00, 
1758.00, 
1759.00, 
1760.00, 
1761.00, 
1762.00, 
1763.00, 
1764.00, 
1765.00, 
1766.00, 
1767.00, 
1768.00, 
1769.00, 
1770.00, 
1771.00, 
1772.00, 
1773.00, 
1774.00, 
1775.00, 
1776.00, 
1777.00, 
1778.00, 
1779.00, 
1780.00, 
1781.00, 
1782.00, 
1783.00, 
1784.00, 
1785.00, 
1786.00, 
1787.00, 
1788.00, 
1789.00, 
1790.00, 
1791.00, 
1792.00, 
1793.00, 
1794.00, 
1795.00, 
1796.00, 
1797.00, 
1798.00, 
1799.00, 
1800.00, 
1801.00, 
1802.00, 
1803.00, 
1804.00, 
1805.00, 
1806.00, 
1807.00, 
1808.00, 
1809.00, 
1810.00, 
1811.00, 
1812.00, 
1813.00, 
1814.00, 
1815.00, 
1816.00, 
1817.00, 
1818.00, 
1819.00, 
1820.00, 
1821.00, 
1822.00, 
1823.00, 
1824.00, 
1825.00, 
1826.00, 
1827.00, 
1828.00, 
1829.00, 
1830.00, 
1831.00, 
1832.00, 
1833.00, 
1834.00, 
1835.00, 
1836.00, 
1837.00, 
1838.00, 
1839.00, 
1840.00, 
1841.00, 
1842.00, 
1843.00, 
1844.00, 
1845.00, 
1846.00, 
1847.00, 
1848.00, 
1849.00, 
1850.00, 
1851.00, 
1852.00, 
1853.00, 
1854.00, 
1855.00, 
1856.00, 
1857.00, 
1858.00, 
1859.00, 
1860.00, 
1861.00, 
1862.00, 
1863.00, 
1864.00, 
1865.00, 
1866.00, 
1867.00, 
1868.00, 
1869.00, 
1870.00, 
1871.00, 
1872.00, 
1873.00, 
1874.00, 
1875.00, 
1876.00, 
1877.00, 
1878.00, 
1879.00, 
1880.00, 
1881.00, 
1882.00, 
1883.00, 
1884.00, 
1885.00, 
1886.00, 
1887.00, 
1888.00, 
1889.00, 
1890.00, 
1891.00, 
1892.00, 
1893.00, 
1894.00, 
1895.00, 
1896.00, 
1897.00, 
1898.00, 
1899.00, 
1900.00, 
1901.00, 
1902.00, 
1903.00, 
1904.00, 
1905.00, 
1906.00, 
1907.00, 
1908.00, 
1909.00, 
1910.00, 
1911.00, 
1912.00, 
1913.00, 
1914.00, 
1915.00, 
1916.00, 
1917.00, 
1918.00, 
1919.00, 
1920.00, 
1921.00, 
1922.00, 
1923.00, 
1924.00, 
1925.00, 
1926.00, 
1927.00, 
1928.00, 
1929.00, 
1930.00, 
1931.00, 
1932.00, 
1933.00, 
1934.00, 
1935.00, 
1936.00, 
1937.00, 
1938.00, 
1939.00, 
1940.00, 
1941.00, 
1942.00, 
1943.00, 
1944.00, 
1945.00, 
1946.00, 
1947.00, 
1948.00, 
1949.00, 
1950.00, 
1951.00, 
1952.00, 
1953.00, 
1954.00, 
1955.00, 
1956.00, 
1957.00, 
1958.00, 
1959.00, 
1960.00, 
1961.00, 
1962.00, 
1963.00, 
1964.00, 
1965.00, 
1966.00, 
1967.00, 
1968.00, 
1969.00, 
1970.00, 
1971.00, 
1972.00, 
1973.00, 
1974.00, 
1975.00, 
1976.00, 
1977.00, 
1978.00, 
1979.00, 
1980.00, 
1981.00, 
1982.00, 
1983.00, 
1984.00, 
1985.00, 
1986.00, 
1987.00, 
1988.00, 
1989.00, 
1990.00, 
1991.00, 
1992.00, 
1993.00, 
1994.00, 
1995.00, 
1996.00, 
1997.00, 
1998.00, 
1999.00, 
2000.00, 
2001.00, 
2002.00, 
2003.00, 
2004.00, 
2005.00, 
2006.00, 
2007.00, 
2008.00, 
2009.00, 
2010.00, 
2011.00, 
2012.00, 
2013.00, 
2014.00, 
2015.00, 
2016.00, 
2017.00, 
2018.00, 
2019.00, 
2020.00, 
2021.00, 
2022.00, 
2023.00, 
2024.00, 
2025.00, 
2026.00, 
2027.00, 
2028.00, 
2029.00, 
2030.00, 
2031.00, 
2032.00, 
2033.00, 
2034.00, 
2035.00, 
2036.00, 
2037.00, 
2038.00, 
2039.00, 
2040.00, 
2041.00, 
2042.00, 
2043.00, 
2044.00, 
2045.00, 
2046.00, 
2047.00, 
2048.00, 
2049.00, 
2050.00, 
2051.00, 
2052.00, 
2053.00, 
2054.00, 
2055.00, 
2056.00, 
2057.00, 
2058.00, 
2059.00, 
2060.00, 
2061.00, 
2062.00, 
2063.00, 
2064.00, 
2065.00, 
2066.00, 
2067.00, 
2068.00, 
2069.00, 
2070.00, 
2071.00, 
2072.00, 
2073.00, 
2074.00, 
2075.00, 
2076.00, 
2077.00, 
2078.00, 
2079.00, 
2080.00, 
2081.00, 
2082.00, 
2083.00, 
2084.00, 
2085.00, 
2086.00, 
2087.00, 
2088.00, 
2089.00, 
2090.00, 
2091.00, 
2092.00, 
2093.00, 
2094.00, 
2095.00, 
2096.00, 
2097.00, 
2098.00, 
2099.00, 
2100.00, 
2101.00, 
2102.00, 
2103.00, 
2104.00, 
2105.00, 
2106.00, 
2107.00, 
2108.00, 
2109.00, 
2110.00, 
2111.00, 
2112.00, 
2113.00, 
2114.00, 
2115.00, 
2116.00, 
2117.00, 
2118.00, 
2119.00, 
2120.00, 
2121.00, 
2122.00, 
2123.00, 
2124.00, 
2125.00, 
2126.00, 
2127.00, 
2128.00, 
2129.00, 
2130.00, 
2131.00, 
2132.00, 
2133.00, 
2134.00, 
2135.00, 
2136.00, 
2137.00, 
2138.00, 
2139.00, 
2140.00, 
2141.00, 
2142.00, 
2143.00, 
2144.00, 
2145.00, 
2146.00, 
2147.00, 
2148.00, 
2149.00, 
2150.00, 
2151.00, 
2152.00, 
2153.00, 
2154.00, 
2155.00, 
2156.00, 
2157.00, 
2158.00, 
2159.00, 
2160.00, 
2161.00, 
2162.00, 
2163.00, 
2164.00, 
2165.00, 
2166.00, 
2167.00, 
2168.00, 
2169.00, 
2170.00, 
2171.00, 
2172.00, 
2173.00, 
2174.00, 
2175.00, 
2176.00, 
2177.00, 
2178.00, 
2179.00, 
2180.00, 
2181.00, 
2182.00, 
2183.00, 
2184.00, 
2185.00, 
2186.00, 
2187.00, 
2188.00, 
2189.00, 
2190.00, 
2191.00, 
2192.00, 
2193.00, 
2194.00, 
2195.00, 
2196.00, 
2197.00, 
2198.00, 
2199.00, 
2200.00, 
2201.00, 
2202.00, 
2203.00, 
2204.00, 
2205.00, 
2206.00, 
2207.00, 
2208.00, 
2209.00, 
2210.00, 
2211.00, 
2212.00, 
2213.00, 
2214.00, 
2215.00, 
2216.00, 
2217.00, 
2218.00, 
2219.00, 
2220.00, 
2221.00, 
2222.00, 
2223.00, 
2224.00, 
2225.00, 
2226.00, 
2227.00, 
2228.00, 
2229.00, 
2230.00, 
2231.00, 
2232.00, 
2233.00, 
2234.00, 
2235.00, 
2236.00, 
2237.00, 
2238.00, 
2239.00, 
2240.00, 
2241.00, 
2242.00, 
2243.00, 
2244.00, 
2245.00, 
2246.00, 
2247.00, 
2248.00, 
2249.00, 
2250.00, 
2251.00, 
2252.00, 
2253.00, 
2254.00, 
2255.00, 
2256.00, 
2257.00, 
2258.00, 
2259.00, 
2260.00, 
2261.00, 
2262.00, 
2263.00, 
2264.00, 
2265.00, 
2266.00, 
2267.00, 
2268.00, 
2269.00, 
2270.00, 
2271.00, 
2272.00, 
2273.00, 
2274.00, 
2275.00, 
2276.00, 
2277.00, 
2278.00, 
2279.00, 
2280.00, 
2281.00, 
2282.00, 
2283.00, 
2284.00, 
2285.00, 
2286.00, 
2287.00, 
2288.00, 
2289.00, 
2290.00, 
2291.00, 
2292.00, 
2293.00, 
2294.00, 
2295.00, 
2296.00, 
2297.00, 
2298.00, 
2299.00, 
2300.00, 
2301.00, 
2302.00, 
2303.00, 
2304.00, 
2305.00, 
2306.00, 
2307.00, 
2308.00, 
2309.00, 
2310.00, 
2311.00, 
2312.00, 
2313.00, 
2314.00, 
2315.00, 
2316.00, 
2317.00, 
2318.00, 
2319.00, 
2320.00, 
2321.00, 
2322.00, 
2323.00, 
2324.00, 
2325.00, 
2326.00, 
2327.00, 
2328.00, 
2329.00, 
2330.00, 
2331.00, 
2332.00, 
2333.00, 
2334.00, 
2335.00, 
2336.00, 
2337.00, 
2338.00, 
2339.00, 
2340.00, 
2341.00, 
2342.00, 
2343.00, 
2344.00, 
2345.00, 
2346.00, 
2347.00, 
2348.00, 
2349.00, 
2350.00, 
2351.00, 
2352.00, 
2353.00, 
2354.00, 
2355.00, 
2356.00, 
2357.00, 
2358.00, 
2359.00, 
2360.00, 
2361.00, 
2362.00, 
2363.00, 
2364.00, 
2365.00, 
2366.00, 
2367.00, 
2368.00, 
2369.00, 
2370.00, 
2371.00, 
2372.00, 
2373.00, 
2374.00, 
2375.00, 
2376.00, 
2377.00, 
2378.00, 
2379.00, 
2380.00, 
2381.00, 
2382.00, 
2383.00, 
2384.00, 
2385.00, 
2386.00, 
2387.00, 
2388.00, 
2389.00, 
2390.00, 
2391.00, 
2392.00, 
2393.00, 
2394.00, 
2395.00, 
2396.00, 
2397.00, 
2398.00, 
2399.00, 
2400.00, 
2401.00, 
2402.00, 
2403.00, 
2404.00, 
2405.00, 
2406.00, 
2407.00, 
2408.00, 
2409.00, 
2410.00, 
2411.00, 
2412.00, 
2413.00, 
2414.00, 
2415.00, 
2416.00, 
2417.00, 
2418.00, 
2419.00, 
2420.00, 
2421.00, 
2422.00, 
2423.00, 
2424.00, 
2425.00, 
2426.00, 
2427.00, 
2428.00, 
2429.00, 
2430.00, 
2431.00, 
2432.00, 
2433.00, 
2434.00, 
2435.00, 
2436.00, 
2437.00, 
2438.00, 
2439.00, 
2440.00, 
2441.00, 
2442.00, 
2443.00, 
2444.00, 
2445.00, 
2446.00, 
2447.00, 
2448.00, 
2449.00, 
2450.00, 
2451.00, 
2452.00, 
2453.00, 
2454.00, 
2455.00, 
2456.00, 
2457.00, 
2458.00, 
2459.00, 
2460.00, 
2461.00, 
2462.00, 
2463.00, 
2464.00, 
2465.00, 
2466.00, 
2467.00, 
2468.00, 
2469.00, 
2470.00, 
2471.00, 
2472.00, 
2473.00, 
2474.00, 
2475.00, 
2476.00, 
2477.00, 
2478.00, 
2479.00, 
2480.00, 
2481.00, 
2482.00, 
2483.00, 
2484.00, 
2485.00, 
2486.00, 
2487.00, 
2488.00, 
2489.00, 
2490.00, 
2491.00, 
2492.00, 
2493.00, 
2494.00, 
2495.00, 
2496.00, 
2497.00, 
2498.00, 
2499.00, 
2500.00, 
2501.00, 
2502.00, 
2503.00, 
2504.00, 
2505.00, 
2506.00, 
2507.00, 
2508.00, 
2509.00, 
2510.00, 
2511.00, 
2512.00, 
2513.00, 
2514.00, 
2515.00, 
2516.00, 
2517.00, 
2518.00, 
2519.00, 
2520.00, 
2521.00, 
2522.00, 
2523.00, 
2524.00, 
2525.00, 
2526.00, 
2527.00, 
2528.00, 
2529.00, 
2530.00, 
2531.00, 
2532.00, 
2533.00, 
2534.00, 
2535.00, 
2536.00, 
2537.00, 
2538.00, 
2539.00, 
2540.00, 
2541.00, 
2542.00, 
2543.00, 
2544.00, 
2545.00, 
2546.00, 
2547.00, 
2548.00, 
2549.00, 
2550.00, 
2551.00, 
2552.00, 
2553.00, 
2554.00, 
2555.00, 
2556.00, 
2557.00, 
2558.00, 
2559.00, 
2560.00, 
2561.00, 
2562.00, 
2563.00, 
2564.00, 
2565.00, 
2566.00, 
2567.00, 
2568.00, 
2569.00, 
2570.00, 
2571.00, 
2572.00, 
2573.00, 
2574.00, 
2575.00, 
2576.00, 
2577.00, 
2578.00, 
2579.00, 
2580.00, 
2581.00, 
2582.00, 
2583.00, 
2584.00, 
2585.00, 
2586.00, 
2587.00, 
2588.00, 
2589.00, 
2590.00, 
2591.00, 
2592.00, 
2593.00, 
2594.00, 
2595.00, 
2596.00, 
2597.00, 
2598.00, 
2599.00, 
2600.00, 
