"1cP5 - RawData"
"Wavelength nm.","T%"
200.00,0.004
201.00,0.001
202.00,0.004
203.00,0.002
204.00,0.003
205.00,0.002
206.00,0.002
207.00,-0.001
208.00,0.001
209.00,0.001
210.00,0.002
211.00,0.002
212.00,0.001
213.00,0.002
214.00,0.000
215.00,-0.002
216.00,-0.004
217.00,-0.002
218.00,0.002
219.00,0.004
220.00,-0.000
221.00,0.002
222.00,0.002
223.00,0.000
224.00,0.002
225.00,0.001
226.00,-0.001
227.00,0.001
228.00,-0.001
229.00,-0.001
230.00,0.001
231.00,0.001
232.00,0.001
233.00,0.001
234.00,0.001
235.00,0.002
236.00,0.001
237.00,-0.001
238.00,0.001
239.00,0.002
240.00,0.001
241.00,0.001
242.00,-0.000
243.00,0.000
244.00,-0.001
245.00,-0.001
246.00,0.000
247.00,-0.002
248.00,0.001
249.00,0.001
250.00,0.002
251.00,0.001
252.00,-0.000
253.00,0.001
254.00,0.002
255.00,0.002
256.00,-0.000
257.00,0.000
258.00,-0.000
259.00,-0.001
260.00,0.001
261.00,-0.000
262.00,-0.001
263.00,0.001
264.00,-0.001
265.00,-0.000
266.00,-0.002
267.00,-0.000
268.00,-0.000
269.00,0.002
270.00,0.002
271.00,-0.000
272.00,0.001
273.00,0.001
274.00,-0.002
275.00,0.000
276.00,0.002
277.00,-0.001
278.00,-0.001
279.00,0.000
280.00,-0.001
281.00,0.001
282.00,0.001
283.00,0.002
284.00,0.001
285.00,0.000
286.00,-0.001
287.00,0.001
288.00,0.001
289.00,-0.000
290.00,-0.002
291.00,0.001
292.00,0.002
293.00,0.000
294.00,-0.001
295.00,0.000
296.00,-0.000
297.00,0.001
298.00,0.001
299.00,0.000
300.00,0.001
301.00,-0.000
302.00,0.001
303.00,0.000
304.00,0.001
305.00,0.001
306.00,0.001
307.00,0.002
308.00,0.006
309.00,0.009
310.00,0.016
311.00,0.024
312.00,0.035
313.00,0.057
314.00,0.084
315.00,0.122
316.00,0.172
317.00,0.247
318.00,0.327
319.00,0.445
320.00,0.586
321.00,0.765
322.00,0.978
323.00,1.238
324.00,1.525
325.00,1.834
326.00,2.177
327.00,2.580
328.00,3.011
329.00,3.472
330.00,3.984
331.00,4.494
332.00,5.065
333.00,5.662
334.00,6.237
335.00,6.773
336.00,7.446
337.00,8.091
338.00,8.697
339.00,9.292
340.00,9.900
341.00,10.531
342.00,11.064
343.00,11.644
344.00,12.205
345.00,12.705
346.00,13.199
347.00,13.573
348.00,14.060
349.00,14.475
350.00,14.855
351.00,15.215
352.00,15.551
353.00,15.878
354.00,16.207
355.00,16.455
356.00,16.734
357.00,16.902
358.00,17.169
359.00,17.415
360.00,17.621
361.00,17.713
362.00,17.893
363.00,18.057
364.00,18.129
365.00,18.190
366.00,18.286
367.00,18.371
368.00,18.400
369.00,18.443
370.00,18.477
371.00,18.504
372.00,18.406
373.00,18.486
374.00,18.436
375.00,18.345
376.00,18.258
377.00,18.207
378.00,18.120
379.00,18.050
380.00,18.014
381.00,17.969
382.00,17.951
383.00,17.981
384.00,17.974
385.00,18.046
386.00,18.028
387.00,18.187
388.00,18.147
389.00,18.182
390.00,18.224
391.00,18.238
392.00,18.255
393.00,18.272
394.00,18.267
395.00,18.315
396.00,18.285
397.00,18.268
398.00,18.278
399.00,18.254
400.00,18.265
401.00,18.247
402.00,18.281
403.00,18.229
404.00,18.223
405.00,18.182
406.00,18.186
407.00,18.124
408.00,18.142
409.00,18.087
410.00,18.037
411.00,18.049
412.00,18.012
413.00,18.050
414.00,17.984
415.00,18.024
416.00,18.085
417.00,18.077
418.00,18.038
419.00,18.113
420.00,18.136
421.00,18.138
422.00,18.124
423.00,18.185
424.00,18.218
425.00,18.246
426.00,18.256
427.00,18.331
428.00,18.348
429.00,18.397
430.00,18.445
431.00,18.510
432.00,18.497
433.00,18.593
434.00,18.625
435.00,18.695
436.00,18.731
437.00,18.815
438.00,18.874
439.00,18.943
440.00,19.024
441.00,19.101
442.00,19.190
443.00,19.252
444.00,19.417
445.00,19.404
446.00,19.514
447.00,19.594
448.00,19.702
449.00,19.831
450.00,19.949
451.00,20.034
452.00,20.123
453.00,20.232
454.00,20.343
455.00,20.439
456.00,20.593
457.00,20.683
458.00,20.791
459.00,20.957
460.00,21.056
461.00,21.216
462.00,21.310
463.00,21.432
464.00,21.598
465.00,21.708
466.00,21.841
467.00,21.996
468.00,22.101
469.00,22.188
470.00,22.312
471.00,22.386
472.00,22.555
473.00,22.627
474.00,22.768
475.00,22.902
476.00,22.986
477.00,23.145
478.00,23.246
479.00,23.433
480.00,23.566
481.00,23.657
482.00,23.869
483.00,24.029
484.00,24.177
485.00,24.360
486.00,24.487
487.00,24.634
488.00,24.773
489.00,24.952
490.00,25.100
491.00,25.225
492.00,25.372
493.00,25.626
494.00,25.761
495.00,25.828
496.00,25.949
497.00,26.071
498.00,26.234
499.00,26.358
500.00,26.517
501.00,26.644
502.00,26.807
503.00,26.910
504.00,26.966
505.00,27.113
506.00,27.241
507.00,27.369
508.00,27.510
509.00,27.723
510.00,27.851
511.00,27.856
512.00,28.038
513.00,28.211
514.00,28.293
515.00,28.405
516.00,28.566
517.00,28.597
518.00,28.818
519.00,28.900
520.00,28.960
521.00,29.100
522.00,29.209
523.00,29.263
524.00,29.408
525.00,29.523
526.00,29.582
527.00,29.620
528.00,29.751
529.00,29.962
530.00,30.116
531.00,30.129
532.00,30.281
533.00,30.425
534.00,30.436
535.00,30.544
536.00,30.697
537.00,30.701
538.00,30.796
539.00,30.852
540.00,30.949
541.00,31.018
542.00,31.031
543.00,31.117
544.00,31.159
545.00,31.326
546.00,31.371
547.00,31.516
548.00,31.631
549.00,31.670
550.00,31.734
551.00,31.836
552.00,31.906
553.00,31.944
554.00,31.983
555.00,32.032
556.00,32.135
557.00,32.189
558.00,32.331
559.00,32.410
560.00,32.391
561.00,32.509
562.00,32.536
563.00,32.578
564.00,32.655
565.00,32.681
566.00,32.738
567.00,32.731
568.00,32.793
569.00,32.875
570.00,32.832
571.00,32.924
572.00,32.972
573.00,32.880
574.00,32.965
575.00,33.036
576.00,33.015
577.00,33.082
578.00,33.161
579.00,33.280
580.00,33.290
581.00,33.443
582.00,33.548
583.00,33.491
584.00,33.594
585.00,33.676
586.00,33.673
587.00,33.816
588.00,33.784
589.00,33.685
590.00,33.767
591.00,33.907
592.00,33.996
593.00,34.029
594.00,34.060
595.00,34.110
596.00,34.147
597.00,34.212
598.00,34.273
599.00,34.342
600.00,34.394
601.00,34.446
602.00,34.434
603.00,34.432
604.00,34.468
605.00,34.577
606.00,34.627
607.00,34.648
608.00,34.844
609.00,34.869
610.00,34.655
611.00,34.812
612.00,34.788
613.00,34.944
614.00,35.047
615.00,34.948
616.00,35.038
617.00,35.139
618.00,35.257
619.00,35.258
620.00,35.298
621.00,35.379
622.00,35.477
623.00,35.545
624.00,35.627
625.00,35.736
626.00,35.770
627.00,35.766
628.00,35.821
629.00,35.902
630.00,35.956
631.00,35.982
632.00,36.144
633.00,36.250
634.00,36.342
635.00,36.414
636.00,36.453
637.00,36.491
638.00,36.569
639.00,36.690
640.00,36.771
641.00,36.812
642.00,36.918
643.00,36.951
644.00,37.073
645.00,37.157
646.00,37.337
647.00,37.419
648.00,37.423
649.00,37.435
650.00,37.553
651.00,37.714
652.00,37.720
653.00,37.793
654.00,37.913
655.00,38.102
656.00,38.370
657.00,38.311
658.00,38.456
659.00,38.601
660.00,38.588
661.00,38.583
662.00,38.726
663.00,38.828
664.00,39.033
665.00,39.271
666.00,39.222
667.00,39.312
668.00,39.308
669.00,39.505
670.00,39.808
671.00,39.694
672.00,39.963
673.00,39.943
674.00,40.100
675.00,40.206
676.00,40.333
677.00,40.585
678.00,40.355
679.00,40.695
680.00,40.826
681.00,41.050
682.00,40.988
683.00,40.977
684.00,41.160
685.00,41.252
686.00,41.287
687.00,41.450
688.00,41.543
689.00,41.539
690.00,41.847
691.00,42.154
692.00,41.844
693.00,41.872
694.00,42.193
695.00,42.380
696.00,42.372
697.00,42.383
698.00,42.495
699.00,42.698
700.00,42.786
701.00,42.829
702.00,43.066
703.00,43.185
704.00,43.291
705.00,43.313
706.00,43.167
707.00,43.462
708.00,43.296
709.00,43.530
710.00,44.137
711.00,44.094
712.00,43.899
713.00,44.029
714.00,44.135
715.00,44.154
716.00,44.173
717.00,44.359
718.00,44.581
719.00,44.595
720.00,44.622
721.00,48.815
722.00,48.966
723.00,48.927
724.00,49.110
725.00,49.029
726.00,49.156
727.00,49.201
728.00,49.220
729.00,49.210
730.00,49.333
731.00,49.368
732.00,49.439
733.00,49.543
734.00,49.460
735.00,49.582
736.00,49.560
737.00,49.669
738.00,49.739
739.00,49.774
740.00,49.810
741.00,49.796
742.00,49.965
743.00,49.885
744.00,49.980
745.00,50.035
746.00,50.027
747.00,50.041
748.00,49.966
749.00,50.032
750.00,50.163
751.00,50.090
752.00,50.086
753.00,50.194
754.00,50.205
755.00,50.225
756.00,50.173
757.00,50.254
758.00,50.223
759.00,50.304
760.00,50.385
761.00,50.319
762.00,50.356
763.00,50.404
764.00,50.395
765.00,50.440
766.00,50.490
767.00,50.471
768.00,50.533
769.00,50.539
770.00,50.553
771.00,50.535
772.00,50.558
773.00,50.599
774.00,50.591
775.00,50.711
776.00,50.568
777.00,50.729
778.00,50.675
779.00,50.819
780.00,50.657
781.00,50.713
782.00,50.779
783.00,50.752
784.00,50.808
785.00,50.710
786.00,50.823
787.00,50.711
788.00,50.763
789.00,50.749
790.00,50.756
791.00,50.824
792.00,50.722
793.00,50.795
794.00,50.716
795.00,50.787
796.00,50.696
797.00,50.680
798.00,50.768
799.00,50.672
800.00,50.700
801.00,50.659
802.00,50.723
803.00,50.637
804.00,50.646
805.00,50.711
806.00,50.704
807.00,50.671
808.00,50.670
809.00,50.591
810.00,50.633
811.00,50.612
812.00,50.690
813.00,50.620
814.00,50.626
815.00,50.585
816.00,50.641
817.00,50.645
818.00,50.583
819.00,50.603
820.00,50.516
821.00,50.496
822.00,50.574
823.00,50.562
824.00,50.540
825.00,50.439
826.00,50.446
827.00,50.555
828.00,50.556
829.00,50.526
830.00,50.621
831.00,52.812
832.00,52.821
833.00,52.773
834.00,52.806
835.00,52.741
836.00,52.778
837.00,52.757
838.00,52.745
839.00,52.714
840.00,52.682
841.00,52.677
842.00,52.650
843.00,52.666
844.00,52.610
845.00,52.608
846.00,52.602
847.00,52.559
848.00,52.538
849.00,52.540
850.00,52.510
851.00,52.457
852.00,52.470
853.00,52.444
854.00,52.417
855.00,52.400
856.00,52.376
857.00,52.376
858.00,52.371
859.00,52.311
860.00,52.325
861.00,52.353
862.00,52.308
863.00,52.292
864.00,52.412
865.00,52.330
866.00,52.269
867.00,52.293
868.00,52.257
869.00,52.246
870.00,52.228
871.00,52.208
872.00,52.205
873.00,52.180
874.00,52.197
875.00,52.149
876.00,52.172
877.00,52.130
878.00,52.144
879.00,52.114
880.00,52.097
881.00,52.107
882.00,52.139
883.00,52.061
884.00,52.026
885.00,52.038
886.00,52.006
887.00,51.992
888.00,51.973
889.00,51.971
890.00,51.978
891.00,51.926
892.00,51.906
893.00,51.878
894.00,51.901
895.00,51.858
896.00,51.863
897.00,51.801
898.00,51.784
899.00,51.791
900.00,51.788
901.00,51.791
902.00,51.777
903.00,51.749
904.00,51.732
905.00,51.738
906.00,51.722
907.00,51.656
908.00,51.679
909.00,51.657
910.00,51.618
911.00,51.589
912.00,51.604
913.00,51.575
914.00,51.544
915.00,51.594
916.00,51.447
917.00,51.526
918.00,51.509
919.00,51.477
920.00,51.419
921.00,51.442
922.00,51.427
923.00,51.394
924.00,51.375
925.00,51.383
926.00,51.334
927.00,51.345
928.00,51.319
929.00,51.308
930.00,51.266
931.00,51.240
932.00,51.210
933.00,51.232
934.00,51.347
935.00,51.219
936.00,51.183
937.00,51.171
938.00,51.159
939.00,51.135
940.00,51.106
941.00,51.104
942.00,51.064
943.00,51.046
944.00,51.003
945.00,51.031
946.00,51.014
947.00,50.982
948.00,50.934
949.00,50.969
950.00,50.933
951.00,50.899
952.00,50.887
953.00,50.854
954.00,50.822
955.00,50.786
956.00,50.774
957.00,50.737
958.00,50.751
959.00,50.687
960.00,50.698
961.00,50.696
962.00,50.692
963.00,50.649
964.00,50.639
965.00,50.642
966.00,50.612
967.00,50.619
968.00,50.597
969.00,50.616
970.00,50.590
971.00,50.623
972.00,50.569
973.00,50.608
974.00,50.641
975.00,50.600
976.00,50.608
977.00,50.532
978.00,50.635
979.00,50.605
980.00,50.620
981.00,50.617
982.00,50.589
983.00,50.593
984.00,50.564
985.00,50.600
986.00,50.557
987.00,50.589
988.00,50.525
989.00,50.530
990.00,50.519
991.00,50.505
992.00,50.519
993.00,50.491
994.00,50.480
995.00,50.459
996.00,50.457
997.00,50.440
998.00,50.410
999.00,50.420
1000.00,50.383
1001.00,50.401
1002.00,50.379
1003.00,50.378
1004.00,50.360
1005.00,50.334
1006.00,50.371
1007.00,50.355
1008.00,50.321
1009.00,50.294
1010.00,50.308
1011.00,50.291
1012.00,50.255
1013.00,50.262
1014.00,50.226
1015.00,50.238
1016.00,50.191
1017.00,50.194
1018.00,50.181
1019.00,50.136
1020.00,50.133
1021.00,50.118
1022.00,50.134
1023.00,50.083
1024.00,50.092
1025.00,50.085
1026.00,50.044
1027.00,50.018
1028.00,50.024
1029.00,50.013
1030.00,49.978
1031.00,49.991
1032.00,49.942
1033.00,49.949
1034.00,49.930
1035.00,49.917
1036.00,49.877
1037.00,49.862
1038.00,49.870
1039.00,49.821
1040.00,49.834
1041.00,49.784
1042.00,49.788
1043.00,49.767
1044.00,49.798
1045.00,49.780
1046.00,49.777
1047.00,49.796
1048.00,49.780
1049.00,49.777
1050.00,49.776
1051.00,49.838
1052.00,49.811
1053.00,49.825
1054.00,49.824
1055.00,49.859
1056.00,49.857
1057.00,49.857
1058.00,49.859
1059.00,49.862
1060.00,49.862
1061.00,49.841
1062.00,49.833
1063.00,49.827
1064.00,49.834
1065.00,49.811
1066.00,49.824
1067.00,49.817
1068.00,49.847
1069.00,49.811
1070.00,49.815
1071.00,49.803
1072.00,49.802
1073.00,49.772
1074.00,49.767
1075.00,49.753
1076.00,49.762
1077.00,49.743
1078.00,49.729
1079.00,49.734
1080.00,49.736
1081.00,49.734
1082.00,49.714
1083.00,49.702
1084.00,49.727
1085.00,49.695
1086.00,49.693
1087.00,49.715
1088.00,49.662
1089.00,49.657
1090.00,49.658
1091.00,49.666
1092.00,49.656
1093.00,49.641
1094.00,49.629
1095.00,49.624
1096.00,49.600
1097.00,49.610
1098.00,49.588
1099.00,49.588
1100.00,49.574
1101.00,49.571
1102.00,49.557
1103.00,49.571
1104.00,49.537
1105.00,49.525
1106.00,49.509
1107.00,49.496
1108.00,49.489
1109.00,49.483
1110.00,49.480
1111.00,49.470
1112.00,49.467
1113.00,49.472
1114.00,49.454
1115.00,49.443
1116.00,49.424
1117.00,49.416
1118.00,49.395
1119.00,49.395
1120.00,49.401
1121.00,49.414
1122.00,49.390
1123.00,49.402
1124.00,49.380
1125.00,49.381
1126.00,49.358
1127.00,49.355
1128.00,49.346
1129.00,49.326
1130.00,49.321
1131.00,49.327
1132.00,49.323
1133.00,49.326
1134.00,49.314
1135.00,49.303
1136.00,49.325
1137.00,49.325
1138.00,49.310
1139.00,49.334
1140.00,49.306
1141.00,49.306
1142.00,49.287
1143.00,49.304
1144.00,49.286
1145.00,49.283
1146.00,49.271
1147.00,49.274
1148.00,49.263
1149.00,49.281
1150.00,49.297
1151.00,49.296
1152.00,49.289
1153.00,49.286
1154.00,49.260
1155.00,49.274
1156.00,49.261
1157.00,49.259
1158.00,49.256
1159.00,49.248
1160.00,49.248
1161.00,49.276
1162.00,49.262
1163.00,49.281
1164.00,49.266
1165.00,49.261
1166.00,49.267
1167.00,49.256
1168.00,49.283
1169.00,49.275
1170.00,49.261
1171.00,49.251
1172.00,49.258
1173.00,49.233
1174.00,49.236
1175.00,49.242
1176.00,49.246
1177.00,49.243
1178.00,49.247
1179.00,49.239
1180.00,49.227
1181.00,49.244
1182.00,49.225
1183.00,49.239
1184.00,49.214
1185.00,49.230
1186.00,49.223
1187.00,49.246
1188.00,49.239
1189.00,49.224
1190.00,49.220
1191.00,49.223
1192.00,49.244
1193.00,49.224
1194.00,49.245
1195.00,49.220
1196.00,49.254
1197.00,49.242
1198.00,49.251
1199.00,49.250
1200.00,49.243
1201.00,49.259
1202.00,49.238
1203.00,49.235
1204.00,49.219
1205.00,49.243
1206.00,49.228
1207.00,49.234
1208.00,49.232
1209.00,49.240
1210.00,49.238
1211.00,49.235
1212.00,49.265
1213.00,49.232
1214.00,49.250
1215.00,49.216
1216.00,49.239
1217.00,49.236
1218.00,49.223
1219.00,49.244
1220.00,49.242
1221.00,49.255
1222.00,49.247
1223.00,49.260
1224.00,49.257
1225.00,49.238
1226.00,49.245
1227.00,49.242
1228.00,49.256
1229.00,49.258
1230.00,49.279
1231.00,49.274
1232.00,49.302
1233.00,49.301
1234.00,49.296
1235.00,49.306
1236.00,49.297
1237.00,49.297
1238.00,49.299
1239.00,49.309
1240.00,49.287
1241.00,49.301
1242.00,49.303
1243.00,49.312
1244.00,49.290
1245.00,49.332
1246.00,49.347
1247.00,49.321
1248.00,49.326
1249.00,49.347
1250.00,49.350
1251.00,49.339
1252.00,49.350
1253.00,49.351
1254.00,49.373
1255.00,49.355
1256.00,49.359
1257.00,49.356
1258.00,49.395
1259.00,49.388
1260.00,49.424
1261.00,49.405
1262.00,49.406
1263.00,49.400
1264.00,49.410
1265.00,49.405
1266.00,49.409
1267.00,49.428
1268.00,49.434
1269.00,49.436
1270.00,49.447
1271.00,49.450
1272.00,49.449
1273.00,49.467
1274.00,49.461
1275.00,49.485
1276.00,49.481
1277.00,49.483
1278.00,49.496
1279.00,49.504
1280.00,49.492
1281.00,49.510
1282.00,49.540
1283.00,49.517
1284.00,49.518
1285.00,49.515
1286.00,49.540
1287.00,49.536
1288.00,49.529
1289.00,49.528
1290.00,49.563
1291.00,49.550
1292.00,49.551
1293.00,49.564
1294.00,49.564
1295.00,49.582
1296.00,49.584
1297.00,49.596
1298.00,49.629
1299.00,49.605
1300.00,49.633
1301.00,49.618
1302.00,49.634
1303.00,49.628
1304.00,49.621
1305.00,49.656
1306.00,49.668
1307.00,49.685
1308.00,49.681
1309.00,49.698
1310.00,49.691
1311.00,49.678
1312.00,49.704
1313.00,49.707
1314.00,49.730
1315.00,49.754
1316.00,49.738
1317.00,49.772
1318.00,49.772
1319.00,49.771
1320.00,49.769
1321.00,49.921
1322.00,49.912
1323.00,49.914
1324.00,49.910
1325.00,49.897
1326.00,49.920
1327.00,49.898
1328.00,49.907
1329.00,49.908
1330.00,49.917
1331.00,49.918
1332.00,49.916
1333.00,49.925
1334.00,49.963
1335.00,49.957
1336.00,49.993
1337.00,50.021
1338.00,50.083
1339.00,50.133
1340.00,50.187
1341.00,50.278
1342.00,50.302
1343.00,50.327
1344.00,50.407
1345.00,50.483
1346.00,50.518
1347.00,50.537
1348.00,50.558
1349.00,50.570
1350.00,50.579
1351.00,50.605
1352.00,50.623
1353.00,50.644
1354.00,50.677
1355.00,50.661
1356.00,50.700
1357.00,50.684
1358.00,50.740
1359.00,50.624
1360.00,50.705
1361.00,50.707
1362.00,50.637
1363.00,50.768
1364.00,50.811
1365.00,50.700
1366.00,50.744
1367.00,50.735
1368.00,50.642
1369.00,50.707
1370.00,50.694
1371.00,50.637
1372.00,50.664
1373.00,50.678
1374.00,50.707
1375.00,50.684
1376.00,50.686
1377.00,50.669
1378.00,50.774
1379.00,50.740
1380.00,50.717
1381.00,50.786
1382.00,50.751
1383.00,50.742
1384.00,50.712
1385.00,50.694
1386.00,50.721
1387.00,50.702
1388.00,50.675
1389.00,50.654
1390.00,50.685
1391.00,50.696
1392.00,50.663
1393.00,50.699
1394.00,50.733
1395.00,50.705
1396.00,50.656
1397.00,50.650
1398.00,50.658
1399.00,50.742
1400.00,50.700
1401.00,50.627
1402.00,50.638
1403.00,50.759
1404.00,50.721
1405.00,50.689
1406.00,50.771
1407.00,50.743
1408.00,50.849
1409.00,50.751
1410.00,50.792
1411.00,50.723
1412.00,50.793
1413.00,50.849
1414.00,50.801
1415.00,50.801
1416.00,50.803
1417.00,50.826
1418.00,50.870
1419.00,50.871
1420.00,50.879
1421.00,50.897
1422.00,50.910
1423.00,50.949
1424.00,50.935
1425.00,50.974
1426.00,50.978
1427.00,51.019
1428.00,51.004
1429.00,51.010
1430.00,51.039
1431.00,51.041
1432.00,51.077
1433.00,51.125
1434.00,51.081
1435.00,51.144
1436.00,51.151
1437.00,51.154
1438.00,51.160
1439.00,51.200
1440.00,51.218
1441.00,51.215
1442.00,51.237
1443.00,51.253
1444.00,51.322
1445.00,51.298
1446.00,51.304
1447.00,51.321
1448.00,51.348
1449.00,51.357
1450.00,51.372
1451.00,51.394
1452.00,51.408
1453.00,51.427
1454.00,51.451
1455.00,51.478
1456.00,51.493
1457.00,51.477
1458.00,51.508
1459.00,51.533
1460.00,51.549
1461.00,51.544
1462.00,51.589
1463.00,51.598
1464.00,51.601
1465.00,51.625
1466.00,51.645
1467.00,51.636
1468.00,51.687
1469.00,51.659
1470.00,51.696
1471.00,51.699
1472.00,51.727
1473.00,51.742
1474.00,51.761
1475.00,51.782
1476.00,51.816
1477.00,51.798
1478.00,51.822
1479.00,51.844
1480.00,51.835
1481.00,51.850
1482.00,51.882
1483.00,51.915
1484.00,51.935
1485.00,51.928
1486.00,51.951
1487.00,51.978
1488.00,52.011
1489.00,51.990
1490.00,52.026
1491.00,52.031
1492.00,52.058
1493.00,52.031
1494.00,52.072
1495.00,52.059
1496.00,52.085
1497.00,52.061
1498.00,52.103
1499.00,52.112
1500.00,52.127
1501.00, 
1502.00, 
1503.00, 
1504.00, 
1505.00, 
1506.00, 
1507.00, 
1508.00, 
1509.00, 
1510.00, 
1511.00, 
1512.00, 
1513.00, 
1514.00, 
1515.00, 
1516.00, 
1517.00, 
1518.00, 
1519.00, 
1520.00, 
1521.00, 
1522.00, 
1523.00, 
1524.00, 
1525.00, 
1526.00, 
1527.00, 
1528.00, 
1529.00, 
1530.00, 
1531.00, 
1532.00, 
1533.00, 
1534.00, 
1535.00, 
1536.00, 
1537.00, 
1538.00, 
1539.00, 
1540.00, 
1541.00, 
1542.00, 
1543.00, 
1544.00, 
1545.00, 
1546.00, 
1547.00, 
1548.00, 
1549.00, 
1550.00, 
1551.00, 
1552.00, 
1553.00, 
1554.00, 
1555.00, 
1556.00, 
1557.00, 
1558.00, 
1559.00, 
1560.00, 
1561.00, 
1562.00, 
1563.00, 
1564.00, 
1565.00, 
1566.00, 
1567.00, 
1568.00, 
1569.00, 
1570.00, 
1571.00, 
1572.00, 
1573.00, 
1574.00, 
1575.00, 
1576.00, 
1577.00, 
1578.00, 
1579.00, 
1580.00, 
1581.00, 
1582.00, 
1583.00, 
1584.00, 
1585.00, 
1586.00, 
1587.00, 
1588.00, 
1589.00, 
1590.00, 
1591.00, 
1592.00, 
1593.00, 
1594.00, 
1595.00, 
1596.00, 
1597.00, 
1598.00, 
1599.00, 
1600.00, 
1601.00, 
1602.00, 
1603.00, 
1604.00, 
1605.00, 
1606.00, 
1607.00, 
1608.00, 
1609.00, 
1610.00, 
1611.00, 
1612.00, 
1613.00, 
1614.00, 
1615.00, 
1616.00, 
1617.00, 
1618.00, 
1619.00, 
1620.00, 
1621.00, 
1622.00, 
1623.00, 
1624.00, 
1625.00, 
1626.00, 
1627.00, 
1628.00, 
1629.00, 
1630.00, 
1631.00, 
1632.00, 
1633.00, 
1634.00, 
1635.00, 
1636.00, 
1637.00, 
1638.00, 
1639.00, 
1640.00, 
1641.00, 
1642.00, 
1643.00, 
1644.00, 
1645.00, 
1646.00, 
1647.00, 
1648.00, 
1649.00, 
1650.00, 
1651.00, 
1652.00, 
1653.00, 
1654.00, 
1655.00, 
1656.00, 
1657.00, 
1658.00, 
1659.00, 
1660.00, 
1661.00, 
1662.00, 
1663.00, 
1664.00, 
1665.00, 
1666.00, 
1667.00, 
1668.00, 
1669.00, 
1670.00, 
1671.00, 
1672.00, 
1673.00, 
1674.00, 
1675.00, 
1676.00, 
1677.00, 
1678.00, 
1679.00, 
1680.00, 
1681.00, 
1682.00, 
1683.00, 
1684.00, 
1685.00, 
1686.00, 
1687.00, 
1688.00, 
1689.00, 
1690.00, 
1691.00, 
1692.00, 
1693.00, 
1694.00, 
1695.00, 
1696.00, 
1697.00, 
1698.00, 
1699.00, 
1700.00, 
1701.00, 
1702.00, 
1703.00, 
1704.00, 
1705.00, 
1706.00, 
1707.00, 
1708.00, 
1709.00, 
1710.00, 
1711.00, 
1712.00, 
1713.00, 
1714.00, 
1715.00, 
1716.00, 
1717.00, 
1718.00, 
1719.00, 
1720.00, 
1721.00, 
1722.00, 
1723.00, 
1724.00, 
1725.00, 
1726.00, 
1727.00, 
1728.00, 
1729.00, 
1730.00, 
1731.00, 
1732.00, 
1733.00, 
1734.00, 
1735.00, 
1736.00, 
1737.00, 
1738.00, 
1739.00, 
1740.00, 
1741.00, 
1742.00, 
1743.00, 
1744.00, 
1745.00, 
1746.00, 
1747.00, 
1748.00, 
1749.00, 
1750.00, 
1751.00, 
1752.00, 
1753.00, 
1754.00, 
1755.00, 
1756.00, 
1757.00, 
1758.00, 
1759.00, 
1760.00, 
1761.00, 
1762.00, 
1763.00, 
1764.00, 
1765.00, 
1766.00, 
1767.00, 
1768.00, 
1769.00, 
1770.00, 
1771.00, 
1772.00, 
1773.00, 
1774.00, 
1775.00, 
1776.00, 
1777.00, 
1778.00, 
1779.00, 
1780.00, 
1781.00, 
1782.00, 
1783.00, 
1784.00, 
1785.00, 
1786.00, 
1787.00, 
1788.00, 
1789.00, 
1790.00, 
1791.00, 
1792.00, 
1793.00, 
1794.00, 
1795.00, 
1796.00, 
1797.00, 
1798.00, 
1799.00, 
1800.00, 
1801.00, 
1802.00, 
1803.00, 
1804.00, 
1805.00, 
1806.00, 
1807.00, 
1808.00, 
1809.00, 
1810.00, 
1811.00, 
1812.00, 
1813.00, 
1814.00, 
1815.00, 
1816.00, 
1817.00, 
1818.00, 
1819.00, 
1820.00, 
1821.00, 
1822.00, 
1823.00, 
1824.00, 
1825.00, 
1826.00, 
1827.00, 
1828.00, 
1829.00, 
1830.00, 
1831.00, 
1832.00, 
1833.00, 
1834.00, 
1835.00, 
1836.00, 
1837.00, 
1838.00, 
1839.00, 
1840.00, 
1841.00, 
1842.00, 
1843.00, 
1844.00, 
1845.00, 
1846.00, 
1847.00, 
1848.00, 
1849.00, 
1850.00, 
1851.00, 
1852.00, 
1853.00, 
1854.00, 
1855.00, 
1856.00, 
1857.00, 
1858.00, 
1859.00, 
1860.00, 
1861.00, 
1862.00, 
1863.00, 
1864.00, 
1865.00, 
1866.00, 
1867.00, 
1868.00, 
1869.00, 
1870.00, 
1871.00, 
1872.00, 
1873.00, 
1874.00, 
1875.00, 
1876.00, 
1877.00, 
1878.00, 
1879.00, 
1880.00, 
1881.00, 
1882.00, 
1883.00, 
1884.00, 
1885.00, 
1886.00, 
1887.00, 
1888.00, 
1889.00, 
1890.00, 
1891.00, 
1892.00, 
1893.00, 
1894.00, 
1895.00, 
1896.00, 
1897.00, 
1898.00, 
1899.00, 
1900.00, 
1901.00, 
1902.00, 
1903.00, 
1904.00, 
1905.00, 
1906.00, 
1907.00, 
1908.00, 
1909.00, 
1910.00, 
1911.00, 
1912.00, 
1913.00, 
1914.00, 
1915.00, 
1916.00, 
1917.00, 
1918.00, 
1919.00, 
1920.00, 
1921.00, 
1922.00, 
1923.00, 
1924.00, 
1925.00, 
1926.00, 
1927.00, 
1928.00, 
1929.00, 
1930.00, 
1931.00, 
1932.00, 
1933.00, 
1934.00, 
1935.00, 
1936.00, 
1937.00, 
1938.00, 
1939.00, 
1940.00, 
1941.00, 
1942.00, 
1943.00, 
1944.00, 
1945.00, 
1946.00, 
1947.00, 
1948.00, 
1949.00, 
1950.00, 
1951.00, 
1952.00, 
1953.00, 
1954.00, 
1955.00, 
1956.00, 
1957.00, 
1958.00, 
1959.00, 
1960.00, 
1961.00, 
1962.00, 
1963.00, 
1964.00, 
1965.00, 
1966.00, 
1967.00, 
1968.00, 
1969.00, 
1970.00, 
1971.00, 
1972.00, 
1973.00, 
1974.00, 
1975.00, 
1976.00, 
1977.00, 
1978.00, 
1979.00, 
1980.00, 
1981.00, 
1982.00, 
1983.00, 
1984.00, 
1985.00, 
1986.00, 
1987.00, 
1988.00, 
1989.00, 
1990.00, 
1991.00, 
1992.00, 
1993.00, 
1994.00, 
1995.00, 
1996.00, 
1997.00, 
1998.00, 
1999.00, 
2000.00, 
2001.00, 
2002.00, 
2003.00, 
2004.00, 
2005.00, 
2006.00, 
2007.00, 
2008.00, 
2009.00, 
2010.00, 
2011.00, 
2012.00, 
2013.00, 
2014.00, 
2015.00, 
2016.00, 
2017.00, 
2018.00, 
2019.00, 
2020.00, 
2021.00, 
2022.00, 
2023.00, 
2024.00, 
2025.00, 
2026.00, 
2027.00, 
2028.00, 
2029.00, 
2030.00, 
2031.00, 
2032.00, 
2033.00, 
2034.00, 
2035.00, 
2036.00, 
2037.00, 
2038.00, 
2039.00, 
2040.00, 
2041.00, 
2042.00, 
2043.00, 
2044.00, 
2045.00, 
2046.00, 
2047.00, 
2048.00, 
2049.00, 
2050.00, 
2051.00, 
2052.00, 
2053.00, 
2054.00, 
2055.00, 
2056.00, 
2057.00, 
2058.00, 
2059.00, 
2060.00, 
2061.00, 
2062.00, 
2063.00, 
2064.00, 
2065.00, 
2066.00, 
2067.00, 
2068.00, 
2069.00, 
2070.00, 
2071.00, 
2072.00, 
2073.00, 
2074.00, 
2075.00, 
2076.00, 
2077.00, 
2078.00, 
2079.00, 
2080.00, 
2081.00, 
2082.00, 
2083.00, 
2084.00, 
2085.00, 
2086.00, 
2087.00, 
2088.00, 
2089.00, 
2090.00, 
2091.00, 
2092.00, 
2093.00, 
2094.00, 
2095.00, 
2096.00, 
2097.00, 
2098.00, 
2099.00, 
2100.00, 
2101.00, 
2102.00, 
2103.00, 
2104.00, 
2105.00, 
2106.00, 
2107.00, 
2108.00, 
2109.00, 
2110.00, 
2111.00, 
2112.00, 
2113.00, 
2114.00, 
2115.00, 
2116.00, 
2117.00, 
2118.00, 
2119.00, 
2120.00, 
2121.00, 
2122.00, 
2123.00, 
2124.00, 
2125.00, 
2126.00, 
2127.00, 
2128.00, 
2129.00, 
2130.00, 
2131.00, 
2132.00, 
2133.00, 
2134.00, 
2135.00, 
2136.00, 
2137.00, 
2138.00, 
2139.00, 
2140.00, 
2141.00, 
2142.00, 
2143.00, 
2144.00, 
2145.00, 
2146.00, 
2147.00, 
2148.00, 
2149.00, 
2150.00, 
2151.00, 
2152.00, 
2153.00, 
2154.00, 
2155.00, 
2156.00, 
2157.00, 
2158.00, 
2159.00, 
2160.00, 
2161.00, 
2162.00, 
2163.00, 
2164.00, 
2165.00, 
2166.00, 
2167.00, 
2168.00, 
2169.00, 
2170.00, 
2171.00, 
2172.00, 
2173.00, 
2174.00, 
2175.00, 
2176.00, 
2177.00, 
2178.00, 
2179.00, 
2180.00, 
2181.00, 
2182.00, 
2183.00, 
2184.00, 
2185.00, 
2186.00, 
2187.00, 
2188.00, 
2189.00, 
2190.00, 
2191.00, 
2192.00, 
2193.00, 
2194.00, 
2195.00, 
2196.00, 
2197.00, 
2198.00, 
2199.00, 
2200.00, 
2201.00, 
2202.00, 
2203.00, 
2204.00, 
2205.00, 
2206.00, 
2207.00, 
2208.00, 
2209.00, 
2210.00, 
2211.00, 
2212.00, 
2213.00, 
2214.00, 
2215.00, 
2216.00, 
2217.00, 
2218.00, 
2219.00, 
2220.00, 
2221.00, 
2222.00, 
2223.00, 
2224.00, 
2225.00, 
2226.00, 
2227.00, 
2228.00, 
2229.00, 
2230.00, 
2231.00, 
2232.00, 
2233.00, 
2234.00, 
2235.00, 
2236.00, 
2237.00, 
2238.00, 
2239.00, 
2240.00, 
2241.00, 
2242.00, 
2243.00, 
2244.00, 
2245.00, 
2246.00, 
2247.00, 
2248.00, 
2249.00, 
2250.00, 
2251.00, 
2252.00, 
2253.00, 
2254.00, 
2255.00, 
2256.00, 
2257.00, 
2258.00, 
2259.00, 
2260.00, 
2261.00, 
2262.00, 
2263.00, 
2264.00, 
2265.00, 
2266.00, 
2267.00, 
2268.00, 
2269.00, 
2270.00, 
2271.00, 
2272.00, 
2273.00, 
2274.00, 
2275.00, 
2276.00, 
2277.00, 
2278.00, 
2279.00, 
2280.00, 
2281.00, 
2282.00, 
2283.00, 
2284.00, 
2285.00, 
2286.00, 
2287.00, 
2288.00, 
2289.00, 
2290.00, 
2291.00, 
2292.00, 
2293.00, 
2294.00, 
2295.00, 
2296.00, 
2297.00, 
2298.00, 
2299.00, 
2300.00, 
2301.00, 
2302.00, 
2303.00, 
2304.00, 
2305.00, 
2306.00, 
2307.00, 
2308.00, 
2309.00, 
2310.00, 
2311.00, 
2312.00, 
2313.00, 
2314.00, 
2315.00, 
2316.00, 
2317.00, 
2318.00, 
2319.00, 
2320.00, 
2321.00, 
2322.00, 
2323.00, 
2324.00, 
2325.00, 
2326.00, 
2327.00, 
2328.00, 
2329.00, 
2330.00, 
2331.00, 
2332.00, 
2333.00, 
2334.00, 
2335.00, 
2336.00, 
2337.00, 
2338.00, 
2339.00, 
2340.00, 
2341.00, 
2342.00, 
2343.00, 
2344.00, 
2345.00, 
2346.00, 
2347.00, 
2348.00, 
2349.00, 
2350.00, 
2351.00, 
2352.00, 
2353.00, 
2354.00, 
2355.00, 
2356.00, 
2357.00, 
2358.00, 
2359.00, 
2360.00, 
2361.00, 
2362.00, 
2363.00, 
2364.00, 
2365.00, 
2366.00, 
2367.00, 
2368.00, 
2369.00, 
2370.00, 
2371.00, 
2372.00, 
2373.00, 
2374.00, 
2375.00, 
2376.00, 
2377.00, 
2378.00, 
2379.00, 
2380.00, 
2381.00, 
2382.00, 
2383.00, 
2384.00, 
2385.00, 
2386.00, 
2387.00, 
2388.00, 
2389.00, 
2390.00, 
2391.00, 
2392.00, 
2393.00, 
2394.00, 
2395.00, 
2396.00, 
2397.00, 
2398.00, 
2399.00, 
2400.00, 
2401.00, 
2402.00, 
2403.00, 
2404.00, 
2405.00, 
2406.00, 
2407.00, 
2408.00, 
2409.00, 
2410.00, 
2411.00, 
2412.00, 
2413.00, 
2414.00, 
2415.00, 
2416.00, 
2417.00, 
2418.00, 
2419.00, 
2420.00, 
2421.00, 
2422.00, 
2423.00, 
2424.00, 
2425.00, 
2426.00, 
2427.00, 
2428.00, 
2429.00, 
2430.00, 
2431.00, 
2432.00, 
2433.00, 
2434.00, 
2435.00, 
2436.00, 
2437.00, 
2438.00, 
2439.00, 
2440.00, 
2441.00, 
2442.00, 
2443.00, 
2444.00, 
2445.00, 
2446.00, 
2447.00, 
2448.00, 
2449.00, 
2450.00, 
2451.00, 
2452.00, 
2453.00, 
2454.00, 
2455.00, 
2456.00, 
2457.00, 
2458.00, 
2459.00, 
2460.00, 
2461.00, 
2462.00, 
2463.00, 
2464.00, 
2465.00, 
2466.00, 
2467.00, 
2468.00, 
2469.00, 
2470.00, 
2471.00, 
2472.00, 
2473.00, 
2474.00, 
2475.00, 
2476.00, 
2477.00, 
2478.00, 
2479.00, 
2480.00, 
2481.00, 
2482.00, 
2483.00, 
2484.00, 
2485.00, 
2486.00, 
2487.00, 
2488.00, 
2489.00, 
2490.00, 
2491.00, 
2492.00, 
2493.00, 
2494.00, 
2495.00, 
2496.00, 
2497.00, 
2498.00, 
2499.00, 
2500.00, 
2501.00, 
2502.00, 
2503.00, 
2504.00, 
2505.00, 
2506.00, 
2507.00, 
2508.00, 
2509.00, 
2510.00, 
2511.00, 
2512.00, 
2513.00, 
2514.00, 
2515.00, 
2516.00, 
2517.00, 
2518.00, 
2519.00, 
2520.00, 
2521.00, 
2522.00, 
2523.00, 
2524.00, 
2525.00, 
2526.00, 
2527.00, 
2528.00, 
2529.00, 
2530.00, 
2531.00, 
2532.00, 
2533.00, 
2534.00, 
2535.00, 
2536.00, 
2537.00, 
2538.00, 
2539.00, 
2540.00, 
2541.00, 
2542.00, 
2543.00, 
2544.00, 
2545.00, 
2546.00, 
2547.00, 
2548.00, 
2549.00, 
2550.00, 
2551.00, 
2552.00, 
2553.00, 
2554.00, 
2555.00, 
2556.00, 
2557.00, 
2558.00, 
2559.00, 
2560.00, 
2561.00, 
2562.00, 
2563.00, 
2564.00, 
2565.00, 
2566.00, 
2567.00, 
2568.00, 
2569.00, 
2570.00, 
2571.00, 
2572.00, 
2573.00, 
2574.00, 
2575.00, 
2576.00, 
2577.00, 
2578.00, 
2579.00, 
2580.00, 
2581.00, 
2582.00, 
2583.00, 
2584.00, 
2585.00, 
2586.00, 
2587.00, 
2588.00, 
2589.00, 
2590.00, 
2591.00, 
2592.00, 
2593.00, 
2594.00, 
2595.00, 
2596.00, 
2597.00, 
2598.00, 
2599.00, 
2600.00, 
