"2cP1 - RawData"
"Wavelength nm.","T%"
200.00,0.001
201.00,0.000
202.00,0.004
203.00,0.002
204.00,0.001
205.00,0.003
206.00,0.000
207.00,0.003
208.00,0.001
209.00,-0.002
210.00,-0.000
211.00,0.005
212.00,0.001
213.00,0.000
214.00,0.001
215.00,0.002
216.00,0.006
217.00,0.003
218.00,-0.000
219.00,0.004
220.00,0.000
221.00,0.001
222.00,-0.001
223.00,0.001
224.00,0.001
225.00,0.001
226.00,0.001
227.00,0.002
228.00,-0.002
229.00,0.004
230.00,-0.000
231.00,0.000
232.00,-0.003
233.00,0.000
234.00,0.001
235.00,-0.000
236.00,0.002
237.00,0.000
238.00,0.000
239.00,0.001
240.00,0.001
241.00,0.000
242.00,-0.000
243.00,0.001
244.00,-0.000
245.00,0.000
246.00,0.001
247.00,0.001
248.00,-0.000
249.00,-0.001
250.00,-0.000
251.00,0.000
252.00,-0.001
253.00,0.001
254.00,0.001
255.00,0.000
256.00,-0.000
257.00,-0.001
258.00,-0.000
259.00,-0.001
260.00,0.003
261.00,-0.001
262.00,0.001
263.00,0.001
264.00,0.001
265.00,-0.000
266.00,0.001
267.00,-0.001
268.00,0.001
269.00,0.000
270.00,0.001
271.00,-0.001
272.00,0.000
273.00,0.001
274.00,0.000
275.00,-0.000
276.00,0.000
277.00,0.000
278.00,-0.001
279.00,0.001
280.00,0.000
281.00,0.001
282.00,0.001
283.00,0.001
284.00,0.001
285.00,-0.000
286.00,0.000
287.00,-0.001
288.00,0.000
289.00,0.000
290.00,-0.001
291.00,-0.001
292.00,0.002
293.00,-0.000
294.00,0.001
295.00,-0.000
296.00,-0.000
297.00,0.000
298.00,0.001
299.00,0.001
300.00,-0.001
301.00,0.004
302.00,0.004
303.00,0.006
304.00,0.010
305.00,0.017
306.00,0.024
307.00,0.034
308.00,0.055
309.00,0.091
310.00,0.126
311.00,0.166
312.00,0.227
313.00,0.305
314.00,0.404
315.00,0.527
316.00,0.681
317.00,0.863
318.00,1.056
319.00,1.306
320.00,1.590
321.00,1.851
322.00,2.226
323.00,2.623
324.00,3.044
325.00,3.467
326.00,3.928
327.00,4.345
328.00,4.926
329.00,5.458
330.00,6.005
331.00,6.555
332.00,7.107
333.00,7.715
334.00,8.298
335.00,8.895
336.00,9.476
337.00,10.074
338.00,10.596
339.00,11.143
340.00,11.694
341.00,12.202
342.00,12.707
343.00,13.186
344.00,13.667
345.00,14.065
346.00,14.511
347.00,14.885
348.00,15.283
349.00,15.619
350.00,15.912
351.00,16.256
352.00,16.518
353.00,16.832
354.00,17.083
355.00,17.275
356.00,17.496
357.00,17.731
358.00,17.881
359.00,18.094
360.00,18.226
361.00,18.351
362.00,18.521
363.00,18.638
364.00,18.793
365.00,18.865
366.00,18.949
367.00,18.989
368.00,19.061
369.00,19.081
370.00,19.152
371.00,19.147
372.00,19.160
373.00,19.160
374.00,19.114
375.00,19.119
376.00,19.067
377.00,19.046
378.00,18.991
379.00,18.968
380.00,18.929
381.00,18.891
382.00,18.892
383.00,18.899
384.00,18.906
385.00,18.950
386.00,18.953
387.00,19.044
388.00,18.971
389.00,19.010
390.00,19.030
391.00,19.061
392.00,19.059
393.00,19.063
394.00,19.059
395.00,19.079
396.00,19.065
397.00,19.030
398.00,19.065
399.00,19.054
400.00,19.064
401.00,19.052
402.00,19.041
403.00,19.028
404.00,19.009
405.00,19.004
406.00,18.992
407.00,18.951
408.00,18.953
409.00,18.937
410.00,18.908
411.00,18.883
412.00,18.865
413.00,18.884
414.00,18.845
415.00,18.875
416.00,18.920
417.00,18.904
418.00,18.893
419.00,18.930
420.00,18.938
421.00,18.991
422.00,18.954
423.00,19.053
424.00,19.076
425.00,19.125
426.00,19.122
427.00,19.182
428.00,19.228
429.00,19.244
430.00,19.315
431.00,19.356
432.00,19.372
433.00,19.455
434.00,19.501
435.00,19.543
436.00,19.593
437.00,19.668
438.00,19.720
439.00,19.787
440.00,19.872
441.00,19.956
442.00,20.020
443.00,20.090
444.00,20.241
445.00,20.229
446.00,20.340
447.00,20.423
448.00,20.511
449.00,20.612
450.00,20.724
451.00,20.843
452.00,20.910
453.00,21.008
454.00,21.126
455.00,21.235
456.00,21.342
457.00,21.461
458.00,21.576
459.00,21.690
460.00,21.792
461.00,21.900
462.00,22.033
463.00,22.157
464.00,22.286
465.00,22.393
466.00,22.487
467.00,22.666
468.00,22.728
469.00,22.871
470.00,22.976
471.00,23.090
472.00,23.214
473.00,23.294
474.00,23.431
475.00,23.543
476.00,23.632
477.00,23.799
478.00,23.893
479.00,24.045
480.00,24.196
481.00,24.354
482.00,24.500
483.00,24.621
484.00,24.792
485.00,24.987
486.00,25.078
487.00,25.241
488.00,25.367
489.00,25.493
490.00,25.662
491.00,25.804
492.00,25.941
493.00,26.102
494.00,26.207
495.00,26.322
496.00,26.435
497.00,26.554
498.00,26.721
499.00,26.851
500.00,26.957
501.00,27.109
502.00,27.271
503.00,27.394
504.00,27.491
505.00,27.623
506.00,27.753
507.00,27.823
508.00,27.979
509.00,28.108
510.00,28.287
511.00,28.398
512.00,28.539
513.00,28.589
514.00,28.773
515.00,28.880
516.00,28.957
517.00,29.037
518.00,29.171
519.00,29.298
520.00,29.496
521.00,29.593
522.00,29.673
523.00,29.803
524.00,29.932
525.00,30.010
526.00,30.054
527.00,30.154
528.00,30.236
529.00,30.294
530.00,30.411
531.00,30.575
532.00,30.682
533.00,30.846
534.00,30.845
535.00,30.970
536.00,31.068
537.00,31.124
538.00,31.263
539.00,31.332
540.00,31.413
541.00,31.522
542.00,31.587
543.00,31.662
544.00,31.742
545.00,31.825
546.00,31.865
547.00,31.974
548.00,32.063
549.00,32.111
550.00,32.254
551.00,32.274
552.00,32.360
553.00,32.448
554.00,32.498
555.00,32.588
556.00,32.669
557.00,32.702
558.00,32.824
559.00,32.860
560.00,32.927
561.00,32.985
562.00,33.042
563.00,33.086
564.00,33.150
565.00,33.181
566.00,33.223
567.00,33.293
568.00,33.314
569.00,33.380
570.00,33.401
571.00,33.464
572.00,33.552
573.00,33.573
574.00,33.661
575.00,33.671
576.00,33.706
577.00,33.747
578.00,33.818
579.00,33.919
580.00,33.956
581.00,34.092
582.00,34.130
583.00,34.118
584.00,34.344
585.00,34.331
586.00,34.437
587.00,34.546
588.00,34.540
589.00,34.644
590.00,34.694
591.00,34.696
592.00,34.806
593.00,34.870
594.00,34.845
595.00,34.884
596.00,34.953
597.00,34.993
598.00,35.085
599.00,35.132
600.00,35.191
601.00,35.283
602.00,35.294
603.00,35.319
604.00,35.395
605.00,35.455
606.00,35.485
607.00,35.521
608.00,35.660
609.00,35.596
610.00,35.651
611.00,35.699
612.00,35.794
613.00,35.851
614.00,35.931
615.00,35.934
616.00,36.037
617.00,36.093
618.00,36.170
619.00,36.212
620.00,36.224
621.00,36.286
622.00,36.326
623.00,36.446
624.00,36.529
625.00,36.608
626.00,36.672
627.00,36.740
628.00,36.781
629.00,36.909
630.00,36.944
631.00,36.949
632.00,37.069
633.00,37.121
634.00,37.221
635.00,37.303
636.00,37.388
637.00,37.496
638.00,37.539
639.00,37.614
640.00,37.715
641.00,37.774
642.00,37.852
643.00,37.912
644.00,38.039
645.00,38.112
646.00,38.199
647.00,38.299
648.00,38.366
649.00,38.390
650.00,38.528
651.00,38.663
652.00,38.659
653.00,38.745
654.00,38.864
655.00,38.912
656.00,39.116
657.00,39.231
658.00,39.375
659.00,39.419
660.00,39.519
661.00,39.590
662.00,39.759
663.00,39.773
664.00,39.890
665.00,39.953
666.00,40.033
667.00,40.165
668.00,40.211
669.00,40.358
670.00,40.497
671.00,40.544
672.00,40.708
673.00,40.798
674.00,40.899
675.00,41.024
676.00,41.079
677.00,41.198
678.00,41.319
679.00,41.376
680.00,41.547
681.00,41.715
682.00,41.628
683.00,41.761
684.00,41.996
685.00,41.996
686.00,41.994
687.00,42.184
688.00,42.328
689.00,42.408
690.00,42.478
691.00,42.633
692.00,42.658
693.00,42.702
694.00,42.812
695.00,42.993
696.00,43.071
697.00,43.214
698.00,43.322
699.00,43.370
700.00,43.553
701.00,43.569
702.00,43.684
703.00,43.838
704.00,43.948
705.00,43.926
706.00,44.104
707.00,44.209
708.00,44.037
709.00,44.241
710.00,44.545
711.00,44.482
712.00,44.495
713.00,44.601
714.00,44.682
715.00,44.807
716.00,44.877
717.00,44.987
718.00,45.106
719.00,45.147
720.00,45.233
721.00,49.169
722.00,49.262
723.00,49.218
724.00,49.337
725.00,49.240
726.00,49.390
727.00,49.361
728.00,49.452
729.00,49.455
730.00,49.500
731.00,49.549
732.00,49.566
733.00,49.618
734.00,49.707
735.00,49.771
736.00,49.733
737.00,49.856
738.00,49.893
739.00,49.927
740.00,49.977
741.00,50.003
742.00,50.063
743.00,50.028
744.00,50.148
745.00,50.066
746.00,50.132
747.00,50.148
748.00,50.070
749.00,50.116
750.00,50.209
751.00,50.169
752.00,50.205
753.00,50.222
754.00,50.225
755.00,50.229
756.00,50.276
757.00,50.333
758.00,50.329
759.00,50.392
760.00,50.394
761.00,50.299
762.00,50.431
763.00,50.451
764.00,50.438
765.00,50.472
766.00,50.452
767.00,50.521
768.00,50.567
769.00,50.544
770.00,50.565
771.00,50.581
772.00,50.705
773.00,50.616
774.00,50.593
775.00,50.736
776.00,50.638
777.00,50.687
778.00,50.641
779.00,50.802
780.00,50.757
781.00,50.694
782.00,50.797
783.00,50.737
784.00,50.819
785.00,50.761
786.00,50.729
787.00,50.781
788.00,50.759
789.00,50.722
790.00,50.823
791.00,50.804
792.00,50.809
793.00,50.748
794.00,50.743
795.00,50.788
796.00,50.712
797.00,50.687
798.00,50.761
799.00,50.603
800.00,50.753
801.00,50.675
802.00,50.699
803.00,50.644
804.00,50.638
805.00,50.674
806.00,50.676
807.00,50.610
808.00,50.634
809.00,50.616
810.00,50.673
811.00,50.593
812.00,50.725
813.00,50.590
814.00,50.608
815.00,50.600
816.00,50.634
817.00,50.569
818.00,50.529
819.00,50.582
820.00,50.546
821.00,50.512
822.00,50.554
823.00,50.478
824.00,50.541
825.00,50.514
826.00,50.461
827.00,50.535
828.00,50.478
829.00,50.536
830.00,50.516
831.00,52.970
832.00,53.000
833.00,52.926
834.00,52.939
835.00,52.910
836.00,52.905
837.00,52.894
838.00,52.861
839.00,52.842
840.00,52.805
841.00,52.852
842.00,52.816
843.00,52.776
844.00,52.787
845.00,52.752
846.00,52.770
847.00,52.746
848.00,52.713
849.00,52.605
850.00,52.657
851.00,52.567
852.00,52.585
853.00,52.570
854.00,52.507
855.00,52.526
856.00,52.477
857.00,52.467
858.00,52.465
859.00,52.428
860.00,52.426
861.00,52.431
862.00,52.385
863.00,52.383
864.00,52.361
865.00,52.380
866.00,52.320
867.00,52.337
868.00,52.349
869.00,52.337
870.00,52.231
871.00,52.365
872.00,52.283
873.00,52.266
874.00,52.261
875.00,52.261
876.00,52.235
877.00,52.242
878.00,52.218
879.00,52.200
880.00,52.198
881.00,52.174
882.00,52.212
883.00,52.170
884.00,52.122
885.00,52.118
886.00,52.093
887.00,52.069
888.00,52.048
889.00,52.045
890.00,52.036
891.00,51.990
892.00,52.004
893.00,51.926
894.00,51.963
895.00,51.919
896.00,51.911
897.00,51.889
898.00,51.858
899.00,51.839
900.00,51.849
901.00,51.876
902.00,51.846
903.00,51.826
904.00,51.827
905.00,51.792
906.00,51.777
907.00,51.746
908.00,51.727
909.00,51.714
910.00,51.685
911.00,51.651
912.00,51.698
913.00,51.639
914.00,51.615
915.00,51.673
916.00,51.537
917.00,51.585
918.00,51.557
919.00,51.548
920.00,51.499
921.00,51.510
922.00,51.483
923.00,51.474
924.00,51.444
925.00,51.430
926.00,51.401
927.00,51.400
928.00,51.388
929.00,51.359
930.00,51.329
931.00,51.312
932.00,51.310
933.00,51.303
934.00,51.248
935.00,51.243
936.00,51.241
937.00,51.214
938.00,51.205
939.00,51.198
940.00,51.142
941.00,51.187
942.00,51.122
943.00,51.124
944.00,51.094
945.00,51.076
946.00,51.073
947.00,51.069
948.00,51.027
949.00,51.008
950.00,50.985
951.00,50.956
952.00,50.924
953.00,50.904
954.00,50.871
955.00,50.815
956.00,50.861
957.00,50.787
958.00,50.813
959.00,50.779
960.00,50.766
961.00,50.741
962.00,50.758
963.00,50.714
964.00,50.688
965.00,50.679
966.00,50.662
967.00,50.678
968.00,50.657
969.00,50.659
970.00,50.635
971.00,50.664
972.00,50.635
973.00,50.649
974.00,50.682
975.00,50.649
976.00,50.646
977.00,50.559
978.00,50.678
979.00,50.620
980.00,50.663
981.00,50.677
982.00,50.660
983.00,50.643
984.00,50.631
985.00,50.645
986.00,50.610
987.00,50.640
988.00,50.596
989.00,50.596
990.00,50.587
991.00,50.574
992.00,50.594
993.00,50.544
994.00,50.511
995.00,50.511
996.00,50.494
997.00,50.495
998.00,50.472
999.00,50.486
1000.00,50.436
1001.00,50.457
1002.00,50.433
1003.00,50.444
1004.00,50.413
1005.00,50.388
1006.00,50.405
1007.00,50.390
1008.00,50.352
1009.00,50.342
1010.00,50.323
1011.00,50.332
1012.00,50.304
1013.00,50.298
1014.00,50.273
1015.00,50.280
1016.00,50.230
1017.00,50.245
1018.00,50.223
1019.00,50.201
1020.00,50.192
1021.00,50.155
1022.00,50.169
1023.00,50.116
1024.00,50.117
1025.00,50.110
1026.00,50.095
1027.00,50.069
1028.00,50.062
1029.00,50.047
1030.00,50.010
1031.00,50.033
1032.00,49.989
1033.00,49.985
1034.00,49.955
1035.00,49.931
1036.00,49.917
1037.00,49.889
1038.00,49.890
1039.00,49.839
1040.00,49.855
1041.00,49.805
1042.00,49.804
1043.00,49.761
1044.00,49.792
1045.00,49.783
1046.00,49.775
1047.00,49.794
1048.00,49.791
1049.00,49.805
1050.00,49.821
1051.00,49.841
1052.00,49.842
1053.00,49.853
1054.00,49.838
1055.00,49.865
1056.00,49.863
1057.00,49.870
1058.00,49.861
1059.00,49.858
1060.00,49.858
1061.00,49.864
1062.00,49.851
1063.00,49.873
1064.00,49.837
1065.00,49.815
1066.00,49.826
1067.00,49.803
1068.00,49.807
1069.00,49.796
1070.00,49.769
1071.00,49.752
1072.00,49.801
1073.00,49.786
1074.00,49.738
1075.00,49.727
1076.00,49.725
1077.00,49.718
1078.00,49.709
1079.00,49.689
1080.00,49.700
1081.00,49.676
1082.00,49.674
1083.00,49.667
1084.00,49.652
1085.00,49.626
1086.00,49.633
1087.00,49.625
1088.00,49.619
1089.00,49.604
1090.00,49.617
1091.00,49.607
1092.00,49.611
1093.00,49.594
1094.00,49.598
1095.00,49.555
1096.00,49.542
1097.00,49.534
1098.00,49.521
1099.00,49.514
1100.00,49.494
1101.00,49.489
1102.00,49.491
1103.00,49.478
1104.00,49.457
1105.00,49.445
1106.00,49.448
1107.00,49.430
1108.00,49.431
1109.00,49.415
1110.00,49.421
1111.00,49.414
1112.00,49.398
1113.00,49.385
1114.00,49.383
1115.00,49.371
1116.00,49.380
1117.00,49.361
1118.00,49.357
1119.00,49.343
1120.00,49.329
1121.00,49.342
1122.00,49.331
1123.00,49.323
1124.00,49.323
1125.00,49.311
1126.00,49.305
1127.00,49.300
1128.00,49.284
1129.00,49.255
1130.00,49.258
1131.00,49.245
1132.00,49.246
1133.00,49.231
1134.00,49.230
1135.00,49.214
1136.00,49.222
1137.00,49.206
1138.00,49.209
1139.00,49.214
1140.00,49.192
1141.00,49.195
1142.00,49.181
1143.00,49.186
1144.00,49.165
1145.00,49.155
1146.00,49.168
1147.00,49.161
1148.00,49.152
1149.00,49.164
1150.00,49.167
1151.00,49.176
1152.00,49.179
1153.00,49.173
1154.00,49.136
1155.00,49.143
1156.00,49.130
1157.00,49.136
1158.00,49.136
1159.00,49.122
1160.00,49.126
1161.00,49.131
1162.00,49.111
1163.00,49.118
1164.00,49.098
1165.00,49.097
1166.00,49.088
1167.00,49.085
1168.00,49.102
1169.00,49.095
1170.00,49.089
1171.00,49.073
1172.00,49.083
1173.00,49.068
1174.00,49.064
1175.00,49.055
1176.00,49.064
1177.00,49.060
1178.00,49.054
1179.00,49.079
1180.00,49.054
1181.00,49.065
1182.00,49.071
1183.00,49.071
1184.00,49.045
1185.00,49.063
1186.00,49.043
1187.00,49.060
1188.00,49.042
1189.00,49.038
1190.00,49.045
1191.00,49.041
1192.00,49.052
1193.00,49.058
1194.00,49.054
1195.00,49.018
1196.00,49.037
1197.00,49.033
1198.00,49.043
1199.00,49.027
1200.00,49.020
1201.00,49.038
1202.00,49.018
1203.00,49.019
1204.00,49.012
1205.00,49.025
1206.00,49.008
1207.00,49.015
1208.00,48.997
1209.00,48.996
1210.00,49.000
1211.00,48.996
1212.00,49.018
1213.00,48.982
1214.00,49.000
1215.00,48.996
1216.00,48.994
1217.00,48.998
1218.00,48.986
1219.00,48.989
1220.00,48.995
1221.00,48.995
1222.00,48.987
1223.00,49.004
1224.00,49.006
1225.00,48.990
1226.00,49.007
1227.00,48.985
1228.00,49.000
1229.00,49.007
1230.00,49.033
1231.00,49.036
1232.00,49.034
1233.00,49.032
1234.00,49.042
1235.00,49.037
1236.00,49.028
1237.00,49.035
1238.00,49.032
1239.00,49.032
1240.00,49.035
1241.00,49.030
1242.00,49.044
1243.00,49.052
1244.00,49.026
1245.00,49.064
1246.00,49.063
1247.00,49.050
1248.00,49.055
1249.00,49.060
1250.00,49.044
1251.00,49.059
1252.00,49.068
1253.00,49.053
1254.00,49.070
1255.00,49.064
1256.00,49.066
1257.00,49.033
1258.00,49.065
1259.00,49.081
1260.00,49.103
1261.00,49.093
1262.00,49.087
1263.00,49.079
1264.00,49.102
1265.00,49.089
1266.00,49.096
1267.00,49.101
1268.00,49.112
1269.00,49.108
1270.00,49.122
1271.00,49.115
1272.00,49.113
1273.00,49.129
1274.00,49.116
1275.00,49.130
1276.00,49.129
1277.00,49.131
1278.00,49.161
1279.00,49.148
1280.00,49.158
1281.00,49.168
1282.00,49.184
1283.00,49.161
1284.00,49.163
1285.00,49.145
1286.00,49.170
1287.00,49.168
1288.00,49.169
1289.00,49.172
1290.00,49.180
1291.00,49.186
1292.00,49.203
1293.00,49.185
1294.00,49.195
1295.00,49.208
1296.00,49.207
1297.00,49.224
1298.00,49.236
1299.00,49.224
1300.00,49.237
1301.00,49.248
1302.00,49.238
1303.00,49.268
1304.00,49.237
1305.00,49.249
1306.00,49.258
1307.00,49.260
1308.00,49.274
1309.00,49.267
1310.00,49.274
1311.00,49.282
1312.00,49.285
1313.00,49.269
1314.00,49.281
1315.00,49.283
1316.00,49.283
1317.00,49.297
1318.00,49.296
1319.00,49.295
1320.00,49.326
1321.00,49.480
1322.00,49.507
1323.00,49.478
1324.00,49.481
1325.00,49.473
1326.00,49.502
1327.00,49.487
1328.00,49.497
1329.00,49.492
1330.00,49.488
1331.00,49.500
1332.00,49.466
1333.00,49.493
1334.00,49.515
1335.00,49.539
1336.00,49.563
1337.00,49.574
1338.00,49.642
1339.00,49.689
1340.00,49.751
1341.00,49.820
1342.00,49.883
1343.00,49.920
1344.00,49.984
1345.00,50.044
1346.00,50.078
1347.00,50.101
1348.00,50.120
1349.00,50.136
1350.00,50.158
1351.00,50.165
1352.00,50.144
1353.00,50.181
1354.00,50.165
1355.00,50.160
1356.00,50.189
1357.00,50.189
1358.00,50.224
1359.00,50.212
1360.00,50.253
1361.00,50.132
1362.00,50.178
1363.00,50.246
1364.00,50.225
1365.00,50.186
1366.00,50.199
1367.00,50.181
1368.00,50.165
1369.00,50.192
1370.00,50.178
1371.00,50.140
1372.00,50.162
1373.00,50.164
1374.00,50.176
1375.00,50.169
1376.00,50.158
1377.00,50.157
1378.00,50.210
1379.00,50.150
1380.00,50.155
1381.00,50.172
1382.00,50.135
1383.00,50.142
1384.00,50.111
1385.00,50.120
1386.00,50.178
1387.00,50.095
1388.00,50.096
1389.00,50.133
1390.00,50.180
1391.00,50.104
1392.00,50.125
1393.00,50.167
1394.00,50.165
1395.00,50.103
1396.00,50.035
1397.00,50.070
1398.00,50.153
1399.00,50.154
1400.00,50.139
1401.00,50.107
1402.00,50.195
1403.00,50.138
1404.00,50.155
1405.00,50.172
1406.00,50.157
1407.00,50.197
1408.00,50.203
1409.00,50.160
1410.00,50.210
1411.00,50.213
1412.00,50.257
1413.00,50.180
1414.00,50.194
1415.00,50.232
1416.00,50.246
1417.00,50.248
1418.00,50.254
1419.00,50.241
1420.00,50.274
1421.00,50.302
1422.00,50.299
1423.00,50.290
1424.00,50.327
1425.00,50.319
1426.00,50.339
1427.00,50.364
1428.00,50.355
1429.00,50.383
1430.00,50.397
1431.00,50.382
1432.00,50.422
1433.00,50.434
1434.00,50.429
1435.00,50.475
1436.00,50.474
1437.00,50.464
1438.00,50.497
1439.00,50.516
1440.00,50.533
1441.00,50.555
1442.00,50.544
1443.00,50.592
1444.00,50.599
1445.00,50.580
1446.00,50.597
1447.00,50.628
1448.00,50.656
1449.00,50.668
1450.00,50.659
1451.00,50.682
1452.00,50.682
1453.00,50.729
1454.00,50.715
1455.00,50.743
1456.00,50.753
1457.00,50.774
1458.00,50.765
1459.00,50.800
1460.00,50.807
1461.00,50.817
1462.00,50.835
1463.00,50.864
1464.00,50.859
1465.00,50.875
1466.00,50.887
1467.00,50.911
1468.00,50.955
1469.00,50.926
1470.00,50.952
1471.00,50.979
1472.00,50.993
1473.00,50.998
1474.00,51.016
1475.00,51.002
1476.00,51.040
1477.00,51.043
1478.00,51.043
1479.00,51.049
1480.00,51.061
1481.00,51.075
1482.00,51.104
1483.00,51.103
1484.00,51.111
1485.00,51.124
1486.00,51.113
1487.00,51.152
1488.00,51.160
1489.00,51.140
1490.00,51.179
1491.00,51.180
1492.00,51.195
1493.00,51.198
1494.00,51.212
1495.00,51.230
1496.00,51.230
1497.00,51.229
1498.00,51.248
1499.00,51.257
1500.00,51.277
1501.00, 
1502.00, 
1503.00, 
1504.00, 
1505.00, 
1506.00, 
1507.00, 
1508.00, 
1509.00, 
1510.00, 
1511.00, 
1512.00, 
1513.00, 
1514.00, 
1515.00, 
1516.00, 
1517.00, 
1518.00, 
1519.00, 
1520.00, 
1521.00, 
1522.00, 
1523.00, 
1524.00, 
1525.00, 
1526.00, 
1527.00, 
1528.00, 
1529.00, 
1530.00, 
1531.00, 
1532.00, 
1533.00, 
1534.00, 
1535.00, 
1536.00, 
1537.00, 
1538.00, 
1539.00, 
1540.00, 
1541.00, 
1542.00, 
1543.00, 
1544.00, 
1545.00, 
1546.00, 
1547.00, 
1548.00, 
1549.00, 
1550.00, 
1551.00, 
1552.00, 
1553.00, 
1554.00, 
1555.00, 
1556.00, 
1557.00, 
1558.00, 
1559.00, 
1560.00, 
1561.00, 
1562.00, 
1563.00, 
1564.00, 
1565.00, 
1566.00, 
1567.00, 
1568.00, 
1569.00, 
1570.00, 
1571.00, 
1572.00, 
1573.00, 
1574.00, 
1575.00, 
1576.00, 
1577.00, 
1578.00, 
1579.00, 
1580.00, 
1581.00, 
1582.00, 
1583.00, 
1584.00, 
1585.00, 
1586.00, 
1587.00, 
1588.00, 
1589.00, 
1590.00, 
1591.00, 
1592.00, 
1593.00, 
1594.00, 
1595.00, 
1596.00, 
1597.00, 
1598.00, 
1599.00, 
1600.00, 
1601.00, 
1602.00, 
1603.00, 
1604.00, 
1605.00, 
1606.00, 
1607.00, 
1608.00, 
1609.00, 
1610.00, 
1611.00, 
1612.00, 
1613.00, 
1614.00, 
1615.00, 
1616.00, 
1617.00, 
1618.00, 
1619.00, 
1620.00, 
1621.00, 
1622.00, 
1623.00, 
1624.00, 
1625.00, 
1626.00, 
1627.00, 
1628.00, 
1629.00, 
1630.00, 
1631.00, 
1632.00, 
1633.00, 
1634.00, 
1635.00, 
1636.00, 
1637.00, 
1638.00, 
1639.00, 
1640.00, 
1641.00, 
1642.00, 
1643.00, 
1644.00, 
1645.00, 
1646.00, 
1647.00, 
1648.00, 
1649.00, 
1650.00, 
1651.00, 
1652.00, 
1653.00, 
1654.00, 
1655.00, 
1656.00, 
1657.00, 
1658.00, 
1659.00, 
1660.00, 
1661.00, 
1662.00, 
1663.00, 
1664.00, 
1665.00, 
1666.00, 
1667.00, 
1668.00, 
1669.00, 
1670.00, 
1671.00, 
1672.00, 
1673.00, 
1674.00, 
1675.00, 
1676.00, 
1677.00, 
1678.00, 
1679.00, 
1680.00, 
1681.00, 
1682.00, 
1683.00, 
1684.00, 
1685.00, 
1686.00, 
1687.00, 
1688.00, 
1689.00, 
1690.00, 
1691.00, 
1692.00, 
1693.00, 
1694.00, 
1695.00, 
1696.00, 
1697.00, 
1698.00, 
1699.00, 
1700.00, 
1701.00, 
1702.00, 
1703.00, 
1704.00, 
1705.00, 
1706.00, 
1707.00, 
1708.00, 
1709.00, 
1710.00, 
1711.00, 
1712.00, 
1713.00, 
1714.00, 
1715.00, 
1716.00, 
1717.00, 
1718.00, 
1719.00, 
1720.00, 
1721.00, 
1722.00, 
1723.00, 
1724.00, 
1725.00, 
1726.00, 
1727.00, 
1728.00, 
1729.00, 
1730.00, 
1731.00, 
1732.00, 
1733.00, 
1734.00, 
1735.00, 
1736.00, 
1737.00, 
1738.00, 
1739.00, 
1740.00, 
1741.00, 
1742.00, 
1743.00, 
1744.00, 
1745.00, 
1746.00, 
1747.00, 
1748.00, 
1749.00, 
1750.00, 
1751.00, 
1752.00, 
1753.00, 
1754.00, 
1755.00, 
1756.00, 
1757.00, 
1758.00, 
1759.00, 
1760.00, 
1761.00, 
1762.00, 
1763.00, 
1764.00, 
1765.00, 
1766.00, 
1767.00, 
1768.00, 
1769.00, 
1770.00, 
1771.00, 
1772.00, 
1773.00, 
1774.00, 
1775.00, 
1776.00, 
1777.00, 
1778.00, 
1779.00, 
1780.00, 
1781.00, 
1782.00, 
1783.00, 
1784.00, 
1785.00, 
1786.00, 
1787.00, 
1788.00, 
1789.00, 
1790.00, 
1791.00, 
1792.00, 
1793.00, 
1794.00, 
1795.00, 
1796.00, 
1797.00, 
1798.00, 
1799.00, 
1800.00, 
1801.00, 
1802.00, 
1803.00, 
1804.00, 
1805.00, 
1806.00, 
1807.00, 
1808.00, 
1809.00, 
1810.00, 
1811.00, 
1812.00, 
1813.00, 
1814.00, 
1815.00, 
1816.00, 
1817.00, 
1818.00, 
1819.00, 
1820.00, 
1821.00, 
1822.00, 
1823.00, 
1824.00, 
1825.00, 
1826.00, 
1827.00, 
1828.00, 
1829.00, 
1830.00, 
1831.00, 
1832.00, 
1833.00, 
1834.00, 
1835.00, 
1836.00, 
1837.00, 
1838.00, 
1839.00, 
1840.00, 
1841.00, 
1842.00, 
1843.00, 
1844.00, 
1845.00, 
1846.00, 
1847.00, 
1848.00, 
1849.00, 
1850.00, 
1851.00, 
1852.00, 
1853.00, 
1854.00, 
1855.00, 
1856.00, 
1857.00, 
1858.00, 
1859.00, 
1860.00, 
1861.00, 
1862.00, 
1863.00, 
1864.00, 
1865.00, 
1866.00, 
1867.00, 
1868.00, 
1869.00, 
1870.00, 
1871.00, 
1872.00, 
1873.00, 
1874.00, 
1875.00, 
1876.00, 
1877.00, 
1878.00, 
1879.00, 
1880.00, 
1881.00, 
1882.00, 
1883.00, 
1884.00, 
1885.00, 
1886.00, 
1887.00, 
1888.00, 
1889.00, 
1890.00, 
1891.00, 
1892.00, 
1893.00, 
1894.00, 
1895.00, 
1896.00, 
1897.00, 
1898.00, 
1899.00, 
1900.00, 
1901.00, 
1902.00, 
1903.00, 
1904.00, 
1905.00, 
1906.00, 
1907.00, 
1908.00, 
1909.00, 
1910.00, 
1911.00, 
1912.00, 
1913.00, 
1914.00, 
1915.00, 
1916.00, 
1917.00, 
1918.00, 
1919.00, 
1920.00, 
1921.00, 
1922.00, 
1923.00, 
1924.00, 
1925.00, 
1926.00, 
1927.00, 
1928.00, 
1929.00, 
1930.00, 
1931.00, 
1932.00, 
1933.00, 
1934.00, 
1935.00, 
1936.00, 
1937.00, 
1938.00, 
1939.00, 
1940.00, 
1941.00, 
1942.00, 
1943.00, 
1944.00, 
1945.00, 
1946.00, 
1947.00, 
1948.00, 
1949.00, 
1950.00, 
1951.00, 
1952.00, 
1953.00, 
1954.00, 
1955.00, 
1956.00, 
1957.00, 
1958.00, 
1959.00, 
1960.00, 
1961.00, 
1962.00, 
1963.00, 
1964.00, 
1965.00, 
1966.00, 
1967.00, 
1968.00, 
1969.00, 
1970.00, 
1971.00, 
1972.00, 
1973.00, 
1974.00, 
1975.00, 
1976.00, 
1977.00, 
1978.00, 
1979.00, 
1980.00, 
1981.00, 
1982.00, 
1983.00, 
1984.00, 
1985.00, 
1986.00, 
1987.00, 
1988.00, 
1989.00, 
1990.00, 
1991.00, 
1992.00, 
1993.00, 
1994.00, 
1995.00, 
1996.00, 
1997.00, 
1998.00, 
1999.00, 
2000.00, 
2001.00, 
2002.00, 
2003.00, 
2004.00, 
2005.00, 
2006.00, 
2007.00, 
2008.00, 
2009.00, 
2010.00, 
2011.00, 
2012.00, 
2013.00, 
2014.00, 
2015.00, 
2016.00, 
2017.00, 
2018.00, 
2019.00, 
2020.00, 
2021.00, 
2022.00, 
2023.00, 
2024.00, 
2025.00, 
2026.00, 
2027.00, 
2028.00, 
2029.00, 
2030.00, 
2031.00, 
2032.00, 
2033.00, 
2034.00, 
2035.00, 
2036.00, 
2037.00, 
2038.00, 
2039.00, 
2040.00, 
2041.00, 
2042.00, 
2043.00, 
2044.00, 
2045.00, 
2046.00, 
2047.00, 
2048.00, 
2049.00, 
2050.00, 
2051.00, 
2052.00, 
2053.00, 
2054.00, 
2055.00, 
2056.00, 
2057.00, 
2058.00, 
2059.00, 
2060.00, 
2061.00, 
2062.00, 
2063.00, 
2064.00, 
2065.00, 
2066.00, 
2067.00, 
2068.00, 
2069.00, 
2070.00, 
2071.00, 
2072.00, 
2073.00, 
2074.00, 
2075.00, 
2076.00, 
2077.00, 
2078.00, 
2079.00, 
2080.00, 
2081.00, 
2082.00, 
2083.00, 
2084.00, 
2085.00, 
2086.00, 
2087.00, 
2088.00, 
2089.00, 
2090.00, 
2091.00, 
2092.00, 
2093.00, 
2094.00, 
2095.00, 
2096.00, 
2097.00, 
2098.00, 
2099.00, 
2100.00, 
2101.00, 
2102.00, 
2103.00, 
2104.00, 
2105.00, 
2106.00, 
2107.00, 
2108.00, 
2109.00, 
2110.00, 
2111.00, 
2112.00, 
2113.00, 
2114.00, 
2115.00, 
2116.00, 
2117.00, 
2118.00, 
2119.00, 
2120.00, 
2121.00, 
2122.00, 
2123.00, 
2124.00, 
2125.00, 
2126.00, 
2127.00, 
2128.00, 
2129.00, 
2130.00, 
2131.00, 
2132.00, 
2133.00, 
2134.00, 
2135.00, 
2136.00, 
2137.00, 
2138.00, 
2139.00, 
2140.00, 
2141.00, 
2142.00, 
2143.00, 
2144.00, 
2145.00, 
2146.00, 
2147.00, 
2148.00, 
2149.00, 
2150.00, 
2151.00, 
2152.00, 
2153.00, 
2154.00, 
2155.00, 
2156.00, 
2157.00, 
2158.00, 
2159.00, 
2160.00, 
2161.00, 
2162.00, 
2163.00, 
2164.00, 
2165.00, 
2166.00, 
2167.00, 
2168.00, 
2169.00, 
2170.00, 
2171.00, 
2172.00, 
2173.00, 
2174.00, 
2175.00, 
2176.00, 
2177.00, 
2178.00, 
2179.00, 
2180.00, 
2181.00, 
2182.00, 
2183.00, 
2184.00, 
2185.00, 
2186.00, 
2187.00, 
2188.00, 
2189.00, 
2190.00, 
2191.00, 
2192.00, 
2193.00, 
2194.00, 
2195.00, 
2196.00, 
2197.00, 
2198.00, 
2199.00, 
2200.00, 
2201.00, 
2202.00, 
2203.00, 
2204.00, 
2205.00, 
2206.00, 
2207.00, 
2208.00, 
2209.00, 
2210.00, 
2211.00, 
2212.00, 
2213.00, 
2214.00, 
2215.00, 
2216.00, 
2217.00, 
2218.00, 
2219.00, 
2220.00, 
2221.00, 
2222.00, 
2223.00, 
2224.00, 
2225.00, 
2226.00, 
2227.00, 
2228.00, 
2229.00, 
2230.00, 
2231.00, 
2232.00, 
2233.00, 
2234.00, 
2235.00, 
2236.00, 
2237.00, 
2238.00, 
2239.00, 
2240.00, 
2241.00, 
2242.00, 
2243.00, 
2244.00, 
2245.00, 
2246.00, 
2247.00, 
2248.00, 
2249.00, 
2250.00, 
2251.00, 
2252.00, 
2253.00, 
2254.00, 
2255.00, 
2256.00, 
2257.00, 
2258.00, 
2259.00, 
2260.00, 
2261.00, 
2262.00, 
2263.00, 
2264.00, 
2265.00, 
2266.00, 
2267.00, 
2268.00, 
2269.00, 
2270.00, 
2271.00, 
2272.00, 
2273.00, 
2274.00, 
2275.00, 
2276.00, 
2277.00, 
2278.00, 
2279.00, 
2280.00, 
2281.00, 
2282.00, 
2283.00, 
2284.00, 
2285.00, 
2286.00, 
2287.00, 
2288.00, 
2289.00, 
2290.00, 
2291.00, 
2292.00, 
2293.00, 
2294.00, 
2295.00, 
2296.00, 
2297.00, 
2298.00, 
2299.00, 
2300.00, 
2301.00, 
2302.00, 
2303.00, 
2304.00, 
2305.00, 
2306.00, 
2307.00, 
2308.00, 
2309.00, 
2310.00, 
2311.00, 
2312.00, 
2313.00, 
2314.00, 
2315.00, 
2316.00, 
2317.00, 
2318.00, 
2319.00, 
2320.00, 
2321.00, 
2322.00, 
2323.00, 
2324.00, 
2325.00, 
2326.00, 
2327.00, 
2328.00, 
2329.00, 
2330.00, 
2331.00, 
2332.00, 
2333.00, 
2334.00, 
2335.00, 
2336.00, 
2337.00, 
2338.00, 
2339.00, 
2340.00, 
2341.00, 
2342.00, 
2343.00, 
2344.00, 
2345.00, 
2346.00, 
2347.00, 
2348.00, 
2349.00, 
2350.00, 
2351.00, 
2352.00, 
2353.00, 
2354.00, 
2355.00, 
2356.00, 
2357.00, 
2358.00, 
2359.00, 
2360.00, 
2361.00, 
2362.00, 
2363.00, 
2364.00, 
2365.00, 
2366.00, 
2367.00, 
2368.00, 
2369.00, 
2370.00, 
2371.00, 
2372.00, 
2373.00, 
2374.00, 
2375.00, 
2376.00, 
2377.00, 
2378.00, 
2379.00, 
2380.00, 
2381.00, 
2382.00, 
2383.00, 
2384.00, 
2385.00, 
2386.00, 
2387.00, 
2388.00, 
2389.00, 
2390.00, 
2391.00, 
2392.00, 
2393.00, 
2394.00, 
2395.00, 
2396.00, 
2397.00, 
2398.00, 
2399.00, 
2400.00, 
2401.00, 
2402.00, 
2403.00, 
2404.00, 
2405.00, 
2406.00, 
2407.00, 
2408.00, 
2409.00, 
2410.00, 
2411.00, 
2412.00, 
2413.00, 
2414.00, 
2415.00, 
2416.00, 
2417.00, 
2418.00, 
2419.00, 
2420.00, 
2421.00, 
2422.00, 
2423.00, 
2424.00, 
2425.00, 
2426.00, 
2427.00, 
2428.00, 
2429.00, 
2430.00, 
2431.00, 
2432.00, 
2433.00, 
2434.00, 
2435.00, 
2436.00, 
2437.00, 
2438.00, 
2439.00, 
2440.00, 
2441.00, 
2442.00, 
2443.00, 
2444.00, 
2445.00, 
2446.00, 
2447.00, 
2448.00, 
2449.00, 
2450.00, 
2451.00, 
2452.00, 
2453.00, 
2454.00, 
2455.00, 
2456.00, 
2457.00, 
2458.00, 
2459.00, 
2460.00, 
2461.00, 
2462.00, 
2463.00, 
2464.00, 
2465.00, 
2466.00, 
2467.00, 
2468.00, 
2469.00, 
2470.00, 
2471.00, 
2472.00, 
2473.00, 
2474.00, 
2475.00, 
2476.00, 
2477.00, 
2478.00, 
2479.00, 
2480.00, 
2481.00, 
2482.00, 
2483.00, 
2484.00, 
2485.00, 
2486.00, 
2487.00, 
2488.00, 
2489.00, 
2490.00, 
2491.00, 
2492.00, 
2493.00, 
2494.00, 
2495.00, 
2496.00, 
2497.00, 
2498.00, 
2499.00, 
2500.00, 
2501.00, 
2502.00, 
2503.00, 
2504.00, 
2505.00, 
2506.00, 
2507.00, 
2508.00, 
2509.00, 
2510.00, 
2511.00, 
2512.00, 
2513.00, 
2514.00, 
2515.00, 
2516.00, 
2517.00, 
2518.00, 
2519.00, 
2520.00, 
2521.00, 
2522.00, 
2523.00, 
2524.00, 
2525.00, 
2526.00, 
2527.00, 
2528.00, 
2529.00, 
2530.00, 
2531.00, 
2532.00, 
2533.00, 
2534.00, 
2535.00, 
2536.00, 
2537.00, 
2538.00, 
2539.00, 
2540.00, 
2541.00, 
2542.00, 
2543.00, 
2544.00, 
2545.00, 
2546.00, 
2547.00, 
2548.00, 
2549.00, 
2550.00, 
2551.00, 
2552.00, 
2553.00, 
2554.00, 
2555.00, 
2556.00, 
2557.00, 
2558.00, 
2559.00, 
2560.00, 
2561.00, 
2562.00, 
2563.00, 
2564.00, 
2565.00, 
2566.00, 
2567.00, 
2568.00, 
2569.00, 
2570.00, 
2571.00, 
2572.00, 
2573.00, 
2574.00, 
2575.00, 
2576.00, 
2577.00, 
2578.00, 
2579.00, 
2580.00, 
2581.00, 
2582.00, 
2583.00, 
2584.00, 
2585.00, 
2586.00, 
2587.00, 
2588.00, 
2589.00, 
2590.00, 
2591.00, 
2592.00, 
2593.00, 
2594.00, 
2595.00, 
2596.00, 
2597.00, 
2598.00, 
2599.00, 
2600.00, 
