"1cP1 - RawData"
"Wavelength nm.","T%"
200.00,-0.001
201.00,-0.002
202.00,-0.000
203.00,-0.002
204.00,0.001
205.00,0.001
206.00,0.002
207.00,0.001
208.00,0.002
209.00,-0.002
210.00,0.001
211.00,0.002
212.00,0.000
213.00,0.001
214.00,0.000
215.00,0.002
216.00,0.003
217.00,0.000
218.00,0.000
219.00,0.001
220.00,0.002
221.00,0.002
222.00,-0.002
223.00,0.002
224.00,0.001
225.00,0.000
226.00,-0.000
227.00,0.001
228.00,-0.001
229.00,0.003
230.00,-0.002
231.00,0.001
232.00,0.002
233.00,0.000
234.00,0.001
235.00,0.001
236.00,0.000
237.00,-0.001
238.00,-0.000
239.00,-0.000
240.00,0.000
241.00,0.000
242.00,0.001
243.00,0.000
244.00,0.000
245.00,0.001
246.00,0.000
247.00,0.003
248.00,-0.001
249.00,0.001
250.00,0.001
251.00,-0.000
252.00,-0.000
253.00,0.001
254.00,0.001
255.00,0.000
256.00,-0.001
257.00,0.001
258.00,0.001
259.00,0.001
260.00,0.001
261.00,-0.000
262.00,0.002
263.00,0.001
264.00,-0.002
265.00,-0.001
266.00,-0.001
267.00,-0.001
268.00,0.001
269.00,0.001
270.00,-0.000
271.00,-0.000
272.00,0.001
273.00,0.000
274.00,-0.001
275.00,0.000
276.00,0.002
277.00,0.001
278.00,-0.002
279.00,-0.000
280.00,0.001
281.00,-0.000
282.00,0.002
283.00,0.000
284.00,0.001
285.00,-0.000
286.00,0.000
287.00,-0.001
288.00,0.000
289.00,-0.000
290.00,0.001
291.00,-0.001
292.00,-0.001
293.00,0.000
294.00,0.001
295.00,0.001
296.00,0.000
297.00,0.001
298.00,0.000
299.00,0.001
300.00,0.000
301.00,0.000
302.00,0.002
303.00,0.001
304.00,-0.001
305.00,0.001
306.00,0.002
307.00,0.003
308.00,0.007
309.00,0.009
310.00,0.016
311.00,0.027
312.00,0.040
313.00,0.058
314.00,0.088
315.00,0.131
316.00,0.189
317.00,0.270
318.00,0.359
319.00,0.491
320.00,0.649
321.00,0.840
322.00,1.081
323.00,1.359
324.00,1.692
325.00,2.044
326.00,2.418
327.00,2.878
328.00,3.342
329.00,3.881
330.00,4.347
331.00,4.994
332.00,5.600
333.00,6.281
334.00,6.918
335.00,7.624
336.00,8.315
337.00,9.012
338.00,9.741
339.00,10.375
340.00,11.073
341.00,11.716
342.00,12.381
343.00,13.019
344.00,13.665
345.00,14.207
346.00,14.749
347.00,15.251
348.00,15.757
349.00,16.221
350.00,16.643
351.00,17.062
352.00,17.426
353.00,17.784
354.00,18.170
355.00,18.496
356.00,18.811
357.00,19.046
358.00,19.337
359.00,19.618
360.00,19.853
361.00,20.050
362.00,20.169
363.00,20.345
364.00,20.418
365.00,20.597
366.00,20.703
367.00,20.803
368.00,20.837
369.00,20.953
370.00,20.995
371.00,20.987
372.00,20.979
373.00,20.934
374.00,20.938
375.00,20.927
376.00,20.828
377.00,20.758
378.00,20.663
379.00,20.559
380.00,20.551
381.00,20.530
382.00,20.528
383.00,20.552
384.00,20.599
385.00,20.660
386.00,20.692
387.00,20.793
388.00,20.856
389.00,20.839
390.00,20.907
391.00,20.957
392.00,20.981
393.00,21.010
394.00,21.050
395.00,21.092
396.00,21.042
397.00,21.055
398.00,21.068
399.00,21.056
400.00,21.081
401.00,21.069
402.00,21.047
403.00,21.037
404.00,21.044
405.00,21.046
406.00,21.005
407.00,20.967
408.00,20.982
409.00,20.891
410.00,20.847
411.00,20.852
412.00,20.806
413.00,20.822
414.00,20.747
415.00,20.791
416.00,20.850
417.00,20.788
418.00,20.832
419.00,20.897
420.00,20.927
421.00,20.957
422.00,20.952
423.00,21.006
424.00,21.105
425.00,21.055
426.00,21.046
427.00,21.115
428.00,21.146
429.00,21.151
430.00,21.226
431.00,21.276
432.00,21.308
433.00,21.329
434.00,21.415
435.00,21.469
436.00,21.542
437.00,21.578
438.00,21.616
439.00,21.713
440.00,21.736
441.00,21.861
442.00,21.931
443.00,22.015
444.00,22.052
445.00,22.143
446.00,22.266
447.00,22.332
448.00,22.438
449.00,22.524
450.00,22.666
451.00,22.723
452.00,22.798
453.00,22.924
454.00,23.009
455.00,23.100
456.00,23.265
457.00,23.363
458.00,23.426
459.00,23.583
460.00,23.720
461.00,23.830
462.00,23.925
463.00,24.095
464.00,24.223
465.00,24.360
466.00,24.458
467.00,24.598
468.00,24.664
469.00,24.791
470.00,24.869
471.00,24.977
472.00,25.112
473.00,25.186
474.00,25.294
475.00,25.416
476.00,25.523
477.00,25.634
478.00,25.779
479.00,25.942
480.00,26.075
481.00,26.170
482.00,26.352
483.00,26.435
484.00,26.629
485.00,26.744
486.00,26.908
487.00,27.067
488.00,27.170
489.00,27.364
490.00,27.511
491.00,27.625
492.00,27.863
493.00,28.000
494.00,27.997
495.00,28.164
496.00,28.320
497.00,28.370
498.00,28.563
499.00,28.671
500.00,28.826
501.00,28.930
502.00,29.071
503.00,29.187
504.00,29.237
505.00,29.370
506.00,29.522
507.00,29.620
508.00,29.750
509.00,29.839
510.00,29.932
511.00,30.038
512.00,30.250
513.00,30.416
514.00,30.525
515.00,30.744
516.00,30.804
517.00,30.850
518.00,31.040
519.00,31.084
520.00,31.124
521.00,31.262
522.00,31.343
523.00,31.395
524.00,31.511
525.00,31.626
526.00,31.717
527.00,31.796
528.00,31.868
529.00,32.086
530.00,32.216
531.00,32.296
532.00,32.375
533.00,32.478
534.00,32.605
535.00,32.691
536.00,32.791
537.00,32.886
538.00,32.954
539.00,33.004
540.00,33.094
541.00,33.175
542.00,33.202
543.00,33.254
544.00,33.355
545.00,33.439
546.00,33.462
547.00,33.584
548.00,33.701
549.00,33.756
550.00,33.853
551.00,33.963
552.00,34.022
553.00,34.019
554.00,34.139
555.00,34.143
556.00,34.239
557.00,34.308
558.00,34.360
559.00,34.461
560.00,34.523
561.00,34.567
562.00,34.685
563.00,34.708
564.00,34.760
565.00,34.803
566.00,34.794
567.00,34.860
568.00,34.886
569.00,34.961
570.00,35.018
571.00,35.036
572.00,35.054
573.00,35.072
574.00,35.140
575.00,35.115
576.00,35.124
577.00,35.218
578.00,35.291
579.00,35.353
580.00,35.389
581.00,35.553
582.00,35.647
583.00,35.626
584.00,35.747
585.00,35.822
586.00,35.844
587.00,35.955
588.00,35.953
589.00,35.900
590.00,36.032
591.00,36.050
592.00,36.021
593.00,36.057
594.00,36.199
595.00,36.253
596.00,36.324
597.00,36.358
598.00,36.406
599.00,36.366
600.00,36.447
601.00,36.523
602.00,36.516
603.00,36.575
604.00,36.650
605.00,36.711
606.00,36.703
607.00,36.760
608.00,36.859
609.00,36.994
610.00,36.798
611.00,36.817
612.00,36.927
613.00,37.152
614.00,37.093
615.00,37.159
616.00,37.308
617.00,37.265
618.00,37.237
619.00,37.357
620.00,37.411
621.00,37.477
622.00,37.508
623.00,37.599
624.00,37.679
625.00,37.698
626.00,37.805
627.00,37.826
628.00,37.826
629.00,37.893
630.00,37.976
631.00,37.989
632.00,38.094
633.00,38.196
634.00,38.293
635.00,38.351
636.00,38.362
637.00,38.382
638.00,38.519
639.00,38.598
640.00,38.642
641.00,38.640
642.00,38.767
643.00,38.833
644.00,38.917
645.00,39.017
646.00,39.152
647.00,39.209
648.00,39.219
649.00,39.284
650.00,39.314
651.00,39.458
652.00,39.584
653.00,39.523
654.00,39.596
655.00,39.755
656.00,40.111
657.00,39.981
658.00,40.093
659.00,40.137
660.00,40.222
661.00,40.249
662.00,40.258
663.00,40.436
664.00,40.667
665.00,40.894
666.00,40.917
667.00,40.819
668.00,40.884
669.00,41.097
670.00,41.310
671.00,41.419
672.00,41.366
673.00,41.442
674.00,41.492
675.00,41.544
676.00,41.792
677.00,41.990
678.00,41.725
679.00,41.918
680.00,42.098
681.00,42.209
682.00,42.216
683.00,42.308
684.00,42.417
685.00,42.523
686.00,42.494
687.00,42.480
688.00,42.583
689.00,42.726
690.00,42.826
691.00,43.217
692.00,42.923
693.00,42.897
694.00,43.035
695.00,43.209
696.00,43.006
697.00,43.132
698.00,43.186
699.00,44.122
700.00,44.412
701.00,43.743
702.00,43.844
703.00,44.160
704.00,44.187
705.00,44.063
706.00,44.226
707.00,44.263
708.00,44.083
709.00,44.572
710.00,44.895
711.00,44.456
712.00,44.578
713.00,44.698
714.00,44.759
715.00,44.876
716.00,44.748
717.00,44.939
718.00,45.025
719.00,45.157
720.00,45.210
721.00,49.705
722.00,49.667
723.00,49.704
724.00,49.721
725.00,49.790
726.00,49.740
727.00,49.773
728.00,49.750
729.00,49.844
730.00,49.888
731.00,49.892
732.00,49.892
733.00,50.024
734.00,50.079
735.00,50.051
736.00,50.042
737.00,50.110
738.00,50.154
739.00,50.212
740.00,50.236
741.00,50.212
742.00,50.223
743.00,50.265
744.00,50.210
745.00,50.312
746.00,50.333
747.00,50.257
748.00,50.278
749.00,50.266
750.00,50.293
751.00,50.260
752.00,50.297
753.00,50.288
754.00,50.383
755.00,50.314
756.00,50.363
757.00,50.376
758.00,50.439
759.00,50.383
760.00,50.430
761.00,50.429
762.00,50.416
763.00,50.511
764.00,50.460
765.00,50.542
766.00,50.504
767.00,50.546
768.00,50.538
769.00,50.530
770.00,50.559
771.00,50.504
772.00,50.509
773.00,50.590
774.00,50.621
775.00,50.600
776.00,50.566
777.00,50.600
778.00,50.584
779.00,50.693
780.00,50.552
781.00,50.638
782.00,50.642
783.00,50.541
784.00,50.540
785.00,50.525
786.00,50.665
787.00,50.609
788.00,50.544
789.00,50.630
790.00,50.480
791.00,50.571
792.00,50.534
793.00,50.518
794.00,50.612
795.00,50.478
796.00,50.505
797.00,50.468
798.00,50.518
799.00,50.390
800.00,50.425
801.00,50.479
802.00,50.409
803.00,50.473
804.00,50.353
805.00,50.432
806.00,50.394
807.00,50.371
808.00,50.440
809.00,50.330
810.00,50.322
811.00,50.318
812.00,50.370
813.00,50.353
814.00,50.212
815.00,50.300
816.00,50.341
817.00,50.238
818.00,50.184
819.00,50.191
820.00,50.179
821.00,50.204
822.00,50.175
823.00,50.184
824.00,50.183
825.00,50.139
826.00,50.143
827.00,50.175
828.00,50.166
829.00,50.117
830.00,50.071
831.00,52.392
832.00,52.398
833.00,52.341
834.00,52.361
835.00,52.296
836.00,52.357
837.00,52.290
838.00,52.280
839.00,52.261
840.00,52.197
841.00,52.224
842.00,52.172
843.00,52.201
844.00,52.165
845.00,52.138
846.00,52.139
847.00,52.106
848.00,52.113
849.00,51.995
850.00,52.000
851.00,51.966
852.00,51.983
853.00,51.926
854.00,51.932
855.00,51.883
856.00,51.903
857.00,51.847
858.00,51.810
859.00,51.786
860.00,51.758
861.00,51.781
862.00,51.743
863.00,51.745
864.00,51.722
865.00,51.723
866.00,51.680
867.00,51.711
868.00,51.694
869.00,51.676
870.00,51.727
871.00,51.699
872.00,51.664
873.00,51.592
874.00,51.810
875.00,51.595
876.00,51.603
877.00,51.586
878.00,51.590
879.00,51.543
880.00,51.533
881.00,51.481
882.00,51.536
883.00,51.517
884.00,51.476
885.00,51.453
886.00,51.452
887.00,51.422
888.00,51.409
889.00,51.369
890.00,51.360
891.00,51.327
892.00,51.300
893.00,51.264
894.00,51.274
895.00,51.234
896.00,51.196
897.00,51.182
898.00,51.186
899.00,51.158
900.00,51.159
901.00,51.170
902.00,51.144
903.00,51.275
904.00,51.119
905.00,51.103
906.00,51.092
907.00,51.051
908.00,51.016
909.00,50.996
910.00,50.978
911.00,50.983
912.00,50.957
913.00,50.872
914.00,51.023
915.00,50.884
916.00,50.860
917.00,50.833
918.00,50.833
919.00,50.817
920.00,50.765
921.00,50.776
922.00,50.789
923.00,50.737
924.00,50.711
925.00,50.706
926.00,50.718
927.00,50.644
928.00,50.564
929.00,50.720
930.00,50.582
931.00,50.561
932.00,50.587
933.00,50.576
934.00,50.550
935.00,50.486
936.00,50.477
937.00,50.480
938.00,50.476
939.00,50.453
940.00,50.426
941.00,50.430
942.00,50.409
943.00,50.393
944.00,50.363
945.00,50.349
946.00,50.336
947.00,50.324
948.00,50.287
949.00,50.277
950.00,50.280
951.00,50.249
952.00,50.237
953.00,50.197
954.00,50.174
955.00,50.136
956.00,50.133
957.00,50.081
958.00,50.091
959.00,50.034
960.00,50.022
961.00,50.008
962.00,50.010
963.00,49.962
964.00,49.962
965.00,49.962
966.00,49.947
967.00,49.941
968.00,49.912
969.00,49.945
970.00,49.914
971.00,49.931
972.00,49.898
973.00,49.924
974.00,49.936
975.00,49.907
976.00,49.908
977.00,49.897
978.00,49.938
979.00,49.891
980.00,49.910
981.00,49.911
982.00,49.876
983.00,49.893
984.00,49.872
985.00,49.891
986.00,49.847
987.00,49.883
988.00,49.851
989.00,49.822
990.00,49.869
991.00,49.832
992.00,49.834
993.00,49.800
994.00,49.798
995.00,49.784
996.00,49.775
997.00,49.751
998.00,49.719
999.00,49.748
1000.00,49.694
1001.00,49.694
1002.00,49.687
1003.00,49.678
1004.00,49.658
1005.00,49.620
1006.00,49.654
1007.00,49.619
1008.00,49.623
1009.00,49.601
1010.00,49.601
1011.00,49.600
1012.00,49.575
1013.00,49.582
1014.00,49.542
1015.00,49.541
1016.00,49.496
1017.00,49.510
1018.00,49.501
1019.00,49.464
1020.00,49.476
1021.00,49.425
1022.00,49.431
1023.00,49.379
1024.00,49.389
1025.00,49.366
1026.00,49.346
1027.00,49.322
1028.00,49.319
1029.00,49.319
1030.00,49.284
1031.00,49.292
1032.00,49.256
1033.00,49.259
1034.00,49.221
1035.00,49.211
1036.00,49.206
1037.00,49.175
1038.00,49.161
1039.00,49.131
1040.00,49.133
1041.00,49.100
1042.00,49.072
1043.00,49.053
1044.00,49.111
1045.00,49.059
1046.00,49.061
1047.00,49.089
1048.00,49.104
1049.00,49.115
1050.00,49.111
1051.00,49.138
1052.00,49.138
1053.00,49.135
1054.00,49.141
1055.00,49.171
1056.00,49.181
1057.00,49.180
1058.00,49.166
1059.00,49.170
1060.00,49.177
1061.00,49.158
1062.00,49.157
1063.00,49.160
1064.00,49.148
1065.00,49.144
1066.00,49.140
1067.00,49.119
1068.00,49.143
1069.00,49.100
1070.00,49.105
1071.00,49.096
1072.00,49.111
1073.00,49.080
1074.00,49.074
1075.00,49.063
1076.00,49.063
1077.00,49.042
1078.00,49.009
1079.00,49.021
1080.00,49.021
1081.00,49.028
1082.00,48.998
1083.00,49.002
1084.00,48.998
1085.00,48.990
1086.00,48.972
1087.00,48.985
1088.00,48.968
1089.00,48.964
1090.00,48.954
1091.00,48.958
1092.00,48.945
1093.00,48.921
1094.00,48.915
1095.00,48.913
1096.00,48.900
1097.00,48.913
1098.00,48.883
1099.00,48.876
1100.00,48.846
1101.00,48.855
1102.00,48.838
1103.00,48.846
1104.00,48.827
1105.00,48.810
1106.00,48.800
1107.00,48.794
1108.00,48.774
1109.00,48.779
1110.00,48.756
1111.00,48.754
1112.00,48.742
1113.00,48.737
1114.00,48.732
1115.00,48.733
1116.00,48.719
1117.00,48.708
1118.00,48.704
1119.00,48.691
1120.00,48.696
1121.00,48.704
1122.00,48.682
1123.00,48.677
1124.00,48.671
1125.00,48.670
1126.00,48.653
1127.00,48.665
1128.00,48.650
1129.00,48.638
1130.00,48.616
1131.00,48.635
1132.00,48.628
1133.00,48.613
1134.00,48.613
1135.00,48.598
1136.00,48.607
1137.00,48.631
1138.00,48.600
1139.00,48.619
1140.00,48.593
1141.00,48.588
1142.00,48.579
1143.00,48.597
1144.00,48.560
1145.00,48.569
1146.00,48.566
1147.00,48.550
1148.00,48.540
1149.00,48.560
1150.00,48.555
1151.00,48.563
1152.00,48.539
1153.00,48.552
1154.00,48.540
1155.00,48.545
1156.00,48.542
1157.00,48.553
1158.00,48.537
1159.00,48.523
1160.00,48.527
1161.00,48.549
1162.00,48.544
1163.00,48.522
1164.00,48.549
1165.00,48.539
1166.00,48.533
1167.00,48.526
1168.00,48.542
1169.00,48.521
1170.00,48.527
1171.00,48.519
1172.00,48.529
1173.00,48.521
1174.00,48.528
1175.00,48.529
1176.00,48.534
1177.00,48.513
1178.00,48.517
1179.00,48.532
1180.00,48.522
1181.00,48.538
1182.00,48.519
1183.00,48.506
1184.00,48.504
1185.00,48.500
1186.00,48.495
1187.00,48.500
1188.00,48.521
1189.00,48.528
1190.00,48.519
1191.00,48.521
1192.00,48.544
1193.00,48.520
1194.00,48.534
1195.00,48.516
1196.00,48.534
1197.00,48.545
1198.00,48.529
1199.00,48.517
1200.00,48.521
1201.00,48.546
1202.00,48.521
1203.00,48.522
1204.00,48.508
1205.00,48.531
1206.00,48.524
1207.00,48.512
1208.00,48.515
1209.00,48.516
1210.00,48.506
1211.00,48.507
1212.00,48.525
1213.00,48.503
1214.00,48.523
1215.00,48.502
1216.00,48.538
1217.00,48.515
1218.00,48.508
1219.00,48.554
1220.00,48.512
1221.00,48.518
1222.00,48.510
1223.00,48.529
1224.00,48.531
1225.00,48.504
1226.00,48.523
1227.00,48.512
1228.00,48.536
1229.00,48.517
1230.00,48.560
1231.00,48.549
1232.00,48.590
1233.00,48.594
1234.00,48.583
1235.00,48.583
1236.00,48.578
1237.00,48.586
1238.00,48.586
1239.00,48.596
1240.00,48.566
1241.00,48.588
1242.00,48.591
1243.00,48.599
1244.00,48.583
1245.00,48.610
1246.00,48.623
1247.00,48.599
1248.00,48.610
1249.00,48.629
1250.00,48.635
1251.00,48.614
1252.00,48.639
1253.00,48.634
1254.00,48.651
1255.00,48.649
1256.00,48.627
1257.00,48.635
1258.00,48.660
1259.00,48.660
1260.00,48.681
1261.00,48.671
1262.00,48.648
1263.00,48.666
1264.00,48.672
1265.00,48.665
1266.00,48.674
1267.00,48.686
1268.00,48.684
1269.00,48.698
1270.00,48.718
1271.00,48.715
1272.00,48.722
1273.00,48.737
1274.00,48.734
1275.00,48.740
1276.00,48.731
1277.00,48.743
1278.00,48.740
1279.00,48.758
1280.00,48.767
1281.00,48.781
1282.00,48.785
1283.00,48.780
1284.00,48.789
1285.00,48.775
1286.00,48.796
1287.00,48.789
1288.00,48.794
1289.00,48.777
1290.00,48.833
1291.00,48.810
1292.00,48.808
1293.00,48.826
1294.00,48.856
1295.00,48.853
1296.00,48.869
1297.00,48.868
1298.00,48.894
1299.00,48.867
1300.00,48.892
1301.00,48.896
1302.00,48.902
1303.00,48.912
1304.00,48.891
1305.00,48.923
1306.00,48.907
1307.00,48.949
1308.00,48.922
1309.00,48.952
1310.00,48.947
1311.00,48.934
1312.00,48.934
1313.00,48.964
1314.00,48.988
1315.00,48.995
1316.00,48.978
1317.00,49.002
1318.00,49.009
1319.00,49.001
1320.00,48.998
1321.00,49.187
1322.00,49.171
1323.00,49.165
1324.00,49.155
1325.00,49.140
1326.00,49.178
1327.00,49.168
1328.00,49.172
1329.00,49.168
1330.00,49.175
1331.00,49.163
1332.00,49.170
1333.00,49.185
1334.00,49.207
1335.00,49.202
1336.00,49.245
1337.00,49.283
1338.00,49.341
1339.00,49.376
1340.00,49.452
1341.00,49.520
1342.00,49.572
1343.00,49.626
1344.00,49.661
1345.00,49.718
1346.00,49.781
1347.00,49.814
1348.00,49.819
1349.00,49.850
1350.00,49.869
1351.00,49.882
1352.00,49.883
1353.00,49.891
1354.00,49.900
1355.00,49.847
1356.00,49.933
1357.00,49.917
1358.00,49.927
1359.00,49.909
1360.00,49.967
1361.00,49.993
1362.00,49.861
1363.00,50.064
1364.00,50.011
1365.00,49.942
1366.00,50.026
1367.00,49.912
1368.00,49.756
1369.00,49.950
1370.00,49.958
1371.00,49.865
1372.00,49.915
1373.00,49.966
1374.00,49.975
1375.00,49.954
1376.00,49.971
1377.00,49.949
1378.00,50.042
1379.00,49.994
1380.00,49.948
1381.00,49.988
1382.00,49.964
1383.00,49.979
1384.00,49.943
1385.00,49.957
1386.00,49.988
1387.00,49.841
1388.00,49.910
1389.00,49.848
1390.00,50.153
1391.00,49.936
1392.00,49.883
1393.00,49.930
1394.00,49.919
1395.00,49.913
1396.00,49.846
1397.00,49.955
1398.00,49.973
1399.00,49.963
1400.00,49.637
1401.00,49.898
1402.00,50.046
1403.00,49.957
1404.00,49.888
1405.00,49.976
1406.00,49.993
1407.00,49.978
1408.00,49.974
1409.00,49.972
1410.00,50.039
1411.00,49.991
1412.00,50.086
1413.00,50.004
1414.00,49.992
1415.00,50.043
1416.00,50.060
1417.00,50.088
1418.00,50.068
1419.00,50.083
1420.00,50.112
1421.00,50.161
1422.00,50.138
1423.00,50.177
1424.00,50.173
1425.00,50.188
1426.00,50.189
1427.00,50.200
1428.00,50.209
1429.00,50.237
1430.00,50.245
1431.00,50.273
1432.00,50.292
1433.00,50.297
1434.00,50.295
1435.00,50.364
1436.00,50.361
1437.00,50.342
1438.00,50.383
1439.00,50.413
1440.00,50.428
1441.00,50.424
1442.00,50.468
1443.00,50.508
1444.00,50.596
1445.00,50.547
1446.00,50.526
1447.00,50.560
1448.00,50.610
1449.00,50.601
1450.00,50.597
1451.00,50.613
1452.00,50.643
1453.00,50.649
1454.00,50.669
1455.00,50.686
1456.00,50.722
1457.00,50.703
1458.00,50.741
1459.00,50.758
1460.00,50.777
1461.00,50.792
1462.00,50.807
1463.00,50.843
1464.00,50.843
1465.00,50.875
1466.00,50.878
1467.00,50.876
1468.00,50.945
1469.00,50.905
1470.00,50.928
1471.00,50.955
1472.00,50.958
1473.00,50.954
1474.00,50.995
1475.00,51.021
1476.00,51.041
1477.00,51.007
1478.00,51.049
1479.00,51.077
1480.00,51.049
1481.00,51.064
1482.00,51.102
1483.00,51.113
1484.00,51.121
1485.00,51.118
1486.00,51.151
1487.00,51.162
1488.00,51.203
1489.00,51.195
1490.00,51.210
1491.00,51.209
1492.00,51.244
1493.00,51.230
1494.00,51.275
1495.00,51.255
1496.00,51.274
1497.00,51.244
1498.00,51.289
1499.00,51.305
1500.00,51.318
1501.00, 
1502.00, 
1503.00, 
1504.00, 
1505.00, 
1506.00, 
1507.00, 
1508.00, 
1509.00, 
1510.00, 
1511.00, 
1512.00, 
1513.00, 
1514.00, 
1515.00, 
1516.00, 
1517.00, 
1518.00, 
1519.00, 
1520.00, 
1521.00, 
1522.00, 
1523.00, 
1524.00, 
1525.00, 
1526.00, 
1527.00, 
1528.00, 
1529.00, 
1530.00, 
1531.00, 
1532.00, 
1533.00, 
1534.00, 
1535.00, 
1536.00, 
1537.00, 
1538.00, 
1539.00, 
1540.00, 
1541.00, 
1542.00, 
1543.00, 
1544.00, 
1545.00, 
1546.00, 
1547.00, 
1548.00, 
1549.00, 
1550.00, 
1551.00, 
1552.00, 
1553.00, 
1554.00, 
1555.00, 
1556.00, 
1557.00, 
1558.00, 
1559.00, 
1560.00, 
1561.00, 
1562.00, 
1563.00, 
1564.00, 
1565.00, 
1566.00, 
1567.00, 
1568.00, 
1569.00, 
1570.00, 
1571.00, 
1572.00, 
1573.00, 
1574.00, 
1575.00, 
1576.00, 
1577.00, 
1578.00, 
1579.00, 
1580.00, 
1581.00, 
1582.00, 
1583.00, 
1584.00, 
1585.00, 
1586.00, 
1587.00, 
1588.00, 
1589.00, 
1590.00, 
1591.00, 
1592.00, 
1593.00, 
1594.00, 
1595.00, 
1596.00, 
1597.00, 
1598.00, 
1599.00, 
1600.00, 
1601.00, 
1602.00, 
1603.00, 
1604.00, 
1605.00, 
1606.00, 
1607.00, 
1608.00, 
1609.00, 
1610.00, 
1611.00, 
1612.00, 
1613.00, 
1614.00, 
1615.00, 
1616.00, 
1617.00, 
1618.00, 
1619.00, 
1620.00, 
1621.00, 
1622.00, 
1623.00, 
1624.00, 
1625.00, 
1626.00, 
1627.00, 
1628.00, 
1629.00, 
1630.00, 
1631.00, 
1632.00, 
1633.00, 
1634.00, 
1635.00, 
1636.00, 
1637.00, 
1638.00, 
1639.00, 
1640.00, 
1641.00, 
1642.00, 
1643.00, 
1644.00, 
1645.00, 
1646.00, 
1647.00, 
1648.00, 
1649.00, 
1650.00, 
1651.00, 
1652.00, 
1653.00, 
1654.00, 
1655.00, 
1656.00, 
1657.00, 
1658.00, 
1659.00, 
1660.00, 
1661.00, 
1662.00, 
1663.00, 
1664.00, 
1665.00, 
1666.00, 
1667.00, 
1668.00, 
1669.00, 
1670.00, 
1671.00, 
1672.00, 
1673.00, 
1674.00, 
1675.00, 
1676.00, 
1677.00, 
1678.00, 
1679.00, 
1680.00, 
1681.00, 
1682.00, 
1683.00, 
1684.00, 
1685.00, 
1686.00, 
1687.00, 
1688.00, 
1689.00, 
1690.00, 
1691.00, 
1692.00, 
1693.00, 
1694.00, 
1695.00, 
1696.00, 
1697.00, 
1698.00, 
1699.00, 
1700.00, 
1701.00, 
1702.00, 
1703.00, 
1704.00, 
1705.00, 
1706.00, 
1707.00, 
1708.00, 
1709.00, 
1710.00, 
1711.00, 
1712.00, 
1713.00, 
1714.00, 
1715.00, 
1716.00, 
1717.00, 
1718.00, 
1719.00, 
1720.00, 
1721.00, 
1722.00, 
1723.00, 
1724.00, 
1725.00, 
1726.00, 
1727.00, 
1728.00, 
1729.00, 
1730.00, 
1731.00, 
1732.00, 
1733.00, 
1734.00, 
1735.00, 
1736.00, 
1737.00, 
1738.00, 
1739.00, 
1740.00, 
1741.00, 
1742.00, 
1743.00, 
1744.00, 
1745.00, 
1746.00, 
1747.00, 
1748.00, 
1749.00, 
1750.00, 
1751.00, 
1752.00, 
1753.00, 
1754.00, 
1755.00, 
1756.00, 
1757.00, 
1758.00, 
1759.00, 
1760.00, 
1761.00, 
1762.00, 
1763.00, 
1764.00, 
1765.00, 
1766.00, 
1767.00, 
1768.00, 
1769.00, 
1770.00, 
1771.00, 
1772.00, 
1773.00, 
1774.00, 
1775.00, 
1776.00, 
1777.00, 
1778.00, 
1779.00, 
1780.00, 
1781.00, 
1782.00, 
1783.00, 
1784.00, 
1785.00, 
1786.00, 
1787.00, 
1788.00, 
1789.00, 
1790.00, 
1791.00, 
1792.00, 
1793.00, 
1794.00, 
1795.00, 
1796.00, 
1797.00, 
1798.00, 
1799.00, 
1800.00, 
1801.00, 
1802.00, 
1803.00, 
1804.00, 
1805.00, 
1806.00, 
1807.00, 
1808.00, 
1809.00, 
1810.00, 
1811.00, 
1812.00, 
1813.00, 
1814.00, 
1815.00, 
1816.00, 
1817.00, 
1818.00, 
1819.00, 
1820.00, 
1821.00, 
1822.00, 
1823.00, 
1824.00, 
1825.00, 
1826.00, 
1827.00, 
1828.00, 
1829.00, 
1830.00, 
1831.00, 
1832.00, 
1833.00, 
1834.00, 
1835.00, 
1836.00, 
1837.00, 
1838.00, 
1839.00, 
1840.00, 
1841.00, 
1842.00, 
1843.00, 
1844.00, 
1845.00, 
1846.00, 
1847.00, 
1848.00, 
1849.00, 
1850.00, 
1851.00, 
1852.00, 
1853.00, 
1854.00, 
1855.00, 
1856.00, 
1857.00, 
1858.00, 
1859.00, 
1860.00, 
1861.00, 
1862.00, 
1863.00, 
1864.00, 
1865.00, 
1866.00, 
1867.00, 
1868.00, 
1869.00, 
1870.00, 
1871.00, 
1872.00, 
1873.00, 
1874.00, 
1875.00, 
1876.00, 
1877.00, 
1878.00, 
1879.00, 
1880.00, 
1881.00, 
1882.00, 
1883.00, 
1884.00, 
1885.00, 
1886.00, 
1887.00, 
1888.00, 
1889.00, 
1890.00, 
1891.00, 
1892.00, 
1893.00, 
1894.00, 
1895.00, 
1896.00, 
1897.00, 
1898.00, 
1899.00, 
1900.00, 
1901.00, 
1902.00, 
1903.00, 
1904.00, 
1905.00, 
1906.00, 
1907.00, 
1908.00, 
1909.00, 
1910.00, 
1911.00, 
1912.00, 
1913.00, 
1914.00, 
1915.00, 
1916.00, 
1917.00, 
1918.00, 
1919.00, 
1920.00, 
1921.00, 
1922.00, 
1923.00, 
1924.00, 
1925.00, 
1926.00, 
1927.00, 
1928.00, 
1929.00, 
1930.00, 
1931.00, 
1932.00, 
1933.00, 
1934.00, 
1935.00, 
1936.00, 
1937.00, 
1938.00, 
1939.00, 
1940.00, 
1941.00, 
1942.00, 
1943.00, 
1944.00, 
1945.00, 
1946.00, 
1947.00, 
1948.00, 
1949.00, 
1950.00, 
1951.00, 
1952.00, 
1953.00, 
1954.00, 
1955.00, 
1956.00, 
1957.00, 
1958.00, 
1959.00, 
1960.00, 
1961.00, 
1962.00, 
1963.00, 
1964.00, 
1965.00, 
1966.00, 
1967.00, 
1968.00, 
1969.00, 
1970.00, 
1971.00, 
1972.00, 
1973.00, 
1974.00, 
1975.00, 
1976.00, 
1977.00, 
1978.00, 
1979.00, 
1980.00, 
1981.00, 
1982.00, 
1983.00, 
1984.00, 
1985.00, 
1986.00, 
1987.00, 
1988.00, 
1989.00, 
1990.00, 
1991.00, 
1992.00, 
1993.00, 
1994.00, 
1995.00, 
1996.00, 
1997.00, 
1998.00, 
1999.00, 
2000.00, 
2001.00, 
2002.00, 
2003.00, 
2004.00, 
2005.00, 
2006.00, 
2007.00, 
2008.00, 
2009.00, 
2010.00, 
2011.00, 
2012.00, 
2013.00, 
2014.00, 
2015.00, 
2016.00, 
2017.00, 
2018.00, 
2019.00, 
2020.00, 
2021.00, 
2022.00, 
2023.00, 
2024.00, 
2025.00, 
2026.00, 
2027.00, 
2028.00, 
2029.00, 
2030.00, 
2031.00, 
2032.00, 
2033.00, 
2034.00, 
2035.00, 
2036.00, 
2037.00, 
2038.00, 
2039.00, 
2040.00, 
2041.00, 
2042.00, 
2043.00, 
2044.00, 
2045.00, 
2046.00, 
2047.00, 
2048.00, 
2049.00, 
2050.00, 
2051.00, 
2052.00, 
2053.00, 
2054.00, 
2055.00, 
2056.00, 
2057.00, 
2058.00, 
2059.00, 
2060.00, 
2061.00, 
2062.00, 
2063.00, 
2064.00, 
2065.00, 
2066.00, 
2067.00, 
2068.00, 
2069.00, 
2070.00, 
2071.00, 
2072.00, 
2073.00, 
2074.00, 
2075.00, 
2076.00, 
2077.00, 
2078.00, 
2079.00, 
2080.00, 
2081.00, 
2082.00, 
2083.00, 
2084.00, 
2085.00, 
2086.00, 
2087.00, 
2088.00, 
2089.00, 
2090.00, 
2091.00, 
2092.00, 
2093.00, 
2094.00, 
2095.00, 
2096.00, 
2097.00, 
2098.00, 
2099.00, 
2100.00, 
2101.00, 
2102.00, 
2103.00, 
2104.00, 
2105.00, 
2106.00, 
2107.00, 
2108.00, 
2109.00, 
2110.00, 
2111.00, 
2112.00, 
2113.00, 
2114.00, 
2115.00, 
2116.00, 
2117.00, 
2118.00, 
2119.00, 
2120.00, 
2121.00, 
2122.00, 
2123.00, 
2124.00, 
2125.00, 
2126.00, 
2127.00, 
2128.00, 
2129.00, 
2130.00, 
2131.00, 
2132.00, 
2133.00, 
2134.00, 
2135.00, 
2136.00, 
2137.00, 
2138.00, 
2139.00, 
2140.00, 
2141.00, 
2142.00, 
2143.00, 
2144.00, 
2145.00, 
2146.00, 
2147.00, 
2148.00, 
2149.00, 
2150.00, 
2151.00, 
2152.00, 
2153.00, 
2154.00, 
2155.00, 
2156.00, 
2157.00, 
2158.00, 
2159.00, 
2160.00, 
2161.00, 
2162.00, 
2163.00, 
2164.00, 
2165.00, 
2166.00, 
2167.00, 
2168.00, 
2169.00, 
2170.00, 
2171.00, 
2172.00, 
2173.00, 
2174.00, 
2175.00, 
2176.00, 
2177.00, 
2178.00, 
2179.00, 
2180.00, 
2181.00, 
2182.00, 
2183.00, 
2184.00, 
2185.00, 
2186.00, 
2187.00, 
2188.00, 
2189.00, 
2190.00, 
2191.00, 
2192.00, 
2193.00, 
2194.00, 
2195.00, 
2196.00, 
2197.00, 
2198.00, 
2199.00, 
2200.00, 
2201.00, 
2202.00, 
2203.00, 
2204.00, 
2205.00, 
2206.00, 
2207.00, 
2208.00, 
2209.00, 
2210.00, 
2211.00, 
2212.00, 
2213.00, 
2214.00, 
2215.00, 
2216.00, 
2217.00, 
2218.00, 
2219.00, 
2220.00, 
2221.00, 
2222.00, 
2223.00, 
2224.00, 
2225.00, 
2226.00, 
2227.00, 
2228.00, 
2229.00, 
2230.00, 
2231.00, 
2232.00, 
2233.00, 
2234.00, 
2235.00, 
2236.00, 
2237.00, 
2238.00, 
2239.00, 
2240.00, 
2241.00, 
2242.00, 
2243.00, 
2244.00, 
2245.00, 
2246.00, 
2247.00, 
2248.00, 
2249.00, 
2250.00, 
2251.00, 
2252.00, 
2253.00, 
2254.00, 
2255.00, 
2256.00, 
2257.00, 
2258.00, 
2259.00, 
2260.00, 
2261.00, 
2262.00, 
2263.00, 
2264.00, 
2265.00, 
2266.00, 
2267.00, 
2268.00, 
2269.00, 
2270.00, 
2271.00, 
2272.00, 
2273.00, 
2274.00, 
2275.00, 
2276.00, 
2277.00, 
2278.00, 
2279.00, 
2280.00, 
2281.00, 
2282.00, 
2283.00, 
2284.00, 
2285.00, 
2286.00, 
2287.00, 
2288.00, 
2289.00, 
2290.00, 
2291.00, 
2292.00, 
2293.00, 
2294.00, 
2295.00, 
2296.00, 
2297.00, 
2298.00, 
2299.00, 
2300.00, 
2301.00, 
2302.00, 
2303.00, 
2304.00, 
2305.00, 
2306.00, 
2307.00, 
2308.00, 
2309.00, 
2310.00, 
2311.00, 
2312.00, 
2313.00, 
2314.00, 
2315.00, 
2316.00, 
2317.00, 
2318.00, 
2319.00, 
2320.00, 
2321.00, 
2322.00, 
2323.00, 
2324.00, 
2325.00, 
2326.00, 
2327.00, 
2328.00, 
2329.00, 
2330.00, 
2331.00, 
2332.00, 
2333.00, 
2334.00, 
2335.00, 
2336.00, 
2337.00, 
2338.00, 
2339.00, 
2340.00, 
2341.00, 
2342.00, 
2343.00, 
2344.00, 
2345.00, 
2346.00, 
2347.00, 
2348.00, 
2349.00, 
2350.00, 
2351.00, 
2352.00, 
2353.00, 
2354.00, 
2355.00, 
2356.00, 
2357.00, 
2358.00, 
2359.00, 
2360.00, 
2361.00, 
2362.00, 
2363.00, 
2364.00, 
2365.00, 
2366.00, 
2367.00, 
2368.00, 
2369.00, 
2370.00, 
2371.00, 
2372.00, 
2373.00, 
2374.00, 
2375.00, 
2376.00, 
2377.00, 
2378.00, 
2379.00, 
2380.00, 
2381.00, 
2382.00, 
2383.00, 
2384.00, 
2385.00, 
2386.00, 
2387.00, 
2388.00, 
2389.00, 
2390.00, 
2391.00, 
2392.00, 
2393.00, 
2394.00, 
2395.00, 
2396.00, 
2397.00, 
2398.00, 
2399.00, 
2400.00, 
2401.00, 
2402.00, 
2403.00, 
2404.00, 
2405.00, 
2406.00, 
2407.00, 
2408.00, 
2409.00, 
2410.00, 
2411.00, 
2412.00, 
2413.00, 
2414.00, 
2415.00, 
2416.00, 
2417.00, 
2418.00, 
2419.00, 
2420.00, 
2421.00, 
2422.00, 
2423.00, 
2424.00, 
2425.00, 
2426.00, 
2427.00, 
2428.00, 
2429.00, 
2430.00, 
2431.00, 
2432.00, 
2433.00, 
2434.00, 
2435.00, 
2436.00, 
2437.00, 
2438.00, 
2439.00, 
2440.00, 
2441.00, 
2442.00, 
2443.00, 
2444.00, 
2445.00, 
2446.00, 
2447.00, 
2448.00, 
2449.00, 
2450.00, 
2451.00, 
2452.00, 
2453.00, 
2454.00, 
2455.00, 
2456.00, 
2457.00, 
2458.00, 
2459.00, 
2460.00, 
2461.00, 
2462.00, 
2463.00, 
2464.00, 
2465.00, 
2466.00, 
2467.00, 
2468.00, 
2469.00, 
2470.00, 
2471.00, 
2472.00, 
2473.00, 
2474.00, 
2475.00, 
2476.00, 
2477.00, 
2478.00, 
2479.00, 
2480.00, 
2481.00, 
2482.00, 
2483.00, 
2484.00, 
2485.00, 
2486.00, 
2487.00, 
2488.00, 
2489.00, 
2490.00, 
2491.00, 
2492.00, 
2493.00, 
2494.00, 
2495.00, 
2496.00, 
2497.00, 
2498.00, 
2499.00, 
2500.00, 
2501.00, 
2502.00, 
2503.00, 
2504.00, 
2505.00, 
2506.00, 
2507.00, 
2508.00, 
2509.00, 
2510.00, 
2511.00, 
2512.00, 
2513.00, 
2514.00, 
2515.00, 
2516.00, 
2517.00, 
2518.00, 
2519.00, 
2520.00, 
2521.00, 
2522.00, 
2523.00, 
2524.00, 
2525.00, 
2526.00, 
2527.00, 
2528.00, 
2529.00, 
2530.00, 
2531.00, 
2532.00, 
2533.00, 
2534.00, 
2535.00, 
2536.00, 
2537.00, 
2538.00, 
2539.00, 
2540.00, 
2541.00, 
2542.00, 
2543.00, 
2544.00, 
2545.00, 
2546.00, 
2547.00, 
2548.00, 
2549.00, 
2550.00, 
2551.00, 
2552.00, 
2553.00, 
2554.00, 
2555.00, 
2556.00, 
2557.00, 
2558.00, 
2559.00, 
2560.00, 
2561.00, 
2562.00, 
2563.00, 
2564.00, 
2565.00, 
2566.00, 
2567.00, 
2568.00, 
2569.00, 
2570.00, 
2571.00, 
2572.00, 
2573.00, 
2574.00, 
2575.00, 
2576.00, 
2577.00, 
2578.00, 
2579.00, 
2580.00, 
2581.00, 
2582.00, 
2583.00, 
2584.00, 
2585.00, 
2586.00, 
2587.00, 
2588.00, 
2589.00, 
2590.00, 
2591.00, 
2592.00, 
2593.00, 
2594.00, 
2595.00, 
2596.00, 
2597.00, 
2598.00, 
2599.00, 
2600.00, 
