"1cP4 - RawData"
"Wavelength nm.","T%"
200.00,0.002
201.00,0.004
202.00,0.001
203.00,0.002
204.00,-0.001
205.00,0.003
206.00,0.000
207.00,0.000
208.00,0.003
209.00,0.003
210.00,0.003
211.00,0.003
212.00,0.001
213.00,0.002
214.00,0.000
215.00,0.000
216.00,0.003
217.00,0.001
218.00,0.001
219.00,0.002
220.00,0.004
221.00,0.001
222.00,-0.002
223.00,-0.001
224.00,-0.000
225.00,0.001
226.00,0.001
227.00,-0.001
228.00,0.001
229.00,-0.001
230.00,0.004
231.00,0.002
232.00,-0.000
233.00,-0.000
234.00,-0.000
235.00,-0.001
236.00,-0.001
237.00,0.003
238.00,0.001
239.00,-0.001
240.00,-0.000
241.00,-0.000
242.00,0.001
243.00,0.000
244.00,0.000
245.00,-0.000
246.00,0.001
247.00,-0.000
248.00,0.001
249.00,0.000
250.00,0.002
251.00,0.001
252.00,-0.001
253.00,-0.000
254.00,0.001
255.00,0.002
256.00,0.001
257.00,-0.000
258.00,0.000
259.00,-0.001
260.00,0.001
261.00,0.002
262.00,0.001
263.00,-0.002
264.00,0.000
265.00,-0.002
266.00,0.002
267.00,0.000
268.00,-0.001
269.00,0.001
270.00,-0.000
271.00,0.001
272.00,-0.000
273.00,0.001
274.00,0.000
275.00,0.000
276.00,0.001
277.00,-0.001
278.00,-0.001
279.00,-0.001
280.00,0.001
281.00,0.000
282.00,0.002
283.00,0.001
284.00,0.001
285.00,0.001
286.00,-0.002
287.00,-0.000
288.00,0.001
289.00,0.001
290.00,0.001
291.00,-0.001
292.00,0.000
293.00,0.000
294.00,0.000
295.00,0.000
296.00,-0.000
297.00,-0.000
298.00,-0.001
299.00,-0.000
300.00,0.000
301.00,0.000
302.00,0.002
303.00,0.003
304.00,0.001
305.00,0.001
306.00,0.003
307.00,0.003
308.00,0.005
309.00,0.010
310.00,0.017
311.00,0.024
312.00,0.040
313.00,0.058
314.00,0.088
315.00,0.126
316.00,0.185
317.00,0.258
318.00,0.356
319.00,0.480
320.00,0.631
321.00,0.823
322.00,1.052
323.00,1.328
324.00,1.641
325.00,1.976
326.00,2.340
327.00,2.795
328.00,3.243
329.00,3.721
330.00,4.282
331.00,4.849
332.00,5.445
333.00,6.101
334.00,6.694
335.00,7.351
336.00,8.012
337.00,8.688
338.00,9.367
339.00,10.016
340.00,10.680
341.00,11.289
342.00,11.925
343.00,12.514
344.00,13.141
345.00,13.658
346.00,14.173
347.00,14.632
348.00,15.103
349.00,15.537
350.00,15.977
351.00,16.361
352.00,16.701
353.00,17.075
354.00,17.373
355.00,17.709
356.00,17.991
357.00,18.245
358.00,18.479
359.00,18.745
360.00,18.975
361.00,19.110
362.00,19.245
363.00,19.431
364.00,19.519
365.00,19.654
366.00,19.733
367.00,19.801
368.00,19.833
369.00,19.922
370.00,19.978
371.00,19.932
372.00,19.928
373.00,19.924
374.00,19.933
375.00,19.910
376.00,19.767
377.00,19.721
378.00,19.582
379.00,19.522
380.00,19.509
381.00,19.478
382.00,19.466
383.00,19.482
384.00,19.516
385.00,19.565
386.00,19.600
387.00,19.693
388.00,19.747
389.00,19.734
390.00,19.792
391.00,19.805
392.00,19.871
393.00,19.867
394.00,19.895
395.00,19.926
396.00,19.889
397.00,19.914
398.00,19.926
399.00,19.913
400.00,19.915
401.00,19.924
402.00,19.901
403.00,19.914
404.00,19.881
405.00,19.826
406.00,19.832
407.00,19.790
408.00,19.799
409.00,19.753
410.00,19.685
411.00,19.703
412.00,19.647
413.00,19.675
414.00,19.612
415.00,19.636
416.00,19.698
417.00,19.658
418.00,19.685
419.00,19.791
420.00,19.811
421.00,19.799
422.00,19.848
423.00,19.865
424.00,19.983
425.00,19.946
426.00,19.956
427.00,20.014
428.00,20.020
429.00,20.056
430.00,20.149
431.00,20.195
432.00,20.233
433.00,20.276
434.00,20.342
435.00,20.428
436.00,20.470
437.00,20.541
438.00,20.598
439.00,20.661
440.00,20.752
441.00,20.800
442.00,20.879
443.00,20.955
444.00,21.052
445.00,21.143
446.00,21.227
447.00,21.311
448.00,21.437
449.00,21.566
450.00,21.669
451.00,21.726
452.00,21.812
453.00,21.953
454.00,22.012
455.00,22.144
456.00,22.310
457.00,22.416
458.00,22.517
459.00,22.642
460.00,22.808
461.00,22.934
462.00,23.024
463.00,23.167
464.00,23.304
465.00,23.458
466.00,23.554
467.00,23.699
468.00,23.832
469.00,23.950
470.00,23.997
471.00,24.109
472.00,24.272
473.00,24.330
474.00,24.476
475.00,24.598
476.00,24.702
477.00,24.865
478.00,24.964
479.00,25.197
480.00,25.258
481.00,25.368
482.00,25.658
483.00,25.649
484.00,25.877
485.00,26.009
486.00,26.170
487.00,26.356
488.00,26.490
489.00,26.643
490.00,26.813
491.00,26.933
492.00,27.187
493.00,27.353
494.00,27.349
495.00,27.483
496.00,27.605
497.00,27.681
498.00,27.894
499.00,27.996
500.00,28.168
501.00,28.284
502.00,28.424
503.00,28.534
504.00,28.590
505.00,28.799
506.00,28.896
507.00,28.989
508.00,29.125
509.00,29.264
510.00,29.442
511.00,29.505
512.00,29.664
513.00,29.833
514.00,29.903
515.00,30.114
516.00,30.174
517.00,30.259
518.00,30.428
519.00,30.459
520.00,30.515
521.00,30.673
522.00,30.752
523.00,30.819
524.00,30.971
525.00,31.055
526.00,31.191
527.00,31.271
528.00,31.301
529.00,31.476
530.00,31.680
531.00,31.727
532.00,31.776
533.00,31.934
534.00,32.032
535.00,32.048
536.00,32.122
537.00,32.250
538.00,32.281
539.00,32.406
540.00,32.470
541.00,32.581
542.00,32.574
543.00,32.659
544.00,32.768
545.00,32.808
546.00,32.848
547.00,33.012
548.00,33.093
549.00,33.113
550.00,33.214
551.00,33.332
552.00,33.394
553.00,33.362
554.00,33.492
555.00,33.542
556.00,33.589
557.00,33.656
558.00,33.744
559.00,33.832
560.00,33.897
561.00,33.931
562.00,34.017
563.00,34.045
564.00,34.074
565.00,34.163
566.00,34.174
567.00,34.156
568.00,34.180
569.00,34.304
570.00,34.274
571.00,34.389
572.00,34.399
573.00,34.406
574.00,34.494
575.00,34.473
576.00,34.459
577.00,34.539
578.00,34.618
579.00,34.679
580.00,34.745
581.00,34.896
582.00,34.938
583.00,34.944
584.00,35.069
585.00,35.119
586.00,35.145
587.00,35.247
588.00,35.244
589.00,35.195
590.00,35.323
591.00,35.376
592.00,35.284
593.00,35.295
594.00,35.470
595.00,35.557
596.00,35.613
597.00,35.658
598.00,35.735
599.00,35.762
600.00,35.768
601.00,35.800
602.00,35.848
603.00,35.882
604.00,35.943
605.00,36.068
606.00,36.034
607.00,36.044
608.00,36.242
609.00,36.299
610.00,36.032
611.00,36.249
612.00,36.375
613.00,36.369
614.00,36.451
615.00,36.504
616.00,36.625
617.00,36.636
618.00,36.608
619.00,36.704
620.00,36.773
621.00,36.838
622.00,36.895
623.00,36.961
624.00,37.036
625.00,37.041
626.00,37.134
627.00,37.192
628.00,37.282
629.00,37.285
630.00,37.343
631.00,37.399
632.00,37.528
633.00,37.607
634.00,37.713
635.00,37.779
636.00,37.809
637.00,37.895
638.00,37.955
639.00,38.072
640.00,38.168
641.00,38.216
642.00,38.284
643.00,38.358
644.00,38.426
645.00,38.547
646.00,38.695
647.00,38.767
648.00,38.784
649.00,38.795
650.00,38.849
651.00,39.081
652.00,39.200
653.00,39.148
654.00,39.220
655.00,39.405
656.00,39.732
657.00,39.590
658.00,39.632
659.00,39.822
660.00,39.856
661.00,39.906
662.00,40.006
663.00,40.152
664.00,40.461
665.00,40.558
666.00,40.468
667.00,40.600
668.00,40.606
669.00,40.930
670.00,41.167
671.00,41.123
672.00,41.133
673.00,41.151
674.00,41.139
675.00,41.439
676.00,41.873
677.00,41.838
678.00,41.583
679.00,41.839
680.00,42.011
681.00,42.028
682.00,42.161
683.00,42.216
684.00,42.351
685.00,42.417
686.00,42.393
687.00,42.552
688.00,42.602
689.00,42.676
690.00,42.948
691.00,43.252
692.00,43.020
693.00,43.085
694.00,43.204
695.00,43.348
696.00,43.370
697.00,43.438
698.00,43.515
699.00,43.832
700.00,43.975
701.00,43.898
702.00,44.021
703.00,44.269
704.00,44.335
705.00,44.206
706.00,44.395
707.00,44.514
708.00,44.254
709.00,44.738
710.00,45.143
711.00,44.564
712.00,44.783
713.00,44.961
714.00,45.034
715.00,45.088
716.00,45.085
717.00,45.296
718.00,45.357
719.00,45.396
720.00,45.468
721.00,49.884
722.00,49.856
723.00,49.977
724.00,49.954
725.00,49.994
726.00,50.045
727.00,50.071
728.00,50.125
729.00,50.167
730.00,50.215
731.00,50.213
732.00,50.196
733.00,50.369
734.00,50.448
735.00,50.389
736.00,50.483
737.00,50.508
738.00,50.557
739.00,50.589
740.00,50.612
741.00,50.712
742.00,50.750
743.00,50.712
744.00,50.771
745.00,50.750
746.00,50.736
747.00,50.729
748.00,50.765
749.00,50.770
750.00,50.800
751.00,50.791
752.00,50.820
753.00,50.809
754.00,50.911
755.00,50.908
756.00,50.985
757.00,50.939
758.00,51.002
759.00,50.931
760.00,50.966
761.00,51.009
762.00,50.987
763.00,51.024
764.00,51.031
765.00,51.113
766.00,51.138
767.00,51.177
768.00,51.123
769.00,51.095
770.00,51.232
771.00,51.184
772.00,51.188
773.00,51.247
774.00,51.241
775.00,51.208
776.00,51.243
777.00,51.305
778.00,51.221
779.00,51.304
780.00,51.211
781.00,51.241
782.00,51.273
783.00,51.157
784.00,51.244
785.00,51.240
786.00,51.293
787.00,51.277
788.00,51.271
789.00,51.339
790.00,51.199
791.00,51.326
792.00,51.292
793.00,51.240
794.00,51.300
795.00,51.235
796.00,51.212
797.00,51.212
798.00,51.238
799.00,51.160
800.00,51.193
801.00,51.161
802.00,51.144
803.00,51.148
804.00,51.098
805.00,51.143
806.00,51.081
807.00,51.119
808.00,51.155
809.00,51.082
810.00,51.129
811.00,51.058
812.00,51.119
813.00,51.032
814.00,51.044
815.00,51.034
816.00,51.073
817.00,51.069
818.00,50.971
819.00,50.910
820.00,50.922
821.00,50.934
822.00,50.948
823.00,50.966
824.00,50.908
825.00,50.891
826.00,50.918
827.00,50.953
828.00,50.921
829.00,50.906
830.00,50.902
831.00,53.188
832.00,53.142
833.00,53.115
834.00,53.122
835.00,53.076
836.00,53.141
837.00,53.082
838.00,53.091
839.00,53.043
840.00,53.028
841.00,53.029
842.00,52.990
843.00,52.990
844.00,52.972
845.00,52.924
846.00,52.949
847.00,52.922
848.00,52.919
849.00,52.814
850.00,52.812
851.00,52.794
852.00,52.788
853.00,52.735
854.00,52.738
855.00,52.663
856.00,52.679
857.00,52.650
858.00,52.643
859.00,52.603
860.00,52.578
861.00,52.603
862.00,52.549
863.00,52.578
864.00,52.541
865.00,52.541
866.00,52.513
867.00,52.515
868.00,52.518
869.00,52.489
870.00,52.511
871.00,52.483
872.00,52.486
873.00,52.461
874.00,52.516
875.00,52.426
876.00,52.478
877.00,52.433
878.00,52.458
879.00,52.399
880.00,52.393
881.00,52.338
882.00,52.407
883.00,52.343
884.00,52.311
885.00,52.314
886.00,52.311
887.00,52.269
888.00,52.212
889.00,52.240
890.00,52.201
891.00,52.189
892.00,52.149
893.00,52.143
894.00,52.140
895.00,52.107
896.00,52.077
897.00,52.056
898.00,52.056
899.00,52.037
900.00,52.040
901.00,52.028
902.00,52.036
903.00,52.011
904.00,51.974
905.00,51.972
906.00,51.955
907.00,51.926
908.00,51.892
909.00,51.863
910.00,51.843
911.00,51.840
912.00,51.844
913.00,51.818
914.00,51.824
915.00,51.756
916.00,51.719
917.00,51.737
918.00,51.701
919.00,51.688
920.00,51.609
921.00,51.644
922.00,51.644
923.00,51.600
924.00,51.585
925.00,51.608
926.00,51.571
927.00,51.489
928.00,51.627
929.00,51.490
930.00,51.445
931.00,51.431
932.00,51.446
933.00,51.435
934.00,51.428
935.00,51.354
936.00,51.363
937.00,51.344
938.00,51.338
939.00,51.331
940.00,51.311
941.00,51.308
942.00,51.282
943.00,51.258
944.00,51.230
945.00,51.218
946.00,51.211
947.00,51.210
948.00,51.169
949.00,51.151
950.00,51.150
951.00,51.107
952.00,51.100
953.00,51.054
954.00,51.033
955.00,50.992
956.00,50.994
957.00,50.941
958.00,50.962
959.00,50.909
960.00,50.900
961.00,50.900
962.00,50.879
963.00,50.849
964.00,50.849
965.00,50.837
966.00,50.822
967.00,50.836
968.00,50.799
969.00,50.841
970.00,50.814
971.00,50.837
972.00,50.791
973.00,50.836
974.00,50.853
975.00,50.806
976.00,50.803
977.00,50.798
978.00,50.837
979.00,50.783
980.00,50.814
981.00,50.813
982.00,50.784
983.00,50.810
984.00,50.772
985.00,50.810
986.00,50.768
987.00,50.792
988.00,50.760
989.00,50.746
990.00,50.737
991.00,50.736
992.00,50.731
993.00,50.708
994.00,50.712
995.00,50.677
996.00,50.667
997.00,50.662
998.00,50.634
999.00,50.648
1000.00,50.600
1001.00,50.589
1002.00,50.589
1003.00,50.565
1004.00,50.551
1005.00,50.531
1006.00,50.555
1007.00,50.523
1008.00,50.531
1009.00,50.494
1010.00,50.510
1011.00,50.502
1012.00,50.465
1013.00,50.482
1014.00,50.437
1015.00,50.442
1016.00,50.419
1017.00,50.404
1018.00,50.405
1019.00,50.368
1020.00,50.354
1021.00,50.326
1022.00,50.335
1023.00,50.276
1024.00,50.305
1025.00,50.272
1026.00,50.248
1027.00,50.244
1028.00,50.222
1029.00,50.220
1030.00,50.176
1031.00,50.186
1032.00,50.152
1033.00,50.166
1034.00,50.122
1035.00,50.098
1036.00,50.066
1037.00,50.060
1038.00,50.051
1039.00,50.002
1040.00,50.030
1041.00,49.999
1042.00,49.972
1043.00,49.946
1044.00,50.015
1045.00,49.966
1046.00,49.966
1047.00,49.984
1048.00,49.983
1049.00,50.008
1050.00,50.005
1051.00,50.042
1052.00,50.024
1053.00,50.024
1054.00,50.050
1055.00,50.071
1056.00,50.069
1057.00,50.085
1058.00,50.053
1059.00,50.049
1060.00,50.074
1061.00,50.034
1062.00,50.039
1063.00,50.047
1064.00,50.030
1065.00,50.024
1066.00,50.020
1067.00,50.007
1068.00,50.039
1069.00,49.978
1070.00,49.973
1071.00,49.986
1072.00,50.004
1073.00,49.975
1074.00,49.976
1075.00,49.952
1076.00,49.948
1077.00,49.938
1078.00,49.902
1079.00,49.927
1080.00,49.924
1081.00,49.914
1082.00,49.899
1083.00,49.893
1084.00,49.906
1085.00,49.917
1086.00,49.883
1087.00,49.888
1088.00,49.870
1089.00,49.854
1090.00,49.856
1091.00,49.848
1092.00,49.851
1093.00,49.823
1094.00,49.790
1095.00,49.807
1096.00,49.775
1097.00,49.765
1098.00,49.767
1099.00,49.778
1100.00,49.747
1101.00,49.755
1102.00,49.736
1103.00,49.745
1104.00,49.729
1105.00,49.717
1106.00,49.704
1107.00,49.696
1108.00,49.693
1109.00,49.697
1110.00,49.686
1111.00,49.681
1112.00,49.672
1113.00,49.663
1114.00,49.646
1115.00,49.654
1116.00,49.632
1117.00,49.624
1118.00,49.625
1119.00,49.603
1120.00,49.601
1121.00,49.607
1122.00,49.577
1123.00,49.571
1124.00,49.571
1125.00,49.571
1126.00,49.572
1127.00,49.566
1128.00,49.556
1129.00,49.541
1130.00,49.519
1131.00,49.526
1132.00,49.526
1133.00,49.514
1134.00,49.511
1135.00,49.499
1136.00,49.503
1137.00,49.521
1138.00,49.498
1139.00,49.522
1140.00,49.508
1141.00,49.485
1142.00,49.483
1143.00,49.507
1144.00,49.462
1145.00,49.467
1146.00,49.460
1147.00,49.460
1148.00,49.466
1149.00,49.473
1150.00,49.477
1151.00,49.480
1152.00,49.458
1153.00,49.462
1154.00,49.457
1155.00,49.464
1156.00,49.462
1157.00,49.460
1158.00,49.446
1159.00,49.458
1160.00,49.444
1161.00,49.469
1162.00,49.474
1163.00,49.450
1164.00,49.477
1165.00,49.474
1166.00,49.457
1167.00,49.443
1168.00,49.458
1169.00,49.462
1170.00,49.447
1171.00,49.423
1172.00,49.443
1173.00,49.413
1174.00,49.411
1175.00,49.413
1176.00,49.419
1177.00,49.393
1178.00,49.418
1179.00,49.427
1180.00,49.414
1181.00,49.436
1182.00,49.410
1183.00,49.417
1184.00,49.425
1185.00,49.425
1186.00,49.422
1187.00,49.423
1188.00,49.426
1189.00,49.438
1190.00,49.422
1191.00,49.422
1192.00,49.444
1193.00,49.406
1194.00,49.425
1195.00,49.397
1196.00,49.418
1197.00,49.430
1198.00,49.429
1199.00,49.417
1200.00,49.419
1201.00,49.438
1202.00,49.420
1203.00,49.427
1204.00,49.403
1205.00,49.430
1206.00,49.425
1207.00,49.412
1208.00,49.406
1209.00,49.438
1210.00,49.407
1211.00,49.434
1212.00,49.468
1213.00,49.409
1214.00,49.440
1215.00,49.399
1216.00,49.428
1217.00,49.431
1218.00,49.412
1219.00,49.452
1220.00,49.433
1221.00,49.442
1222.00,49.446
1223.00,49.459
1224.00,49.453
1225.00,49.445
1226.00,49.442
1227.00,49.443
1228.00,49.454
1229.00,49.439
1230.00,49.475
1231.00,49.475
1232.00,49.515
1233.00,49.519
1234.00,49.508
1235.00,49.503
1236.00,49.506
1237.00,49.493
1238.00,49.493
1239.00,49.505
1240.00,49.494
1241.00,49.513
1242.00,49.517
1243.00,49.522
1244.00,49.511
1245.00,49.545
1246.00,49.548
1247.00,49.550
1248.00,49.545
1249.00,49.547
1250.00,49.562
1251.00,49.538
1252.00,49.558
1253.00,49.552
1254.00,49.570
1255.00,49.574
1256.00,49.540
1257.00,49.558
1258.00,49.591
1259.00,49.554
1260.00,49.588
1261.00,49.590
1262.00,49.561
1263.00,49.586
1264.00,49.590
1265.00,49.587
1266.00,49.599
1267.00,49.612
1268.00,49.617
1269.00,49.626
1270.00,49.648
1271.00,49.647
1272.00,49.671
1273.00,49.682
1274.00,49.654
1275.00,49.668
1276.00,49.647
1277.00,49.664
1278.00,49.700
1279.00,49.701
1280.00,49.677
1281.00,49.695
1282.00,49.710
1283.00,49.700
1284.00,49.709
1285.00,49.714
1286.00,49.736
1287.00,49.713
1288.00,49.721
1289.00,49.705
1290.00,49.743
1291.00,49.753
1292.00,49.733
1293.00,49.768
1294.00,49.813
1295.00,49.785
1296.00,49.793
1297.00,49.793
1298.00,49.836
1299.00,49.809
1300.00,49.823
1301.00,49.820
1302.00,49.854
1303.00,49.836
1304.00,49.833
1305.00,49.867
1306.00,49.840
1307.00,49.863
1308.00,49.878
1309.00,49.894
1310.00,49.899
1311.00,49.881
1312.00,49.884
1313.00,49.895
1314.00,49.905
1315.00,49.931
1316.00,49.920
1317.00,49.941
1318.00,49.959
1319.00,49.964
1320.00,49.953
1321.00,50.133
1322.00,50.116
1323.00,50.091
1324.00,50.095
1325.00,50.087
1326.00,50.104
1327.00,50.103
1328.00,50.097
1329.00,50.103
1330.00,50.114
1331.00,50.104
1332.00,50.114
1333.00,50.111
1334.00,50.130
1335.00,50.170
1336.00,50.234
1337.00,50.207
1338.00,50.297
1339.00,50.326
1340.00,50.404
1341.00,50.464
1342.00,50.515
1343.00,50.566
1344.00,50.609
1345.00,50.655
1346.00,50.708
1347.00,50.723
1348.00,50.746
1349.00,50.780
1350.00,50.781
1351.00,50.812
1352.00,50.836
1353.00,50.587
1354.00,50.824
1355.00,50.784
1356.00,50.864
1357.00,50.850
1358.00,50.865
1359.00,50.845
1360.00,50.830
1361.00,50.731
1362.00,50.691
1363.00,50.667
1364.00,50.950
1365.00,50.884
1366.00,50.971
1367.00,50.901
1368.00,50.835
1369.00,50.903
1370.00,50.894
1371.00,50.824
1372.00,50.855
1373.00,50.905
1374.00,50.916
1375.00,50.881
1376.00,50.902
1377.00,50.890
1378.00,50.961
1379.00,50.929
1380.00,50.948
1381.00,50.941
1382.00,50.870
1383.00,50.937
1384.00,50.907
1385.00,50.910
1386.00,50.943
1387.00,50.859
1388.00,50.863
1389.00,50.930
1390.00,50.922
1391.00,50.890
1392.00,50.847
1393.00,50.901
1394.00,50.871
1395.00,50.882
1396.00,50.860
1397.00,50.908
1398.00,50.893
1399.00,50.876
1400.00,50.672
1401.00,50.871
1402.00,50.965
1403.00,50.926
1404.00,50.945
1405.00,50.930
1406.00,50.981
1407.00,50.981
1408.00,50.935
1409.00,50.888
1410.00,51.026
1411.00,50.918
1412.00,51.049
1413.00,51.004
1414.00,50.945
1415.00,51.000
1416.00,51.035
1417.00,51.082
1418.00,51.038
1419.00,51.043
1420.00,51.070
1421.00,51.124
1422.00,51.100
1423.00,51.140
1424.00,51.146
1425.00,51.162
1426.00,51.176
1427.00,51.179
1428.00,51.193
1429.00,51.221
1430.00,51.212
1431.00,51.244
1432.00,51.268
1433.00,51.258
1434.00,51.285
1435.00,51.356
1436.00,51.339
1437.00,51.325
1438.00,51.345
1439.00,51.394
1440.00,51.416
1441.00,51.407
1442.00,51.431
1443.00,51.459
1444.00,51.532
1445.00,51.467
1446.00,51.495
1447.00,51.514
1448.00,51.570
1449.00,51.584
1450.00,51.584
1451.00,51.618
1452.00,51.597
1453.00,51.610
1454.00,51.647
1455.00,51.660
1456.00,51.722
1457.00,51.697
1458.00,51.718
1459.00,51.742
1460.00,51.751
1461.00,51.759
1462.00,51.789
1463.00,51.794
1464.00,51.820
1465.00,51.831
1466.00,51.829
1467.00,51.864
1468.00,51.928
1469.00,51.884
1470.00,51.938
1471.00,51.955
1472.00,51.956
1473.00,51.968
1474.00,51.995
1475.00,52.019
1476.00,52.036
1477.00,52.004
1478.00,52.062
1479.00,52.082
1480.00,52.058
1481.00,52.071
1482.00,52.104
1483.00,52.128
1484.00,52.140
1485.00,52.132
1486.00,52.173
1487.00,52.203
1488.00,52.231
1489.00,52.228
1490.00,52.248
1491.00,52.233
1492.00,52.260
1493.00,52.241
1494.00,52.298
1495.00,52.281
1496.00,52.296
1497.00,52.264
1498.00,52.315
1499.00,52.309
1500.00,52.340
1501.00, 
1502.00, 
1503.00, 
1504.00, 
1505.00, 
1506.00, 
1507.00, 
1508.00, 
1509.00, 
1510.00, 
1511.00, 
1512.00, 
1513.00, 
1514.00, 
1515.00, 
1516.00, 
1517.00, 
1518.00, 
1519.00, 
1520.00, 
1521.00, 
1522.00, 
1523.00, 
1524.00, 
1525.00, 
1526.00, 
1527.00, 
1528.00, 
1529.00, 
1530.00, 
1531.00, 
1532.00, 
1533.00, 
1534.00, 
1535.00, 
1536.00, 
1537.00, 
1538.00, 
1539.00, 
1540.00, 
1541.00, 
1542.00, 
1543.00, 
1544.00, 
1545.00, 
1546.00, 
1547.00, 
1548.00, 
1549.00, 
1550.00, 
1551.00, 
1552.00, 
1553.00, 
1554.00, 
1555.00, 
1556.00, 
1557.00, 
1558.00, 
1559.00, 
1560.00, 
1561.00, 
1562.00, 
1563.00, 
1564.00, 
1565.00, 
1566.00, 
1567.00, 
1568.00, 
1569.00, 
1570.00, 
1571.00, 
1572.00, 
1573.00, 
1574.00, 
1575.00, 
1576.00, 
1577.00, 
1578.00, 
1579.00, 
1580.00, 
1581.00, 
1582.00, 
1583.00, 
1584.00, 
1585.00, 
1586.00, 
1587.00, 
1588.00, 
1589.00, 
1590.00, 
1591.00, 
1592.00, 
1593.00, 
1594.00, 
1595.00, 
1596.00, 
1597.00, 
1598.00, 
1599.00, 
1600.00, 
1601.00, 
1602.00, 
1603.00, 
1604.00, 
1605.00, 
1606.00, 
1607.00, 
1608.00, 
1609.00, 
1610.00, 
1611.00, 
1612.00, 
1613.00, 
1614.00, 
1615.00, 
1616.00, 
1617.00, 
1618.00, 
1619.00, 
1620.00, 
1621.00, 
1622.00, 
1623.00, 
1624.00, 
1625.00, 
1626.00, 
1627.00, 
1628.00, 
1629.00, 
1630.00, 
1631.00, 
1632.00, 
1633.00, 
1634.00, 
1635.00, 
1636.00, 
1637.00, 
1638.00, 
1639.00, 
1640.00, 
1641.00, 
1642.00, 
1643.00, 
1644.00, 
1645.00, 
1646.00, 
1647.00, 
1648.00, 
1649.00, 
1650.00, 
1651.00, 
1652.00, 
1653.00, 
1654.00, 
1655.00, 
1656.00, 
1657.00, 
1658.00, 
1659.00, 
1660.00, 
1661.00, 
1662.00, 
1663.00, 
1664.00, 
1665.00, 
1666.00, 
1667.00, 
1668.00, 
1669.00, 
1670.00, 
1671.00, 
1672.00, 
1673.00, 
1674.00, 
1675.00, 
1676.00, 
1677.00, 
1678.00, 
1679.00, 
1680.00, 
1681.00, 
1682.00, 
1683.00, 
1684.00, 
1685.00, 
1686.00, 
1687.00, 
1688.00, 
1689.00, 
1690.00, 
1691.00, 
1692.00, 
1693.00, 
1694.00, 
1695.00, 
1696.00, 
1697.00, 
1698.00, 
1699.00, 
1700.00, 
1701.00, 
1702.00, 
1703.00, 
1704.00, 
1705.00, 
1706.00, 
1707.00, 
1708.00, 
1709.00, 
1710.00, 
1711.00, 
1712.00, 
1713.00, 
1714.00, 
1715.00, 
1716.00, 
1717.00, 
1718.00, 
1719.00, 
1720.00, 
1721.00, 
1722.00, 
1723.00, 
1724.00, 
1725.00, 
1726.00, 
1727.00, 
1728.00, 
1729.00, 
1730.00, 
1731.00, 
1732.00, 
1733.00, 
1734.00, 
1735.00, 
1736.00, 
1737.00, 
1738.00, 
1739.00, 
1740.00, 
1741.00, 
1742.00, 
1743.00, 
1744.00, 
1745.00, 
1746.00, 
1747.00, 
1748.00, 
1749.00, 
1750.00, 
1751.00, 
1752.00, 
1753.00, 
1754.00, 
1755.00, 
1756.00, 
1757.00, 
1758.00, 
1759.00, 
1760.00, 
1761.00, 
1762.00, 
1763.00, 
1764.00, 
1765.00, 
1766.00, 
1767.00, 
1768.00, 
1769.00, 
1770.00, 
1771.00, 
1772.00, 
1773.00, 
1774.00, 
1775.00, 
1776.00, 
1777.00, 
1778.00, 
1779.00, 
1780.00, 
1781.00, 
1782.00, 
1783.00, 
1784.00, 
1785.00, 
1786.00, 
1787.00, 
1788.00, 
1789.00, 
1790.00, 
1791.00, 
1792.00, 
1793.00, 
1794.00, 
1795.00, 
1796.00, 
1797.00, 
1798.00, 
1799.00, 
1800.00, 
1801.00, 
1802.00, 
1803.00, 
1804.00, 
1805.00, 
1806.00, 
1807.00, 
1808.00, 
1809.00, 
1810.00, 
1811.00, 
1812.00, 
1813.00, 
1814.00, 
1815.00, 
1816.00, 
1817.00, 
1818.00, 
1819.00, 
1820.00, 
1821.00, 
1822.00, 
1823.00, 
1824.00, 
1825.00, 
1826.00, 
1827.00, 
1828.00, 
1829.00, 
1830.00, 
1831.00, 
1832.00, 
1833.00, 
1834.00, 
1835.00, 
1836.00, 
1837.00, 
1838.00, 
1839.00, 
1840.00, 
1841.00, 
1842.00, 
1843.00, 
1844.00, 
1845.00, 
1846.00, 
1847.00, 
1848.00, 
1849.00, 
1850.00, 
1851.00, 
1852.00, 
1853.00, 
1854.00, 
1855.00, 
1856.00, 
1857.00, 
1858.00, 
1859.00, 
1860.00, 
1861.00, 
1862.00, 
1863.00, 
1864.00, 
1865.00, 
1866.00, 
1867.00, 
1868.00, 
1869.00, 
1870.00, 
1871.00, 
1872.00, 
1873.00, 
1874.00, 
1875.00, 
1876.00, 
1877.00, 
1878.00, 
1879.00, 
1880.00, 
1881.00, 
1882.00, 
1883.00, 
1884.00, 
1885.00, 
1886.00, 
1887.00, 
1888.00, 
1889.00, 
1890.00, 
1891.00, 
1892.00, 
1893.00, 
1894.00, 
1895.00, 
1896.00, 
1897.00, 
1898.00, 
1899.00, 
1900.00, 
1901.00, 
1902.00, 
1903.00, 
1904.00, 
1905.00, 
1906.00, 
1907.00, 
1908.00, 
1909.00, 
1910.00, 
1911.00, 
1912.00, 
1913.00, 
1914.00, 
1915.00, 
1916.00, 
1917.00, 
1918.00, 
1919.00, 
1920.00, 
1921.00, 
1922.00, 
1923.00, 
1924.00, 
1925.00, 
1926.00, 
1927.00, 
1928.00, 
1929.00, 
1930.00, 
1931.00, 
1932.00, 
1933.00, 
1934.00, 
1935.00, 
1936.00, 
1937.00, 
1938.00, 
1939.00, 
1940.00, 
1941.00, 
1942.00, 
1943.00, 
1944.00, 
1945.00, 
1946.00, 
1947.00, 
1948.00, 
1949.00, 
1950.00, 
1951.00, 
1952.00, 
1953.00, 
1954.00, 
1955.00, 
1956.00, 
1957.00, 
1958.00, 
1959.00, 
1960.00, 
1961.00, 
1962.00, 
1963.00, 
1964.00, 
1965.00, 
1966.00, 
1967.00, 
1968.00, 
1969.00, 
1970.00, 
1971.00, 
1972.00, 
1973.00, 
1974.00, 
1975.00, 
1976.00, 
1977.00, 
1978.00, 
1979.00, 
1980.00, 
1981.00, 
1982.00, 
1983.00, 
1984.00, 
1985.00, 
1986.00, 
1987.00, 
1988.00, 
1989.00, 
1990.00, 
1991.00, 
1992.00, 
1993.00, 
1994.00, 
1995.00, 
1996.00, 
1997.00, 
1998.00, 
1999.00, 
2000.00, 
2001.00, 
2002.00, 
2003.00, 
2004.00, 
2005.00, 
2006.00, 
2007.00, 
2008.00, 
2009.00, 
2010.00, 
2011.00, 
2012.00, 
2013.00, 
2014.00, 
2015.00, 
2016.00, 
2017.00, 
2018.00, 
2019.00, 
2020.00, 
2021.00, 
2022.00, 
2023.00, 
2024.00, 
2025.00, 
2026.00, 
2027.00, 
2028.00, 
2029.00, 
2030.00, 
2031.00, 
2032.00, 
2033.00, 
2034.00, 
2035.00, 
2036.00, 
2037.00, 
2038.00, 
2039.00, 
2040.00, 
2041.00, 
2042.00, 
2043.00, 
2044.00, 
2045.00, 
2046.00, 
2047.00, 
2048.00, 
2049.00, 
2050.00, 
2051.00, 
2052.00, 
2053.00, 
2054.00, 
2055.00, 
2056.00, 
2057.00, 
2058.00, 
2059.00, 
2060.00, 
2061.00, 
2062.00, 
2063.00, 
2064.00, 
2065.00, 
2066.00, 
2067.00, 
2068.00, 
2069.00, 
2070.00, 
2071.00, 
2072.00, 
2073.00, 
2074.00, 
2075.00, 
2076.00, 
2077.00, 
2078.00, 
2079.00, 
2080.00, 
2081.00, 
2082.00, 
2083.00, 
2084.00, 
2085.00, 
2086.00, 
2087.00, 
2088.00, 
2089.00, 
2090.00, 
2091.00, 
2092.00, 
2093.00, 
2094.00, 
2095.00, 
2096.00, 
2097.00, 
2098.00, 
2099.00, 
2100.00, 
2101.00, 
2102.00, 
2103.00, 
2104.00, 
2105.00, 
2106.00, 
2107.00, 
2108.00, 
2109.00, 
2110.00, 
2111.00, 
2112.00, 
2113.00, 
2114.00, 
2115.00, 
2116.00, 
2117.00, 
2118.00, 
2119.00, 
2120.00, 
2121.00, 
2122.00, 
2123.00, 
2124.00, 
2125.00, 
2126.00, 
2127.00, 
2128.00, 
2129.00, 
2130.00, 
2131.00, 
2132.00, 
2133.00, 
2134.00, 
2135.00, 
2136.00, 
2137.00, 
2138.00, 
2139.00, 
2140.00, 
2141.00, 
2142.00, 
2143.00, 
2144.00, 
2145.00, 
2146.00, 
2147.00, 
2148.00, 
2149.00, 
2150.00, 
2151.00, 
2152.00, 
2153.00, 
2154.00, 
2155.00, 
2156.00, 
2157.00, 
2158.00, 
2159.00, 
2160.00, 
2161.00, 
2162.00, 
2163.00, 
2164.00, 
2165.00, 
2166.00, 
2167.00, 
2168.00, 
2169.00, 
2170.00, 
2171.00, 
2172.00, 
2173.00, 
2174.00, 
2175.00, 
2176.00, 
2177.00, 
2178.00, 
2179.00, 
2180.00, 
2181.00, 
2182.00, 
2183.00, 
2184.00, 
2185.00, 
2186.00, 
2187.00, 
2188.00, 
2189.00, 
2190.00, 
2191.00, 
2192.00, 
2193.00, 
2194.00, 
2195.00, 
2196.00, 
2197.00, 
2198.00, 
2199.00, 
2200.00, 
2201.00, 
2202.00, 
2203.00, 
2204.00, 
2205.00, 
2206.00, 
2207.00, 
2208.00, 
2209.00, 
2210.00, 
2211.00, 
2212.00, 
2213.00, 
2214.00, 
2215.00, 
2216.00, 
2217.00, 
2218.00, 
2219.00, 
2220.00, 
2221.00, 
2222.00, 
2223.00, 
2224.00, 
2225.00, 
2226.00, 
2227.00, 
2228.00, 
2229.00, 
2230.00, 
2231.00, 
2232.00, 
2233.00, 
2234.00, 
2235.00, 
2236.00, 
2237.00, 
2238.00, 
2239.00, 
2240.00, 
2241.00, 
2242.00, 
2243.00, 
2244.00, 
2245.00, 
2246.00, 
2247.00, 
2248.00, 
2249.00, 
2250.00, 
2251.00, 
2252.00, 
2253.00, 
2254.00, 
2255.00, 
2256.00, 
2257.00, 
2258.00, 
2259.00, 
2260.00, 
2261.00, 
2262.00, 
2263.00, 
2264.00, 
2265.00, 
2266.00, 
2267.00, 
2268.00, 
2269.00, 
2270.00, 
2271.00, 
2272.00, 
2273.00, 
2274.00, 
2275.00, 
2276.00, 
2277.00, 
2278.00, 
2279.00, 
2280.00, 
2281.00, 
2282.00, 
2283.00, 
2284.00, 
2285.00, 
2286.00, 
2287.00, 
2288.00, 
2289.00, 
2290.00, 
2291.00, 
2292.00, 
2293.00, 
2294.00, 
2295.00, 
2296.00, 
2297.00, 
2298.00, 
2299.00, 
2300.00, 
2301.00, 
2302.00, 
2303.00, 
2304.00, 
2305.00, 
2306.00, 
2307.00, 
2308.00, 
2309.00, 
2310.00, 
2311.00, 
2312.00, 
2313.00, 
2314.00, 
2315.00, 
2316.00, 
2317.00, 
2318.00, 
2319.00, 
2320.00, 
2321.00, 
2322.00, 
2323.00, 
2324.00, 
2325.00, 
2326.00, 
2327.00, 
2328.00, 
2329.00, 
2330.00, 
2331.00, 
2332.00, 
2333.00, 
2334.00, 
2335.00, 
2336.00, 
2337.00, 
2338.00, 
2339.00, 
2340.00, 
2341.00, 
2342.00, 
2343.00, 
2344.00, 
2345.00, 
2346.00, 
2347.00, 
2348.00, 
2349.00, 
2350.00, 
2351.00, 
2352.00, 
2353.00, 
2354.00, 
2355.00, 
2356.00, 
2357.00, 
2358.00, 
2359.00, 
2360.00, 
2361.00, 
2362.00, 
2363.00, 
2364.00, 
2365.00, 
2366.00, 
2367.00, 
2368.00, 
2369.00, 
2370.00, 
2371.00, 
2372.00, 
2373.00, 
2374.00, 
2375.00, 
2376.00, 
2377.00, 
2378.00, 
2379.00, 
2380.00, 
2381.00, 
2382.00, 
2383.00, 
2384.00, 
2385.00, 
2386.00, 
2387.00, 
2388.00, 
2389.00, 
2390.00, 
2391.00, 
2392.00, 
2393.00, 
2394.00, 
2395.00, 
2396.00, 
2397.00, 
2398.00, 
2399.00, 
2400.00, 
2401.00, 
2402.00, 
2403.00, 
2404.00, 
2405.00, 
2406.00, 
2407.00, 
2408.00, 
2409.00, 
2410.00, 
2411.00, 
2412.00, 
2413.00, 
2414.00, 
2415.00, 
2416.00, 
2417.00, 
2418.00, 
2419.00, 
2420.00, 
2421.00, 
2422.00, 
2423.00, 
2424.00, 
2425.00, 
2426.00, 
2427.00, 
2428.00, 
2429.00, 
2430.00, 
2431.00, 
2432.00, 
2433.00, 
2434.00, 
2435.00, 
2436.00, 
2437.00, 
2438.00, 
2439.00, 
2440.00, 
2441.00, 
2442.00, 
2443.00, 
2444.00, 
2445.00, 
2446.00, 
2447.00, 
2448.00, 
2449.00, 
2450.00, 
2451.00, 
2452.00, 
2453.00, 
2454.00, 
2455.00, 
2456.00, 
2457.00, 
2458.00, 
2459.00, 
2460.00, 
2461.00, 
2462.00, 
2463.00, 
2464.00, 
2465.00, 
2466.00, 
2467.00, 
2468.00, 
2469.00, 
2470.00, 
2471.00, 
2472.00, 
2473.00, 
2474.00, 
2475.00, 
2476.00, 
2477.00, 
2478.00, 
2479.00, 
2480.00, 
2481.00, 
2482.00, 
2483.00, 
2484.00, 
2485.00, 
2486.00, 
2487.00, 
2488.00, 
2489.00, 
2490.00, 
2491.00, 
2492.00, 
2493.00, 
2494.00, 
2495.00, 
2496.00, 
2497.00, 
2498.00, 
2499.00, 
2500.00, 
2501.00, 
2502.00, 
2503.00, 
2504.00, 
2505.00, 
2506.00, 
2507.00, 
2508.00, 
2509.00, 
2510.00, 
2511.00, 
2512.00, 
2513.00, 
2514.00, 
2515.00, 
2516.00, 
2517.00, 
2518.00, 
2519.00, 
2520.00, 
2521.00, 
2522.00, 
2523.00, 
2524.00, 
2525.00, 
2526.00, 
2527.00, 
2528.00, 
2529.00, 
2530.00, 
2531.00, 
2532.00, 
2533.00, 
2534.00, 
2535.00, 
2536.00, 
2537.00, 
2538.00, 
2539.00, 
2540.00, 
2541.00, 
2542.00, 
2543.00, 
2544.00, 
2545.00, 
2546.00, 
2547.00, 
2548.00, 
2549.00, 
2550.00, 
2551.00, 
2552.00, 
2553.00, 
2554.00, 
2555.00, 
2556.00, 
2557.00, 
2558.00, 
2559.00, 
2560.00, 
2561.00, 
2562.00, 
2563.00, 
2564.00, 
2565.00, 
2566.00, 
2567.00, 
2568.00, 
2569.00, 
2570.00, 
2571.00, 
2572.00, 
2573.00, 
2574.00, 
2575.00, 
2576.00, 
2577.00, 
2578.00, 
2579.00, 
2580.00, 
2581.00, 
2582.00, 
2583.00, 
2584.00, 
2585.00, 
2586.00, 
2587.00, 
2588.00, 
2589.00, 
2590.00, 
2591.00, 
2592.00, 
2593.00, 
2594.00, 
2595.00, 
2596.00, 
2597.00, 
2598.00, 
2599.00, 
2600.00, 
