"1cP1 - RawData"
"Wavelength nm.","T%"
200.00,0.001
201.00,0.003
202.00,-0.003
203.00,0.000
204.00,-0.001
205.00,0.001
206.00,0.003
207.00,0.002
208.00,0.003
209.00,0.001
210.00,-0.002
211.00,-0.002
212.00,0.000
213.00,0.003
214.00,0.002
215.00,0.001
216.00,0.001
217.00,0.001
218.00,0.004
219.00,0.001
220.00,-0.001
221.00,0.002
222.00,0.000
223.00,0.000
224.00,0.002
225.00,0.001
226.00,0.003
227.00,0.002
228.00,-0.000
229.00,0.002
230.00,0.002
231.00,-0.000
232.00,0.000
233.00,0.000
234.00,0.001
235.00,0.003
236.00,0.000
237.00,0.001
238.00,0.001
239.00,0.002
240.00,0.000
241.00,-0.001
242.00,-0.001
243.00,-0.002
244.00,-0.001
245.00,0.000
246.00,0.001
247.00,0.001
248.00,0.002
249.00,-0.000
250.00,0.002
251.00,0.001
252.00,0.001
253.00,0.004
254.00,0.000
255.00,-0.000
256.00,-0.001
257.00,0.002
258.00,0.002
259.00,0.001
260.00,-0.000
261.00,0.000
262.00,0.000
263.00,0.001
264.00,-0.001
265.00,-0.000
266.00,-0.001
267.00,0.001
268.00,0.000
269.00,0.000
270.00,0.000
271.00,-0.000
272.00,0.000
273.00,0.000
274.00,0.000
275.00,-0.001
276.00,-0.000
277.00,-0.000
278.00,0.001
279.00,0.001
280.00,0.002
281.00,0.001
282.00,-0.000
283.00,0.002
284.00,-0.001
285.00,-0.001
286.00,0.001
287.00,-0.000
288.00,0.000
289.00,-0.001
290.00,0.003
291.00,-0.000
292.00,-0.001
293.00,0.002
294.00,0.000
295.00,-0.000
296.00,0.001
297.00,-0.001
298.00,-0.001
299.00,0.001
300.00,0.001
301.00,0.002
302.00,-0.001
303.00,0.001
304.00,0.001
305.00,0.002
306.00,0.002
307.00,0.004
308.00,0.007
309.00,0.013
310.00,0.020
311.00,0.027
312.00,0.047
313.00,0.071
314.00,0.106
315.00,0.155
316.00,0.221
317.00,0.316
318.00,0.436
319.00,0.578
320.00,0.777
321.00,1.010
322.00,1.284
323.00,1.624
324.00,1.940
325.00,2.405
326.00,2.861
327.00,3.387
328.00,3.988
329.00,4.571
330.00,5.263
331.00,5.951
332.00,6.678
333.00,7.467
334.00,8.229
335.00,9.085
336.00,9.893
337.00,10.754
338.00,11.606
339.00,12.405
340.00,13.201
341.00,14.034
342.00,14.805
343.00,15.522
344.00,16.267
345.00,17.093
346.00,17.674
347.00,18.261
348.00,18.884
349.00,19.388
350.00,20.079
351.00,20.540
352.00,21.016
353.00,21.478
354.00,21.905
355.00,22.344
356.00,22.677
357.00,23.040
358.00,23.331
359.00,23.719
360.00,24.087
361.00,24.251
362.00,24.520
363.00,24.751
364.00,24.880
365.00,25.024
366.00,25.226
367.00,25.321
368.00,25.408
369.00,25.541
370.00,25.586
371.00,25.655
372.00,25.619
373.00,25.597
374.00,25.637
375.00,25.650
376.00,25.541
377.00,25.491
378.00,25.364
379.00,25.265
380.00,25.273
381.00,25.286
382.00,25.286
383.00,25.331
384.00,25.408
385.00,25.527
386.00,25.548
387.00,25.678
388.00,25.744
389.00,25.812
390.00,25.857
391.00,25.972
392.00,26.056
393.00,26.072
394.00,26.131
395.00,26.194
396.00,26.194
397.00,26.224
398.00,26.269
399.00,26.273
400.00,26.292
401.00,26.282
402.00,26.298
403.00,26.284
404.00,26.254
405.00,26.279
406.00,26.255
407.00,26.229
408.00,26.224
409.00,26.135
410.00,26.097
411.00,26.080
412.00,26.025
413.00,26.076
414.00,26.037
415.00,26.022
416.00,26.083
417.00,26.053
418.00,26.060
419.00,26.156
420.00,26.197
421.00,26.228
422.00,26.232
423.00,26.260
424.00,26.313
425.00,26.345
426.00,26.326
427.00,26.391
428.00,26.442
429.00,26.469
430.00,26.526
431.00,26.546
432.00,26.599
433.00,26.619
434.00,26.715
435.00,26.777
436.00,26.768
437.00,26.859
438.00,26.933
439.00,26.989
440.00,27.030
441.00,27.102
442.00,27.185
443.00,27.263
444.00,27.340
445.00,27.417
446.00,27.505
447.00,27.573
448.00,27.700
449.00,27.802
450.00,27.895
451.00,27.972
452.00,28.067
453.00,28.209
454.00,28.279
455.00,28.389
456.00,28.501
457.00,28.620
458.00,28.659
459.00,28.836
460.00,28.954
461.00,29.093
462.00,29.173
463.00,29.337
464.00,29.370
465.00,29.550
466.00,29.674
467.00,29.808
468.00,29.854
469.00,29.982
470.00,30.058
471.00,30.132
472.00,30.265
473.00,30.319
474.00,30.424
475.00,30.539
476.00,30.619
477.00,30.733
478.00,30.780
479.00,30.989
480.00,31.106
481.00,31.254
482.00,31.406
483.00,31.541
484.00,31.696
485.00,31.848
486.00,31.946
487.00,32.097
488.00,32.231
489.00,32.376
490.00,32.563
491.00,32.662
492.00,32.793
493.00,32.956
494.00,33.114
495.00,33.095
496.00,33.265
497.00,33.285
498.00,33.439
499.00,33.608
500.00,33.690
501.00,33.780
502.00,33.951
503.00,34.070
504.00,34.003
505.00,34.194
506.00,34.368
507.00,34.438
508.00,34.517
509.00,34.705
510.00,34.834
511.00,34.890
512.00,35.046
513.00,35.176
514.00,35.322
515.00,35.453
516.00,35.530
517.00,35.620
518.00,35.703
519.00,35.752
520.00,35.843
521.00,35.985
522.00,36.036
523.00,36.021
524.00,36.146
525.00,36.258
526.00,36.373
527.00,36.369
528.00,36.465
529.00,36.614
530.00,36.779
531.00,36.892
532.00,36.921
533.00,37.044
534.00,37.149
535.00,37.218
536.00,37.288
537.00,37.354
538.00,37.428
539.00,37.461
540.00,37.577
541.00,37.597
542.00,37.613
543.00,37.741
544.00,37.748
545.00,37.885
546.00,37.914
547.00,37.994
548.00,38.067
549.00,38.112
550.00,38.220
551.00,38.354
552.00,38.429
553.00,38.478
554.00,38.540
555.00,38.542
556.00,38.588
557.00,38.688
558.00,38.713
559.00,38.755
560.00,38.858
561.00,38.992
562.00,38.987
563.00,38.955
564.00,39.062
565.00,38.998
566.00,39.064
567.00,39.110
568.00,39.162
569.00,39.260
570.00,39.269
571.00,39.314
572.00,39.309
573.00,39.292
574.00,39.350
575.00,39.359
576.00,39.396
577.00,39.406
578.00,39.488
579.00,39.565
580.00,39.588
581.00,39.761
582.00,39.856
583.00,39.829
584.00,39.902
585.00,40.074
586.00,40.140
587.00,40.047
588.00,40.071
589.00,40.040
590.00,40.188
591.00,40.237
592.00,40.238
593.00,40.190
594.00,40.355
595.00,40.483
596.00,40.486
597.00,40.610
598.00,40.592
599.00,40.528
600.00,40.568
601.00,40.656
602.00,40.654
603.00,40.716
604.00,40.798
605.00,40.832
606.00,40.806
607.00,40.800
608.00,40.946
609.00,41.076
610.00,40.916
611.00,40.976
612.00,41.037
613.00,41.115
614.00,41.145
615.00,41.189
616.00,41.305
617.00,41.284
618.00,41.293
619.00,41.358
620.00,41.325
621.00,41.443
622.00,41.473
623.00,41.527
624.00,41.630
625.00,41.642
626.00,41.690
627.00,41.754
628.00,41.769
629.00,41.784
630.00,41.855
631.00,41.842
632.00,41.978
633.00,42.012
634.00,42.110
635.00,42.229
636.00,42.254
637.00,42.277
638.00,42.327
639.00,42.441
640.00,42.458
641.00,42.454
642.00,42.540
643.00,42.592
644.00,42.637
645.00,42.684
646.00,42.848
647.00,42.863
648.00,42.887
649.00,42.882
650.00,42.904
651.00,43.060
652.00,43.172
653.00,43.098
654.00,43.140
655.00,43.325
656.00,43.626
657.00,43.375
658.00,43.461
659.00,43.652
660.00,43.683
661.00,43.632
662.00,43.683
663.00,43.756
664.00,44.070
665.00,44.192
666.00,44.114
667.00,44.280
668.00,43.774
669.00,44.401
670.00,44.659
671.00,44.744
672.00,44.459
673.00,44.526
674.00,44.654
675.00,44.703
676.00,44.906
677.00,45.029
678.00,44.765
679.00,44.974
680.00,45.066
681.00,45.213
682.00,45.207
683.00,45.182
684.00,45.324
685.00,45.375
686.00,45.167
687.00,45.412
688.00,45.471
689.00,45.352
690.00,45.739
691.00,45.899
692.00,45.502
693.00,45.720
694.00,46.053
695.00,45.907
696.00,46.034
697.00,46.005
698.00,46.035
699.00,46.413
700.00,46.224
701.00,46.240
702.00,46.419
703.00,46.373
704.00,46.560
705.00,46.400
706.00,46.506
707.00,46.343
708.00,46.558
709.00,47.078
710.00,47.201
711.00,46.692
712.00,46.855
713.00,47.014
714.00,46.987
715.00,47.029
716.00,47.008
717.00,47.220
718.00,47.205
719.00,47.112
720.00,47.299
721.00,51.944
722.00,51.965
723.00,52.002
724.00,51.967
725.00,51.892
726.00,51.947
727.00,52.013
728.00,51.939
729.00,51.931
730.00,51.957
731.00,51.979
732.00,51.905
733.00,52.007
734.00,52.001
735.00,52.084
736.00,52.003
737.00,51.996
738.00,52.063
739.00,52.082
740.00,52.087
741.00,52.092
742.00,52.114
743.00,52.086
744.00,52.052
745.00,52.084
746.00,52.069
747.00,52.020
748.00,52.007
749.00,52.051
750.00,51.967
751.00,51.932
752.00,51.976
753.00,51.964
754.00,51.954
755.00,51.996
756.00,52.107
757.00,51.897
758.00,51.978
759.00,51.901
760.00,52.056
761.00,51.941
762.00,51.860
763.00,51.896
764.00,51.950
765.00,51.931
766.00,51.922
767.00,51.894
768.00,51.925
769.00,51.898
770.00,51.935
771.00,51.962
772.00,51.903
773.00,51.925
774.00,51.943
775.00,51.920
776.00,51.944
777.00,51.945
778.00,51.933
779.00,51.897
780.00,51.854
781.00,51.858
782.00,51.895
783.00,51.788
784.00,51.870
785.00,51.813
786.00,51.814
787.00,51.717
788.00,51.750
789.00,51.784
790.00,51.699
791.00,51.788
792.00,51.668
793.00,51.673
794.00,51.699
795.00,51.661
796.00,51.598
797.00,51.600
798.00,51.568
799.00,51.517
800.00,51.555
801.00,51.527
802.00,51.541
803.00,51.520
804.00,51.392
805.00,51.429
806.00,51.414
807.00,51.353
808.00,51.340
809.00,51.348
810.00,51.303
811.00,51.344
812.00,51.374
813.00,51.256
814.00,51.293
815.00,51.210
816.00,51.268
817.00,51.171
818.00,51.157
819.00,51.148
820.00,51.177
821.00,51.173
822.00,51.113
823.00,51.068
824.00,51.081
825.00,50.986
826.00,51.029
827.00,51.145
828.00,51.010
829.00,51.106
830.00,50.943
831.00,53.336
832.00,53.315
833.00,53.247
834.00,53.283
835.00,53.223
836.00,53.202
837.00,53.192
838.00,53.196
839.00,53.132
840.00,53.055
841.00,53.132
842.00,53.078
843.00,53.108
844.00,53.074
845.00,52.989
846.00,53.035
847.00,52.970
848.00,52.929
849.00,52.875
850.00,52.890
851.00,52.782
852.00,52.806
853.00,52.767
854.00,52.727
855.00,52.712
856.00,52.673
857.00,52.630
858.00,52.624
859.00,52.649
860.00,52.494
861.00,52.627
862.00,52.524
863.00,52.555
864.00,52.532
865.00,52.554
866.00,52.413
867.00,52.451
868.00,52.662
869.00,52.441
870.00,52.445
871.00,52.413
872.00,52.421
873.00,52.382
874.00,52.368
875.00,52.362
876.00,52.348
877.00,52.335
878.00,52.332
879.00,52.285
880.00,52.277
881.00,52.267
882.00,52.289
883.00,52.253
884.00,52.205
885.00,52.206
886.00,52.191
887.00,52.145
888.00,52.128
889.00,52.101
890.00,52.077
891.00,52.051
892.00,52.048
893.00,52.022
894.00,52.038
895.00,51.989
896.00,51.968
897.00,51.944
898.00,51.905
899.00,51.939
900.00,51.887
901.00,51.880
902.00,51.890
903.00,51.841
904.00,51.834
905.00,51.823
906.00,51.790
907.00,51.772
908.00,51.748
909.00,51.704
910.00,51.675
911.00,51.692
912.00,51.668
913.00,51.642
914.00,51.651
915.00,51.634
916.00,51.547
917.00,51.608
918.00,51.536
919.00,51.501
920.00,51.485
921.00,51.495
922.00,51.469
923.00,51.439
924.00,51.394
925.00,51.413
926.00,51.386
927.00,51.370
928.00,51.339
929.00,51.351
930.00,51.306
931.00,51.297
932.00,51.272
933.00,51.239
934.00,51.246
935.00,51.229
936.00,51.204
937.00,51.144
938.00,51.258
939.00,51.144
940.00,51.088
941.00,51.119
942.00,51.074
943.00,51.048
944.00,51.008
945.00,51.018
946.00,51.028
947.00,50.972
948.00,50.972
949.00,50.933
950.00,50.935
951.00,50.888
952.00,50.872
953.00,50.887
954.00,50.819
955.00,50.766
956.00,50.753
957.00,50.700
958.00,50.733
959.00,50.673
960.00,50.674
961.00,50.643
962.00,50.659
963.00,50.636
964.00,50.632
965.00,50.605
966.00,50.642
967.00,50.596
968.00,50.563
969.00,50.586
970.00,50.552
971.00,50.564
972.00,50.521
973.00,50.568
974.00,50.597
975.00,50.565
976.00,50.583
977.00,50.550
978.00,50.604
979.00,50.548
980.00,50.563
981.00,50.573
982.00,50.523
983.00,50.538
984.00,50.512
985.00,50.542
986.00,50.493
987.00,50.511
988.00,50.478
989.00,50.456
990.00,50.458
991.00,50.445
992.00,50.454
993.00,50.439
994.00,50.410
995.00,50.387
996.00,50.385
997.00,50.372
998.00,50.332
999.00,50.384
1000.00,50.330
1001.00,50.321
1002.00,50.325
1003.00,50.326
1004.00,50.305
1005.00,50.262
1006.00,50.290
1007.00,50.257
1008.00,50.239
1009.00,50.219
1010.00,50.220
1011.00,50.218
1012.00,50.185
1013.00,50.190
1014.00,50.176
1015.00,50.165
1016.00,50.126
1017.00,50.124
1018.00,50.107
1019.00,50.075
1020.00,50.071
1021.00,50.043
1022.00,50.036
1023.00,50.001
1024.00,50.008
1025.00,49.971
1026.00,49.981
1027.00,49.962
1028.00,49.945
1029.00,49.931
1030.00,49.904
1031.00,49.919
1032.00,49.865
1033.00,49.862
1034.00,49.843
1035.00,49.813
1036.00,49.769
1037.00,49.777
1038.00,49.756
1039.00,49.723
1040.00,49.712
1041.00,49.688
1042.00,49.682
1043.00,49.657
1044.00,49.718
1045.00,49.710
1046.00,49.674
1047.00,49.703
1048.00,49.702
1049.00,49.705
1050.00,49.696
1051.00,49.754
1052.00,49.749
1053.00,49.740
1054.00,49.748
1055.00,49.771
1056.00,49.783
1057.00,49.782
1058.00,49.774
1059.00,49.786
1060.00,49.789
1061.00,49.771
1062.00,49.754
1063.00,49.761
1064.00,49.742
1065.00,49.730
1066.00,49.719
1067.00,49.711
1068.00,49.740
1069.00,49.687
1070.00,49.680
1071.00,49.672
1072.00,49.696
1073.00,49.666
1074.00,49.664
1075.00,49.637
1076.00,49.632
1077.00,49.628
1078.00,49.615
1079.00,49.634
1080.00,49.621
1081.00,49.606
1082.00,49.601
1083.00,49.591
1084.00,49.592
1085.00,49.596
1086.00,49.574
1087.00,49.572
1088.00,49.559
1089.00,49.557
1090.00,49.550
1091.00,49.549
1092.00,49.541
1093.00,49.527
1094.00,49.499
1095.00,49.497
1096.00,49.482
1097.00,49.476
1098.00,49.464
1099.00,49.462
1100.00,49.436
1101.00,49.441
1102.00,49.416
1103.00,49.433
1104.00,49.410
1105.00,49.407
1106.00,49.425
1107.00,49.402
1108.00,49.383
1109.00,49.373
1110.00,49.371
1111.00,49.357
1112.00,49.339
1113.00,49.338
1114.00,49.344
1115.00,49.345
1116.00,49.330
1117.00,49.332
1118.00,49.324
1119.00,49.313
1120.00,49.332
1121.00,49.335
1122.00,49.278
1123.00,49.283
1124.00,49.282
1125.00,49.276
1126.00,49.287
1127.00,49.274
1128.00,49.258
1129.00,49.210
1130.00,49.222
1131.00,49.230
1132.00,49.217
1133.00,49.211
1134.00,49.200
1135.00,49.183
1136.00,49.219
1137.00,49.223
1138.00,49.207
1139.00,49.222
1140.00,49.198
1141.00,49.205
1142.00,49.202
1143.00,49.220
1144.00,49.174
1145.00,49.180
1146.00,49.168
1147.00,49.160
1148.00,49.147
1149.00,49.155
1150.00,49.168
1151.00,49.169
1152.00,49.157
1153.00,49.144
1154.00,49.129
1155.00,49.148
1156.00,49.140
1157.00,49.155
1158.00,49.144
1159.00,49.147
1160.00,49.135
1161.00,49.148
1162.00,49.139
1163.00,49.135
1164.00,49.147
1165.00,49.141
1166.00,49.152
1167.00,49.130
1168.00,49.159
1169.00,49.151
1170.00,49.148
1171.00,49.139
1172.00,49.133
1173.00,49.119
1174.00,49.131
1175.00,49.120
1176.00,49.119
1177.00,49.100
1178.00,49.109
1179.00,49.117
1180.00,49.111
1181.00,49.133
1182.00,49.124
1183.00,49.111
1184.00,49.100
1185.00,49.112
1186.00,49.092
1187.00,49.092
1188.00,49.105
1189.00,49.107
1190.00,49.105
1191.00,49.094
1192.00,49.124
1193.00,49.107
1194.00,49.106
1195.00,49.075
1196.00,49.101
1197.00,49.117
1198.00,49.093
1199.00,49.100
1200.00,49.104
1201.00,49.108
1202.00,49.091
1203.00,49.092
1204.00,49.079
1205.00,49.105
1206.00,49.101
1207.00,49.103
1208.00,49.087
1209.00,49.106
1210.00,49.110
1211.00,49.111
1212.00,49.132
1213.00,49.112
1214.00,49.108
1215.00,49.075
1216.00,49.088
1217.00,49.100
1218.00,49.080
1219.00,49.096
1220.00,49.091
1221.00,49.116
1222.00,49.103
1223.00,49.127
1224.00,49.111
1225.00,49.113
1226.00,49.090
1227.00,49.106
1228.00,49.139
1229.00,49.104
1230.00,49.139
1231.00,49.125
1232.00,49.151
1233.00,49.158
1234.00,49.154
1235.00,49.160
1236.00,49.165
1237.00,49.165
1238.00,49.159
1239.00,49.177
1240.00,49.158
1241.00,49.174
1242.00,49.180
1243.00,49.189
1244.00,49.171
1245.00,49.193
1246.00,49.217
1247.00,49.200
1248.00,49.196
1249.00,49.219
1250.00,49.240
1251.00,49.212
1252.00,49.218
1253.00,49.209
1254.00,49.241
1255.00,49.222
1256.00,49.201
1257.00,49.194
1258.00,49.242
1259.00,49.232
1260.00,49.261
1261.00,49.263
1262.00,49.244
1263.00,49.242
1264.00,49.258
1265.00,49.263
1266.00,49.263
1267.00,49.276
1268.00,49.281
1269.00,49.275
1270.00,49.278
1271.00,49.289
1272.00,49.306
1273.00,49.329
1274.00,49.325
1275.00,49.331
1276.00,49.323
1277.00,49.335
1278.00,49.343
1279.00,49.355
1280.00,49.334
1281.00,49.347
1282.00,49.369
1283.00,49.365
1284.00,49.366
1285.00,49.359
1286.00,49.392
1287.00,49.386
1288.00,49.422
1289.00,49.407
1290.00,49.435
1291.00,49.426
1292.00,49.428
1293.00,49.445
1294.00,49.454
1295.00,49.458
1296.00,49.459
1297.00,49.469
1298.00,49.510
1299.00,49.479
1300.00,49.502
1301.00,49.501
1302.00,49.536
1303.00,49.527
1304.00,49.516
1305.00,49.535
1306.00,49.540
1307.00,49.540
1308.00,49.532
1309.00,49.544
1310.00,49.541
1311.00,49.526
1312.00,49.561
1313.00,49.561
1314.00,49.588
1315.00,49.607
1316.00,49.598
1317.00,49.623
1318.00,49.612
1319.00,49.628
1320.00,49.631
1321.00,49.806
1322.00,49.790
1323.00,49.774
1324.00,49.766
1325.00,49.759
1326.00,49.771
1327.00,49.768
1328.00,49.788
1329.00,49.775
1330.00,49.748
1331.00,49.799
1332.00,49.830
1333.00,49.711
1334.00,49.824
1335.00,49.839
1336.00,49.876
1337.00,49.906
1338.00,49.962
1339.00,50.032
1340.00,50.084
1341.00,50.135
1342.00,50.216
1343.00,50.253
1344.00,50.297
1345.00,50.388
1346.00,50.407
1347.00,50.433
1348.00,50.469
1349.00,50.462
1350.00,50.508
1351.00,50.510
1352.00,50.519
1353.00,50.535
1354.00,50.538
1355.00,50.497
1356.00,50.540
1357.00,50.541
1358.00,50.588
1359.00,50.586
1360.00,50.581
1361.00,50.573
1362.00,50.521
1363.00,50.585
1364.00,50.717
1365.00,50.593
1366.00,50.669
1367.00,50.551
1368.00,50.533
1369.00,50.673
1370.00,50.548
1371.00,50.492
1372.00,50.555
1373.00,50.594
1374.00,50.571
1375.00,50.565
1376.00,50.566
1377.00,50.534
1378.00,50.596
1379.00,50.567
1380.00,50.603
1381.00,50.654
1382.00,50.563
1383.00,50.637
1384.00,50.535
1385.00,50.537
1386.00,50.587
1387.00,50.556
1388.00,50.503
1389.00,50.542
1390.00,50.555
1391.00,50.562
1392.00,50.575
1393.00,50.656
1394.00,50.644
1395.00,50.490
1396.00,50.483
1397.00,50.480
1398.00,50.650
1399.00,50.614
1400.00,50.469
1401.00,50.498
1402.00,50.638
1403.00,50.579
1404.00,50.562
1405.00,50.646
1406.00,50.626
1407.00,50.621
1408.00,50.623
1409.00,50.598
1410.00,50.647
1411.00,50.654
1412.00,50.725
1413.00,50.643
1414.00,50.673
1415.00,50.701
1416.00,50.735
1417.00,50.750
1418.00,50.700
1419.00,50.750
1420.00,50.767
1421.00,50.778
1422.00,50.795
1423.00,50.823
1424.00,50.834
1425.00,50.851
1426.00,50.859
1427.00,50.887
1428.00,50.862
1429.00,50.882
1430.00,50.932
1431.00,50.911
1432.00,50.939
1433.00,50.961
1434.00,50.938
1435.00,51.023
1436.00,51.016
1437.00,51.010
1438.00,51.027
1439.00,51.095
1440.00,51.116
1441.00,51.102
1442.00,51.115
1443.00,51.150
1444.00,51.230
1445.00,51.147
1446.00,51.189
1447.00,51.226
1448.00,51.257
1449.00,51.255
1450.00,51.257
1451.00,51.261
1452.00,51.294
1453.00,51.302
1454.00,51.322
1455.00,51.341
1456.00,51.355
1457.00,51.362
1458.00,51.396
1459.00,51.394
1460.00,51.437
1461.00,51.433
1462.00,51.461
1463.00,51.478
1464.00,51.485
1465.00,51.503
1466.00,51.509
1467.00,51.552
1468.00,51.617
1469.00,51.597
1470.00,51.612
1471.00,51.622
1472.00,51.638
1473.00,51.623
1474.00,51.668
1475.00,51.672
1476.00,51.686
1477.00,51.700
1478.00,51.708
1479.00,51.729
1480.00,51.722
1481.00,51.737
1482.00,51.784
1483.00,51.798
1484.00,51.805
1485.00,51.798
1486.00,51.807
1487.00,51.839
1488.00,51.865
1489.00,51.871
1490.00,51.899
1491.00,51.916
1492.00,51.936
1493.00,51.942
1494.00,51.976
1495.00,51.944
1496.00,51.990
1497.00,51.976
1498.00,51.976
1499.00,51.989
1500.00,52.013
1501.00, 
1502.00, 
1503.00, 
1504.00, 
1505.00, 
1506.00, 
1507.00, 
1508.00, 
1509.00, 
1510.00, 
1511.00, 
1512.00, 
1513.00, 
1514.00, 
1515.00, 
1516.00, 
1517.00, 
1518.00, 
1519.00, 
1520.00, 
1521.00, 
1522.00, 
1523.00, 
1524.00, 
1525.00, 
1526.00, 
1527.00, 
1528.00, 
1529.00, 
1530.00, 
1531.00, 
1532.00, 
1533.00, 
1534.00, 
1535.00, 
1536.00, 
1537.00, 
1538.00, 
1539.00, 
1540.00, 
1541.00, 
1542.00, 
1543.00, 
1544.00, 
1545.00, 
1546.00, 
1547.00, 
1548.00, 
1549.00, 
1550.00, 
1551.00, 
1552.00, 
1553.00, 
1554.00, 
1555.00, 
1556.00, 
1557.00, 
1558.00, 
1559.00, 
1560.00, 
1561.00, 
1562.00, 
1563.00, 
1564.00, 
1565.00, 
1566.00, 
1567.00, 
1568.00, 
1569.00, 
1570.00, 
1571.00, 
1572.00, 
1573.00, 
1574.00, 
1575.00, 
1576.00, 
1577.00, 
1578.00, 
1579.00, 
1580.00, 
1581.00, 
1582.00, 
1583.00, 
1584.00, 
1585.00, 
1586.00, 
1587.00, 
1588.00, 
1589.00, 
1590.00, 
1591.00, 
1592.00, 
1593.00, 
1594.00, 
1595.00, 
1596.00, 
1597.00, 
1598.00, 
1599.00, 
1600.00, 
1601.00, 
1602.00, 
1603.00, 
1604.00, 
1605.00, 
1606.00, 
1607.00, 
1608.00, 
1609.00, 
1610.00, 
1611.00, 
1612.00, 
1613.00, 
1614.00, 
1615.00, 
1616.00, 
1617.00, 
1618.00, 
1619.00, 
1620.00, 
1621.00, 
1622.00, 
1623.00, 
1624.00, 
1625.00, 
1626.00, 
1627.00, 
1628.00, 
1629.00, 
1630.00, 
1631.00, 
1632.00, 
1633.00, 
1634.00, 
1635.00, 
1636.00, 
1637.00, 
1638.00, 
1639.00, 
1640.00, 
1641.00, 
1642.00, 
1643.00, 
1644.00, 
1645.00, 
1646.00, 
1647.00, 
1648.00, 
1649.00, 
1650.00, 
1651.00, 
1652.00, 
1653.00, 
1654.00, 
1655.00, 
1656.00, 
1657.00, 
1658.00, 
1659.00, 
1660.00, 
1661.00, 
1662.00, 
1663.00, 
1664.00, 
1665.00, 
1666.00, 
1667.00, 
1668.00, 
1669.00, 
1670.00, 
1671.00, 
1672.00, 
1673.00, 
1674.00, 
1675.00, 
1676.00, 
1677.00, 
1678.00, 
1679.00, 
1680.00, 
1681.00, 
1682.00, 
1683.00, 
1684.00, 
1685.00, 
1686.00, 
1687.00, 
1688.00, 
1689.00, 
1690.00, 
1691.00, 
1692.00, 
1693.00, 
1694.00, 
1695.00, 
1696.00, 
1697.00, 
1698.00, 
1699.00, 
1700.00, 
1701.00, 
1702.00, 
1703.00, 
1704.00, 
1705.00, 
1706.00, 
1707.00, 
1708.00, 
1709.00, 
1710.00, 
1711.00, 
1712.00, 
1713.00, 
1714.00, 
1715.00, 
1716.00, 
1717.00, 
1718.00, 
1719.00, 
1720.00, 
1721.00, 
1722.00, 
1723.00, 
1724.00, 
1725.00, 
1726.00, 
1727.00, 
1728.00, 
1729.00, 
1730.00, 
1731.00, 
1732.00, 
1733.00, 
1734.00, 
1735.00, 
1736.00, 
1737.00, 
1738.00, 
1739.00, 
1740.00, 
1741.00, 
1742.00, 
1743.00, 
1744.00, 
1745.00, 
1746.00, 
1747.00, 
1748.00, 
1749.00, 
1750.00, 
1751.00, 
1752.00, 
1753.00, 
1754.00, 
1755.00, 
1756.00, 
1757.00, 
1758.00, 
1759.00, 
1760.00, 
1761.00, 
1762.00, 
1763.00, 
1764.00, 
1765.00, 
1766.00, 
1767.00, 
1768.00, 
1769.00, 
1770.00, 
1771.00, 
1772.00, 
1773.00, 
1774.00, 
1775.00, 
1776.00, 
1777.00, 
1778.00, 
1779.00, 
1780.00, 
1781.00, 
1782.00, 
1783.00, 
1784.00, 
1785.00, 
1786.00, 
1787.00, 
1788.00, 
1789.00, 
1790.00, 
1791.00, 
1792.00, 
1793.00, 
1794.00, 
1795.00, 
1796.00, 
1797.00, 
1798.00, 
1799.00, 
1800.00, 
1801.00, 
1802.00, 
1803.00, 
1804.00, 
1805.00, 
1806.00, 
1807.00, 
1808.00, 
1809.00, 
1810.00, 
1811.00, 
1812.00, 
1813.00, 
1814.00, 
1815.00, 
1816.00, 
1817.00, 
1818.00, 
1819.00, 
1820.00, 
1821.00, 
1822.00, 
1823.00, 
1824.00, 
1825.00, 
1826.00, 
1827.00, 
1828.00, 
1829.00, 
1830.00, 
1831.00, 
1832.00, 
1833.00, 
1834.00, 
1835.00, 
1836.00, 
1837.00, 
1838.00, 
1839.00, 
1840.00, 
1841.00, 
1842.00, 
1843.00, 
1844.00, 
1845.00, 
1846.00, 
1847.00, 
1848.00, 
1849.00, 
1850.00, 
1851.00, 
1852.00, 
1853.00, 
1854.00, 
1855.00, 
1856.00, 
1857.00, 
1858.00, 
1859.00, 
1860.00, 
1861.00, 
1862.00, 
1863.00, 
1864.00, 
1865.00, 
1866.00, 
1867.00, 
1868.00, 
1869.00, 
1870.00, 
1871.00, 
1872.00, 
1873.00, 
1874.00, 
1875.00, 
1876.00, 
1877.00, 
1878.00, 
1879.00, 
1880.00, 
1881.00, 
1882.00, 
1883.00, 
1884.00, 
1885.00, 
1886.00, 
1887.00, 
1888.00, 
1889.00, 
1890.00, 
1891.00, 
1892.00, 
1893.00, 
1894.00, 
1895.00, 
1896.00, 
1897.00, 
1898.00, 
1899.00, 
1900.00, 
1901.00, 
1902.00, 
1903.00, 
1904.00, 
1905.00, 
1906.00, 
1907.00, 
1908.00, 
1909.00, 
1910.00, 
1911.00, 
1912.00, 
1913.00, 
1914.00, 
1915.00, 
1916.00, 
1917.00, 
1918.00, 
1919.00, 
1920.00, 
1921.00, 
1922.00, 
1923.00, 
1924.00, 
1925.00, 
1926.00, 
1927.00, 
1928.00, 
1929.00, 
1930.00, 
1931.00, 
1932.00, 
1933.00, 
1934.00, 
1935.00, 
1936.00, 
1937.00, 
1938.00, 
1939.00, 
1940.00, 
1941.00, 
1942.00, 
1943.00, 
1944.00, 
1945.00, 
1946.00, 
1947.00, 
1948.00, 
1949.00, 
1950.00, 
1951.00, 
1952.00, 
1953.00, 
1954.00, 
1955.00, 
1956.00, 
1957.00, 
1958.00, 
1959.00, 
1960.00, 
1961.00, 
1962.00, 
1963.00, 
1964.00, 
1965.00, 
1966.00, 
1967.00, 
1968.00, 
1969.00, 
1970.00, 
1971.00, 
1972.00, 
1973.00, 
1974.00, 
1975.00, 
1976.00, 
1977.00, 
1978.00, 
1979.00, 
1980.00, 
1981.00, 
1982.00, 
1983.00, 
1984.00, 
1985.00, 
1986.00, 
1987.00, 
1988.00, 
1989.00, 
1990.00, 
1991.00, 
1992.00, 
1993.00, 
1994.00, 
1995.00, 
1996.00, 
1997.00, 
1998.00, 
1999.00, 
2000.00, 
2001.00, 
2002.00, 
2003.00, 
2004.00, 
2005.00, 
2006.00, 
2007.00, 
2008.00, 
2009.00, 
2010.00, 
2011.00, 
2012.00, 
2013.00, 
2014.00, 
2015.00, 
2016.00, 
2017.00, 
2018.00, 
2019.00, 
2020.00, 
2021.00, 
2022.00, 
2023.00, 
2024.00, 
2025.00, 
2026.00, 
2027.00, 
2028.00, 
2029.00, 
2030.00, 
2031.00, 
2032.00, 
2033.00, 
2034.00, 
2035.00, 
2036.00, 
2037.00, 
2038.00, 
2039.00, 
2040.00, 
2041.00, 
2042.00, 
2043.00, 
2044.00, 
2045.00, 
2046.00, 
2047.00, 
2048.00, 
2049.00, 
2050.00, 
2051.00, 
2052.00, 
2053.00, 
2054.00, 
2055.00, 
2056.00, 
2057.00, 
2058.00, 
2059.00, 
2060.00, 
2061.00, 
2062.00, 
2063.00, 
2064.00, 
2065.00, 
2066.00, 
2067.00, 
2068.00, 
2069.00, 
2070.00, 
2071.00, 
2072.00, 
2073.00, 
2074.00, 
2075.00, 
2076.00, 
2077.00, 
2078.00, 
2079.00, 
2080.00, 
2081.00, 
2082.00, 
2083.00, 
2084.00, 
2085.00, 
2086.00, 
2087.00, 
2088.00, 
2089.00, 
2090.00, 
2091.00, 
2092.00, 
2093.00, 
2094.00, 
2095.00, 
2096.00, 
2097.00, 
2098.00, 
2099.00, 
2100.00, 
2101.00, 
2102.00, 
2103.00, 
2104.00, 
2105.00, 
2106.00, 
2107.00, 
2108.00, 
2109.00, 
2110.00, 
2111.00, 
2112.00, 
2113.00, 
2114.00, 
2115.00, 
2116.00, 
2117.00, 
2118.00, 
2119.00, 
2120.00, 
2121.00, 
2122.00, 
2123.00, 
2124.00, 
2125.00, 
2126.00, 
2127.00, 
2128.00, 
2129.00, 
2130.00, 
2131.00, 
2132.00, 
2133.00, 
2134.00, 
2135.00, 
2136.00, 
2137.00, 
2138.00, 
2139.00, 
2140.00, 
2141.00, 
2142.00, 
2143.00, 
2144.00, 
2145.00, 
2146.00, 
2147.00, 
2148.00, 
2149.00, 
2150.00, 
2151.00, 
2152.00, 
2153.00, 
2154.00, 
2155.00, 
2156.00, 
2157.00, 
2158.00, 
2159.00, 
2160.00, 
2161.00, 
2162.00, 
2163.00, 
2164.00, 
2165.00, 
2166.00, 
2167.00, 
2168.00, 
2169.00, 
2170.00, 
2171.00, 
2172.00, 
2173.00, 
2174.00, 
2175.00, 
2176.00, 
2177.00, 
2178.00, 
2179.00, 
2180.00, 
2181.00, 
2182.00, 
2183.00, 
2184.00, 
2185.00, 
2186.00, 
2187.00, 
2188.00, 
2189.00, 
2190.00, 
2191.00, 
2192.00, 
2193.00, 
2194.00, 
2195.00, 
2196.00, 
2197.00, 
2198.00, 
2199.00, 
2200.00, 
2201.00, 
2202.00, 
2203.00, 
2204.00, 
2205.00, 
2206.00, 
2207.00, 
2208.00, 
2209.00, 
2210.00, 
2211.00, 
2212.00, 
2213.00, 
2214.00, 
2215.00, 
2216.00, 
2217.00, 
2218.00, 
2219.00, 
2220.00, 
2221.00, 
2222.00, 
2223.00, 
2224.00, 
2225.00, 
2226.00, 
2227.00, 
2228.00, 
2229.00, 
2230.00, 
2231.00, 
2232.00, 
2233.00, 
2234.00, 
2235.00, 
2236.00, 
2237.00, 
2238.00, 
2239.00, 
2240.00, 
2241.00, 
2242.00, 
2243.00, 
2244.00, 
2245.00, 
2246.00, 
2247.00, 
2248.00, 
2249.00, 
2250.00, 
2251.00, 
2252.00, 
2253.00, 
2254.00, 
2255.00, 
2256.00, 
2257.00, 
2258.00, 
2259.00, 
2260.00, 
2261.00, 
2262.00, 
2263.00, 
2264.00, 
2265.00, 
2266.00, 
2267.00, 
2268.00, 
2269.00, 
2270.00, 
2271.00, 
2272.00, 
2273.00, 
2274.00, 
2275.00, 
2276.00, 
2277.00, 
2278.00, 
2279.00, 
2280.00, 
2281.00, 
2282.00, 
2283.00, 
2284.00, 
2285.00, 
2286.00, 
2287.00, 
2288.00, 
2289.00, 
2290.00, 
2291.00, 
2292.00, 
2293.00, 
2294.00, 
2295.00, 
2296.00, 
2297.00, 
2298.00, 
2299.00, 
2300.00, 
2301.00, 
2302.00, 
2303.00, 
2304.00, 
2305.00, 
2306.00, 
2307.00, 
2308.00, 
2309.00, 
2310.00, 
2311.00, 
2312.00, 
2313.00, 
2314.00, 
2315.00, 
2316.00, 
2317.00, 
2318.00, 
2319.00, 
2320.00, 
2321.00, 
2322.00, 
2323.00, 
2324.00, 
2325.00, 
2326.00, 
2327.00, 
2328.00, 
2329.00, 
2330.00, 
2331.00, 
2332.00, 
2333.00, 
2334.00, 
2335.00, 
2336.00, 
2337.00, 
2338.00, 
2339.00, 
2340.00, 
2341.00, 
2342.00, 
2343.00, 
2344.00, 
2345.00, 
2346.00, 
2347.00, 
2348.00, 
2349.00, 
2350.00, 
2351.00, 
2352.00, 
2353.00, 
2354.00, 
2355.00, 
2356.00, 
2357.00, 
2358.00, 
2359.00, 
2360.00, 
2361.00, 
2362.00, 
2363.00, 
2364.00, 
2365.00, 
2366.00, 
2367.00, 
2368.00, 
2369.00, 
2370.00, 
2371.00, 
2372.00, 
2373.00, 
2374.00, 
2375.00, 
2376.00, 
2377.00, 
2378.00, 
2379.00, 
2380.00, 
2381.00, 
2382.00, 
2383.00, 
2384.00, 
2385.00, 
2386.00, 
2387.00, 
2388.00, 
2389.00, 
2390.00, 
2391.00, 
2392.00, 
2393.00, 
2394.00, 
2395.00, 
2396.00, 
2397.00, 
2398.00, 
2399.00, 
2400.00, 
2401.00, 
2402.00, 
2403.00, 
2404.00, 
2405.00, 
2406.00, 
2407.00, 
2408.00, 
2409.00, 
2410.00, 
2411.00, 
2412.00, 
2413.00, 
2414.00, 
2415.00, 
2416.00, 
2417.00, 
2418.00, 
2419.00, 
2420.00, 
2421.00, 
2422.00, 
2423.00, 
2424.00, 
2425.00, 
2426.00, 
2427.00, 
2428.00, 
2429.00, 
2430.00, 
2431.00, 
2432.00, 
2433.00, 
2434.00, 
2435.00, 
2436.00, 
2437.00, 
2438.00, 
2439.00, 
2440.00, 
2441.00, 
2442.00, 
2443.00, 
2444.00, 
2445.00, 
2446.00, 
2447.00, 
2448.00, 
2449.00, 
2450.00, 
2451.00, 
2452.00, 
2453.00, 
2454.00, 
2455.00, 
2456.00, 
2457.00, 
2458.00, 
2459.00, 
2460.00, 
2461.00, 
2462.00, 
2463.00, 
2464.00, 
2465.00, 
2466.00, 
2467.00, 
2468.00, 
2469.00, 
2470.00, 
2471.00, 
2472.00, 
2473.00, 
2474.00, 
2475.00, 
2476.00, 
2477.00, 
2478.00, 
2479.00, 
2480.00, 
2481.00, 
2482.00, 
2483.00, 
2484.00, 
2485.00, 
2486.00, 
2487.00, 
2488.00, 
2489.00, 
2490.00, 
2491.00, 
2492.00, 
2493.00, 
2494.00, 
2495.00, 
2496.00, 
2497.00, 
2498.00, 
2499.00, 
2500.00, 
2501.00, 
2502.00, 
2503.00, 
2504.00, 
2505.00, 
2506.00, 
2507.00, 
2508.00, 
2509.00, 
2510.00, 
2511.00, 
2512.00, 
2513.00, 
2514.00, 
2515.00, 
2516.00, 
2517.00, 
2518.00, 
2519.00, 
2520.00, 
2521.00, 
2522.00, 
2523.00, 
2524.00, 
2525.00, 
2526.00, 
2527.00, 
2528.00, 
2529.00, 
2530.00, 
2531.00, 
2532.00, 
2533.00, 
2534.00, 
2535.00, 
2536.00, 
2537.00, 
2538.00, 
2539.00, 
2540.00, 
2541.00, 
2542.00, 
2543.00, 
2544.00, 
2545.00, 
2546.00, 
2547.00, 
2548.00, 
2549.00, 
2550.00, 
2551.00, 
2552.00, 
2553.00, 
2554.00, 
2555.00, 
2556.00, 
2557.00, 
2558.00, 
2559.00, 
2560.00, 
2561.00, 
2562.00, 
2563.00, 
2564.00, 
2565.00, 
2566.00, 
2567.00, 
2568.00, 
2569.00, 
2570.00, 
2571.00, 
2572.00, 
2573.00, 
2574.00, 
2575.00, 
2576.00, 
2577.00, 
2578.00, 
2579.00, 
2580.00, 
2581.00, 
2582.00, 
2583.00, 
2584.00, 
2585.00, 
2586.00, 
2587.00, 
2588.00, 
2589.00, 
2590.00, 
2591.00, 
2592.00, 
2593.00, 
2594.00, 
2595.00, 
2596.00, 
2597.00, 
2598.00, 
2599.00, 
2600.00, 
