"1cP3 - RawData"
"Wavelength nm.","T%"
200.00,0.002
201.00,0.000
202.00,-0.001
203.00,-0.002
204.00,0.004
205.00,0.004
206.00,0.000
207.00,0.001
208.00,0.002
209.00,-0.001
210.00,0.004
211.00,0.002
212.00,-0.001
213.00,0.000
214.00,0.000
215.00,0.002
216.00,0.000
217.00,0.000
218.00,-0.000
219.00,0.001
220.00,0.003
221.00,0.003
222.00,0.002
223.00,0.002
224.00,0.001
225.00,-0.001
226.00,-0.002
227.00,0.001
228.00,0.001
229.00,0.002
230.00,-0.001
231.00,0.002
232.00,-0.001
233.00,-0.000
234.00,0.001
235.00,0.000
236.00,-0.000
237.00,0.000
238.00,0.002
239.00,-0.001
240.00,0.002
241.00,0.001
242.00,0.002
243.00,0.001
244.00,-0.001
245.00,-0.000
246.00,0.000
247.00,0.001
248.00,-0.000
249.00,-0.000
250.00,0.001
251.00,0.001
252.00,0.000
253.00,0.002
254.00,0.001
255.00,0.001
256.00,-0.001
257.00,-0.001
258.00,-0.001
259.00,0.001
260.00,0.000
261.00,0.000
262.00,0.002
263.00,0.003
264.00,0.001
265.00,0.003
266.00,0.001
267.00,0.001
268.00,0.000
269.00,0.002
270.00,0.002
271.00,0.000
272.00,0.002
273.00,0.000
274.00,0.001
275.00,0.001
276.00,0.001
277.00,0.001
278.00,0.001
279.00,0.001
280.00,-0.000
281.00,0.001
282.00,0.001
283.00,0.002
284.00,0.001
285.00,0.002
286.00,-0.001
287.00,0.000
288.00,-0.002
289.00,0.001
290.00,-0.000
291.00,-0.000
292.00,-0.001
293.00,0.001
294.00,-0.001
295.00,-0.001
296.00,-0.001
297.00,-0.000
298.00,0.002
299.00,0.001
300.00,-0.001
301.00,0.000
302.00,0.002
303.00,-0.002
304.00,0.001
305.00,0.002
306.00,0.003
307.00,0.002
308.00,0.005
309.00,0.014
310.00,0.021
311.00,0.030
312.00,0.049
313.00,0.081
314.00,0.118
315.00,0.173
316.00,0.245
317.00,0.352
318.00,0.473
319.00,0.644
320.00,0.865
321.00,1.109
322.00,1.416
323.00,1.804
324.00,2.217
325.00,2.693
326.00,3.194
327.00,3.788
328.00,4.443
329.00,5.067
330.00,5.876
331.00,6.661
332.00,7.466
333.00,8.419
334.00,9.237
335.00,10.168
336.00,11.096
337.00,12.051
338.00,13.025
339.00,13.898
340.00,14.854
341.00,15.807
342.00,16.670
343.00,17.506
344.00,18.354
345.00,19.252
346.00,19.938
347.00,20.616
348.00,21.384
349.00,22.029
350.00,22.717
351.00,23.274
352.00,23.814
353.00,24.310
354.00,24.814
355.00,25.355
356.00,25.732
357.00,26.172
358.00,26.579
359.00,27.032
360.00,27.426
361.00,27.664
362.00,27.942
363.00,28.259
364.00,28.476
365.00,28.634
366.00,28.828
367.00,28.984
368.00,29.125
369.00,29.252
370.00,29.339
371.00,29.410
372.00,29.413
373.00,29.418
374.00,29.490
375.00,29.463
376.00,29.377
377.00,29.325
378.00,29.194
379.00,29.142
380.00,29.096
381.00,29.160
382.00,29.191
383.00,29.265
384.00,29.376
385.00,29.501
386.00,29.531
387.00,29.710
388.00,29.908
389.00,29.956
390.00,30.024
391.00,30.161
392.00,30.235
393.00,30.278
394.00,30.367
395.00,30.427
396.00,30.469
397.00,30.508
398.00,30.508
399.00,30.566
400.00,30.610
401.00,30.635
402.00,30.622
403.00,30.602
404.00,30.588
405.00,30.611
406.00,30.582
407.00,30.577
408.00,30.541
409.00,30.419
410.00,30.426
411.00,30.394
412.00,30.310
413.00,30.374
414.00,30.352
415.00,30.337
416.00,30.413
417.00,30.350
418.00,30.410
419.00,30.531
420.00,30.545
421.00,30.516
422.00,30.502
423.00,30.578
424.00,30.646
425.00,30.677
426.00,30.667
427.00,30.686
428.00,30.729
429.00,30.767
430.00,30.833
431.00,30.863
432.00,30.872
433.00,30.882
434.00,30.976
435.00,31.055
436.00,31.074
437.00,31.127
438.00,31.190
439.00,31.259
440.00,31.280
441.00,31.341
442.00,31.404
443.00,31.466
444.00,31.576
445.00,31.633
446.00,31.722
447.00,31.762
448.00,31.855
449.00,31.971
450.00,32.064
451.00,32.131
452.00,32.201
453.00,32.327
454.00,32.394
455.00,32.511
456.00,32.620
457.00,32.728
458.00,32.764
459.00,32.890
460.00,32.995
461.00,33.111
462.00,33.162
463.00,33.320
464.00,33.407
465.00,33.500
466.00,33.617
467.00,33.754
468.00,33.817
469.00,33.926
470.00,33.957
471.00,34.031
472.00,34.139
473.00,34.179
474.00,34.298
475.00,34.350
476.00,34.434
477.00,34.525
478.00,34.618
479.00,34.866
480.00,34.862
481.00,34.901
482.00,35.179
483.00,35.068
484.00,35.331
485.00,35.480
486.00,35.585
487.00,35.775
488.00,35.841
489.00,35.962
490.00,36.140
491.00,36.241
492.00,36.340
493.00,36.535
494.00,36.709
495.00,36.634
496.00,36.760
497.00,36.775
498.00,36.910
499.00,37.059
500.00,37.183
501.00,37.248
502.00,37.386
503.00,37.495
504.00,37.471
505.00,37.596
506.00,37.745
507.00,37.769
508.00,37.860
509.00,38.025
510.00,38.122
511.00,38.163
512.00,38.275
513.00,38.454
514.00,38.541
515.00,38.679
516.00,38.783
517.00,38.828
518.00,38.941
519.00,38.970
520.00,39.020
521.00,39.161
522.00,39.229
523.00,39.204
524.00,39.278
525.00,39.322
526.00,39.496
527.00,39.551
528.00,39.593
529.00,39.774
530.00,39.913
531.00,40.015
532.00,40.045
533.00,40.184
534.00,40.249
535.00,40.330
536.00,40.412
537.00,40.451
538.00,40.502
539.00,40.563
540.00,40.652
541.00,40.699
542.00,40.680
543.00,40.766
544.00,40.792
545.00,40.893
546.00,40.880
547.00,40.929
548.00,41.090
549.00,41.107
550.00,41.172
551.00,41.318
552.00,41.343
553.00,41.258
554.00,41.369
555.00,41.563
556.00,41.615
557.00,41.670
558.00,41.713
559.00,41.759
560.00,41.805
561.00,41.910
562.00,42.000
563.00,41.973
564.00,42.036
565.00,42.083
566.00,42.091
567.00,42.124
568.00,42.184
569.00,42.229
570.00,42.244
571.00,42.268
572.00,42.246
573.00,42.211
574.00,42.310
575.00,42.258
576.00,42.286
577.00,42.300
578.00,42.474
579.00,42.529
580.00,42.525
581.00,42.634
582.00,42.709
583.00,42.722
584.00,42.840
585.00,42.953
586.00,42.906
587.00,42.985
588.00,43.053
589.00,42.986
590.00,43.090
591.00,43.142
592.00,43.105
593.00,43.116
594.00,43.184
595.00,43.308
596.00,43.304
597.00,43.420
598.00,43.473
599.00,43.445
600.00,43.479
601.00,43.531
602.00,43.538
603.00,43.551
604.00,43.640
605.00,43.641
606.00,43.662
607.00,43.686
608.00,43.746
609.00,43.913
610.00,43.652
611.00,43.608
612.00,43.822
613.00,44.018
614.00,43.916
615.00,44.016
616.00,44.027
617.00,44.002
618.00,43.956
619.00,44.062
620.00,44.050
621.00,44.169
622.00,44.151
623.00,44.290
624.00,44.369
625.00,44.306
626.00,44.238
627.00,44.372
628.00,44.476
629.00,44.448
630.00,44.471
631.00,44.490
632.00,44.597
633.00,44.672
634.00,44.721
635.00,44.777
636.00,44.822
637.00,44.823
638.00,44.907
639.00,44.995
640.00,44.969
641.00,45.014
642.00,45.021
643.00,45.085
644.00,45.128
645.00,45.190
646.00,45.360
647.00,45.272
648.00,45.320
649.00,45.312
650.00,45.278
651.00,45.377
652.00,45.556
653.00,45.524
654.00,45.484
655.00,45.659
656.00,45.929
657.00,45.740
658.00,45.786
659.00,45.945
660.00,45.960
661.00,45.869
662.00,45.872
663.00,45.987
664.00,46.224
665.00,46.412
666.00,46.223
667.00,46.428
668.00,45.798
669.00,46.521
670.00,46.635
671.00,46.507
672.00,46.499
673.00,46.406
674.00,46.539
675.00,46.671
676.00,46.856
677.00,46.982
678.00,46.679
679.00,46.856
680.00,46.944
681.00,47.048
682.00,46.948
683.00,46.916
684.00,47.087
685.00,47.116
686.00,46.944
687.00,47.170
688.00,47.162
689.00,47.100
690.00,47.350
691.00,47.610
692.00,47.306
693.00,47.158
694.00,47.380
695.00,47.505
696.00,47.335
697.00,47.266
698.00,47.480
699.00,47.796
700.00,47.669
701.00,47.637
702.00,47.806
703.00,47.828
704.00,47.965
705.00,47.781
706.00,47.670
707.00,47.806
708.00,47.729
709.00,47.937
710.00,48.405
711.00,48.216
712.00,47.898
713.00,48.076
714.00,48.144
715.00,48.118
716.00,48.017
717.00,48.263
718.00,48.397
719.00,48.195
720.00,48.285
721.00,53.097
722.00,53.079
723.00,53.040
724.00,53.014
725.00,52.978
726.00,52.977
727.00,52.959
728.00,52.961
729.00,52.933
730.00,52.942
731.00,52.894
732.00,52.805
733.00,52.908
734.00,52.895
735.00,52.946
736.00,52.968
737.00,52.901
738.00,52.913
739.00,52.906
740.00,52.922
741.00,52.919
742.00,52.930
743.00,52.907
744.00,52.860
745.00,52.877
746.00,52.797
747.00,52.733
748.00,52.696
749.00,52.707
750.00,52.688
751.00,52.617
752.00,52.603
753.00,52.624
754.00,52.608
755.00,52.589
756.00,52.578
757.00,52.474
758.00,52.539
759.00,52.435
760.00,52.552
761.00,52.450
762.00,52.446
763.00,52.430
764.00,52.437
765.00,52.397
766.00,52.429
767.00,52.369
768.00,52.383
769.00,52.293
770.00,52.455
771.00,52.357
772.00,52.357
773.00,52.330
774.00,52.357
775.00,52.296
776.00,52.264
777.00,52.353
778.00,52.244
779.00,52.292
780.00,52.178
781.00,52.179
782.00,52.191
783.00,52.162
784.00,52.142
785.00,52.006
786.00,52.113
787.00,52.029
788.00,52.110
789.00,52.027
790.00,51.929
791.00,52.011
792.00,51.906
793.00,51.929
794.00,51.924
795.00,51.866
796.00,51.865
797.00,51.768
798.00,51.815
799.00,51.689
800.00,51.668
801.00,51.743
802.00,51.732
803.00,51.698
804.00,51.560
805.00,51.691
806.00,51.590
807.00,51.576
808.00,51.543
809.00,51.556
810.00,51.458
811.00,51.431
812.00,51.444
813.00,51.410
814.00,51.376
815.00,51.392
816.00,51.339
817.00,51.260
818.00,51.252
819.00,51.197
820.00,51.233
821.00,51.204
822.00,51.242
823.00,51.138
824.00,51.183
825.00,51.082
826.00,51.051
827.00,51.228
828.00,51.069
829.00,51.185
830.00,51.080
831.00,53.459
832.00,53.406
833.00,53.378
834.00,53.350
835.00,53.321
836.00,53.307
837.00,53.255
838.00,53.280
839.00,53.261
840.00,53.163
841.00,53.207
842.00,53.159
843.00,53.176
844.00,53.121
845.00,53.040
846.00,53.075
847.00,53.028
848.00,52.997
849.00,52.941
850.00,52.941
851.00,52.864
852.00,52.852
853.00,52.870
854.00,52.779
855.00,52.742
856.00,52.726
857.00,52.678
858.00,52.612
859.00,52.654
860.00,52.687
861.00,52.634
862.00,52.548
863.00,52.595
864.00,52.555
865.00,52.560
866.00,52.515
867.00,52.514
868.00,52.491
869.00,52.484
870.00,52.439
871.00,52.450
872.00,52.408
873.00,52.398
874.00,52.396
875.00,52.364
876.00,52.346
877.00,52.334
878.00,52.344
879.00,52.293
880.00,52.307
881.00,52.279
882.00,52.297
883.00,52.252
884.00,52.196
885.00,52.218
886.00,52.192
887.00,52.143
888.00,52.111
889.00,52.109
890.00,52.084
891.00,52.051
892.00,52.026
893.00,52.007
894.00,52.015
895.00,51.972
896.00,51.967
897.00,51.960
898.00,51.905
899.00,51.929
900.00,51.905
901.00,51.874
902.00,51.890
903.00,51.858
904.00,51.826
905.00,51.826
906.00,51.788
907.00,51.764
908.00,51.726
909.00,51.698
910.00,51.660
911.00,51.683
912.00,51.657
913.00,51.631
914.00,51.625
915.00,51.576
916.00,51.557
917.00,51.539
918.00,51.499
919.00,51.461
920.00,51.445
921.00,51.461
922.00,51.426
923.00,51.422
924.00,51.379
925.00,51.371
926.00,51.311
927.00,51.343
928.00,51.310
929.00,51.332
930.00,51.286
931.00,51.247
932.00,51.183
933.00,51.247
934.00,51.198
935.00,51.138
936.00,51.135
937.00,51.132
938.00,51.133
939.00,51.105
940.00,51.169
941.00,51.085
942.00,51.062
943.00,51.033
944.00,50.975
945.00,51.012
946.00,50.993
947.00,50.913
948.00,50.948
949.00,50.909
950.00,50.907
951.00,50.852
952.00,50.834
953.00,50.802
954.00,50.775
955.00,50.720
956.00,50.716
957.00,50.682
958.00,50.682
959.00,50.641
960.00,50.660
961.00,50.727
962.00,50.627
963.00,50.582
964.00,50.592
965.00,50.576
966.00,50.560
967.00,50.549
968.00,50.541
969.00,50.557
970.00,50.524
971.00,50.547
972.00,50.497
973.00,50.532
974.00,50.553
975.00,50.521
976.00,50.531
977.00,50.521
978.00,50.575
979.00,50.611
980.00,50.528
981.00,50.534
982.00,50.486
983.00,50.492
984.00,50.483
985.00,50.497
986.00,50.449
987.00,50.473
988.00,50.481
989.00,50.417
990.00,50.405
991.00,50.403
992.00,50.396
993.00,50.351
994.00,50.384
995.00,50.357
996.00,50.352
997.00,50.336
998.00,50.314
999.00,50.333
1000.00,50.292
1001.00,50.285
1002.00,50.282
1003.00,50.275
1004.00,50.269
1005.00,50.236
1006.00,50.264
1007.00,50.218
1008.00,50.217
1009.00,50.210
1010.00,50.175
1011.00,50.169
1012.00,50.137
1013.00,50.148
1014.00,50.106
1015.00,50.123
1016.00,50.084
1017.00,50.068
1018.00,50.061
1019.00,50.025
1020.00,50.020
1021.00,50.002
1022.00,50.007
1023.00,49.972
1024.00,49.970
1025.00,49.939
1026.00,49.939
1027.00,49.917
1028.00,49.911
1029.00,49.895
1030.00,49.855
1031.00,49.857
1032.00,49.813
1033.00,49.820
1034.00,49.800
1035.00,49.766
1036.00,49.734
1037.00,49.723
1038.00,49.712
1039.00,49.682
1040.00,49.674
1041.00,49.654
1042.00,49.643
1043.00,49.622
1044.00,49.656
1045.00,49.637
1046.00,49.633
1047.00,49.644
1048.00,49.657
1049.00,49.676
1050.00,49.652
1051.00,49.693
1052.00,49.694
1053.00,49.696
1054.00,49.683
1055.00,49.737
1056.00,49.732
1057.00,49.739
1058.00,49.710
1059.00,49.713
1060.00,49.725
1061.00,49.699
1062.00,49.689
1063.00,49.686
1064.00,49.678
1065.00,49.667
1066.00,49.655
1067.00,49.681
1068.00,49.719
1069.00,49.671
1070.00,49.640
1071.00,49.635
1072.00,49.645
1073.00,49.624
1074.00,49.627
1075.00,49.607
1076.00,49.604
1077.00,49.594
1078.00,49.569
1079.00,49.563
1080.00,49.555
1081.00,49.552
1082.00,49.549
1083.00,49.541
1084.00,49.546
1085.00,49.543
1086.00,49.523
1087.00,49.526
1088.00,49.525
1089.00,49.506
1090.00,49.503
1091.00,49.505
1092.00,49.505
1093.00,49.495
1094.00,49.461
1095.00,49.465
1096.00,49.433
1097.00,49.426
1098.00,49.419
1099.00,49.405
1100.00,49.399
1101.00,49.427
1102.00,49.378
1103.00,49.391
1104.00,49.376
1105.00,49.358
1106.00,49.359
1107.00,49.342
1108.00,49.325
1109.00,49.328
1110.00,49.317
1111.00,49.303
1112.00,49.288
1113.00,49.286
1114.00,49.299
1115.00,49.312
1116.00,49.298
1117.00,49.269
1118.00,49.261
1119.00,49.247
1120.00,49.235
1121.00,49.241
1122.00,49.214
1123.00,49.217
1124.00,49.205
1125.00,49.214
1126.00,49.226
1127.00,49.203
1128.00,49.201
1129.00,49.155
1130.00,49.169
1131.00,49.180
1132.00,49.168
1133.00,49.162
1134.00,49.145
1135.00,49.131
1136.00,49.145
1137.00,49.151
1138.00,49.135
1139.00,49.153
1140.00,49.142
1141.00,49.126
1142.00,49.128
1143.00,49.141
1144.00,49.110
1145.00,49.117
1146.00,49.110
1147.00,49.097
1148.00,49.096
1149.00,49.104
1150.00,49.111
1151.00,49.112
1152.00,49.105
1153.00,49.092
1154.00,49.076
1155.00,49.085
1156.00,49.068
1157.00,49.068
1158.00,49.071
1159.00,49.096
1160.00,49.070
1161.00,49.090
1162.00,49.099
1163.00,49.066
1164.00,49.062
1165.00,49.060
1166.00,49.079
1167.00,49.063
1168.00,49.084
1169.00,49.084
1170.00,49.082
1171.00,49.061
1172.00,49.066
1173.00,49.060
1174.00,49.070
1175.00,49.056
1176.00,49.082
1177.00,49.089
1178.00,49.059
1179.00,49.073
1180.00,49.066
1181.00,49.079
1182.00,49.056
1183.00,49.053
1184.00,49.042
1185.00,49.054
1186.00,49.029
1187.00,49.031
1188.00,49.035
1189.00,49.046
1190.00,49.043
1191.00,49.037
1192.00,49.064
1193.00,49.043
1194.00,49.043
1195.00,49.022
1196.00,49.052
1197.00,49.056
1198.00,49.041
1199.00,49.041
1200.00,49.058
1201.00,49.065
1202.00,49.038
1203.00,49.058
1204.00,49.030
1205.00,49.073
1206.00,49.058
1207.00,49.068
1208.00,49.068
1209.00,49.056
1210.00,49.068
1211.00,49.052
1212.00,49.061
1213.00,49.033
1214.00,49.059
1215.00,49.019
1216.00,49.039
1217.00,49.062
1218.00,49.037
1219.00,49.047
1220.00,49.054
1221.00,49.072
1222.00,49.062
1223.00,49.109
1224.00,49.083
1225.00,49.059
1226.00,49.058
1227.00,49.068
1228.00,49.086
1229.00,49.072
1230.00,49.100
1231.00,49.077
1232.00,49.091
1233.00,49.089
1234.00,49.094
1235.00,49.116
1236.00,49.115
1237.00,49.107
1238.00,49.105
1239.00,49.125
1240.00,49.117
1241.00,49.123
1242.00,49.127
1243.00,49.141
1244.00,49.121
1245.00,49.143
1246.00,49.161
1247.00,49.157
1248.00,49.140
1249.00,49.157
1250.00,49.177
1251.00,49.152
1252.00,49.163
1253.00,49.158
1254.00,49.192
1255.00,49.172
1256.00,49.158
1257.00,49.159
1258.00,49.203
1259.00,49.192
1260.00,49.219
1261.00,49.221
1262.00,49.198
1263.00,49.195
1264.00,49.209
1265.00,49.219
1266.00,49.219
1267.00,49.242
1268.00,49.253
1269.00,49.250
1270.00,49.255
1271.00,49.266
1272.00,49.271
1273.00,49.287
1274.00,49.280
1275.00,49.285
1276.00,49.286
1277.00,49.298
1278.00,49.310
1279.00,49.310
1280.00,49.287
1281.00,49.305
1282.00,49.326
1283.00,49.361
1284.00,49.330
1285.00,49.323
1286.00,49.345
1287.00,49.348
1288.00,49.349
1289.00,49.346
1290.00,49.387
1291.00,49.378
1292.00,49.363
1293.00,49.370
1294.00,49.397
1295.00,49.407
1296.00,49.410
1297.00,49.425
1298.00,49.466
1299.00,49.420
1300.00,49.437
1301.00,49.439
1302.00,49.467
1303.00,49.450
1304.00,49.445
1305.00,49.471
1306.00,49.466
1307.00,49.472
1308.00,49.472
1309.00,49.486
1310.00,49.476
1311.00,49.468
1312.00,49.496
1313.00,49.502
1314.00,49.525
1315.00,49.534
1316.00,49.523
1317.00,49.552
1318.00,49.554
1319.00,49.567
1320.00,49.563
1321.00,49.760
1322.00,49.746
1323.00,49.732
1324.00,49.704
1325.00,49.737
1326.00,49.728
1327.00,49.739
1328.00,49.776
1329.00,49.729
1330.00,49.742
1331.00,49.747
1332.00,49.747
1333.00,49.743
1334.00,49.779
1335.00,49.780
1336.00,49.818
1337.00,49.853
1338.00,49.898
1339.00,49.964
1340.00,50.022
1341.00,50.075
1342.00,50.145
1343.00,50.174
1344.00,50.229
1345.00,50.302
1346.00,50.322
1347.00,50.324
1348.00,50.375
1349.00,50.384
1350.00,50.426
1351.00,50.426
1352.00,50.435
1353.00,50.440
1354.00,50.424
1355.00,50.385
1356.00,50.456
1357.00,50.498
1358.00,50.456
1359.00,50.500
1360.00,50.551
1361.00,50.540
1362.00,50.406
1363.00,50.550
1364.00,50.551
1365.00,50.495
1366.00,50.598
1367.00,50.535
1368.00,50.496
1369.00,50.605
1370.00,50.525
1371.00,50.465
1372.00,50.499
1373.00,50.527
1374.00,50.532
1375.00,50.514
1376.00,50.492
1377.00,50.476
1378.00,50.568
1379.00,50.519
1380.00,50.530
1381.00,50.628
1382.00,50.465
1383.00,50.569
1384.00,50.455
1385.00,50.394
1386.00,50.508
1387.00,50.440
1388.00,50.417
1389.00,50.462
1390.00,50.444
1391.00,50.454
1392.00,50.478
1393.00,50.591
1394.00,50.582
1395.00,50.350
1396.00,50.391
1397.00,50.431
1398.00,50.564
1399.00,50.507
1400.00,50.373
1401.00,50.410
1402.00,50.590
1403.00,50.529
1404.00,50.481
1405.00,50.582
1406.00,50.546
1407.00,50.558
1408.00,50.551
1409.00,50.529
1410.00,50.595
1411.00,50.599
1412.00,50.668
1413.00,50.569
1414.00,50.580
1415.00,50.613
1416.00,50.667
1417.00,50.695
1418.00,50.616
1419.00,50.702
1420.00,50.678
1421.00,50.738
1422.00,50.734
1423.00,50.738
1424.00,50.742
1425.00,50.762
1426.00,50.774
1427.00,50.798
1428.00,50.764
1429.00,50.785
1430.00,50.834
1431.00,50.831
1432.00,50.844
1433.00,50.879
1434.00,50.848
1435.00,50.936
1436.00,50.943
1437.00,50.914
1438.00,50.948
1439.00,50.983
1440.00,50.990
1441.00,51.020
1442.00,51.012
1443.00,51.043
1444.00,51.138
1445.00,51.063
1446.00,51.064
1447.00,51.112
1448.00,51.177
1449.00,51.176
1450.00,51.181
1451.00,51.172
1452.00,51.204
1453.00,51.200
1454.00,51.227
1455.00,51.253
1456.00,51.254
1457.00,51.263
1458.00,51.295
1459.00,51.302
1460.00,51.342
1461.00,51.331
1462.00,51.367
1463.00,51.392
1464.00,51.433
1465.00,51.413
1466.00,51.414
1467.00,51.446
1468.00,51.505
1469.00,51.476
1470.00,51.511
1471.00,51.538
1472.00,51.539
1473.00,51.543
1474.00,51.592
1475.00,51.575
1476.00,51.587
1477.00,51.594
1478.00,51.613
1479.00,51.625
1480.00,51.626
1481.00,51.641
1482.00,51.690
1483.00,51.700
1484.00,51.699
1485.00,51.713
1486.00,51.717
1487.00,51.744
1488.00,51.773
1489.00,51.768
1490.00,51.777
1491.00,51.804
1492.00,51.812
1493.00,51.813
1494.00,51.859
1495.00,51.836
1496.00,51.885
1497.00,51.864
1498.00,51.872
1499.00,51.895
1500.00,51.899
1501.00, 
1502.00, 
1503.00, 
1504.00, 
1505.00, 
1506.00, 
1507.00, 
1508.00, 
1509.00, 
1510.00, 
1511.00, 
1512.00, 
1513.00, 
1514.00, 
1515.00, 
1516.00, 
1517.00, 
1518.00, 
1519.00, 
1520.00, 
1521.00, 
1522.00, 
1523.00, 
1524.00, 
1525.00, 
1526.00, 
1527.00, 
1528.00, 
1529.00, 
1530.00, 
1531.00, 
1532.00, 
1533.00, 
1534.00, 
1535.00, 
1536.00, 
1537.00, 
1538.00, 
1539.00, 
1540.00, 
1541.00, 
1542.00, 
1543.00, 
1544.00, 
1545.00, 
1546.00, 
1547.00, 
1548.00, 
1549.00, 
1550.00, 
1551.00, 
1552.00, 
1553.00, 
1554.00, 
1555.00, 
1556.00, 
1557.00, 
1558.00, 
1559.00, 
1560.00, 
1561.00, 
1562.00, 
1563.00, 
1564.00, 
1565.00, 
1566.00, 
1567.00, 
1568.00, 
1569.00, 
1570.00, 
1571.00, 
1572.00, 
1573.00, 
1574.00, 
1575.00, 
1576.00, 
1577.00, 
1578.00, 
1579.00, 
1580.00, 
1581.00, 
1582.00, 
1583.00, 
1584.00, 
1585.00, 
1586.00, 
1587.00, 
1588.00, 
1589.00, 
1590.00, 
1591.00, 
1592.00, 
1593.00, 
1594.00, 
1595.00, 
1596.00, 
1597.00, 
1598.00, 
1599.00, 
1600.00, 
1601.00, 
1602.00, 
1603.00, 
1604.00, 
1605.00, 
1606.00, 
1607.00, 
1608.00, 
1609.00, 
1610.00, 
1611.00, 
1612.00, 
1613.00, 
1614.00, 
1615.00, 
1616.00, 
1617.00, 
1618.00, 
1619.00, 
1620.00, 
1621.00, 
1622.00, 
1623.00, 
1624.00, 
1625.00, 
1626.00, 
1627.00, 
1628.00, 
1629.00, 
1630.00, 
1631.00, 
1632.00, 
1633.00, 
1634.00, 
1635.00, 
1636.00, 
1637.00, 
1638.00, 
1639.00, 
1640.00, 
1641.00, 
1642.00, 
1643.00, 
1644.00, 
1645.00, 
1646.00, 
1647.00, 
1648.00, 
1649.00, 
1650.00, 
1651.00, 
1652.00, 
1653.00, 
1654.00, 
1655.00, 
1656.00, 
1657.00, 
1658.00, 
1659.00, 
1660.00, 
1661.00, 
1662.00, 
1663.00, 
1664.00, 
1665.00, 
1666.00, 
1667.00, 
1668.00, 
1669.00, 
1670.00, 
1671.00, 
1672.00, 
1673.00, 
1674.00, 
1675.00, 
1676.00, 
1677.00, 
1678.00, 
1679.00, 
1680.00, 
1681.00, 
1682.00, 
1683.00, 
1684.00, 
1685.00, 
1686.00, 
1687.00, 
1688.00, 
1689.00, 
1690.00, 
1691.00, 
1692.00, 
1693.00, 
1694.00, 
1695.00, 
1696.00, 
1697.00, 
1698.00, 
1699.00, 
1700.00, 
1701.00, 
1702.00, 
1703.00, 
1704.00, 
1705.00, 
1706.00, 
1707.00, 
1708.00, 
1709.00, 
1710.00, 
1711.00, 
1712.00, 
1713.00, 
1714.00, 
1715.00, 
1716.00, 
1717.00, 
1718.00, 
1719.00, 
1720.00, 
1721.00, 
1722.00, 
1723.00, 
1724.00, 
1725.00, 
1726.00, 
1727.00, 
1728.00, 
1729.00, 
1730.00, 
1731.00, 
1732.00, 
1733.00, 
1734.00, 
1735.00, 
1736.00, 
1737.00, 
1738.00, 
1739.00, 
1740.00, 
1741.00, 
1742.00, 
1743.00, 
1744.00, 
1745.00, 
1746.00, 
1747.00, 
1748.00, 
1749.00, 
1750.00, 
1751.00, 
1752.00, 
1753.00, 
1754.00, 
1755.00, 
1756.00, 
1757.00, 
1758.00, 
1759.00, 
1760.00, 
1761.00, 
1762.00, 
1763.00, 
1764.00, 
1765.00, 
1766.00, 
1767.00, 
1768.00, 
1769.00, 
1770.00, 
1771.00, 
1772.00, 
1773.00, 
1774.00, 
1775.00, 
1776.00, 
1777.00, 
1778.00, 
1779.00, 
1780.00, 
1781.00, 
1782.00, 
1783.00, 
1784.00, 
1785.00, 
1786.00, 
1787.00, 
1788.00, 
1789.00, 
1790.00, 
1791.00, 
1792.00, 
1793.00, 
1794.00, 
1795.00, 
1796.00, 
1797.00, 
1798.00, 
1799.00, 
1800.00, 
1801.00, 
1802.00, 
1803.00, 
1804.00, 
1805.00, 
1806.00, 
1807.00, 
1808.00, 
1809.00, 
1810.00, 
1811.00, 
1812.00, 
1813.00, 
1814.00, 
1815.00, 
1816.00, 
1817.00, 
1818.00, 
1819.00, 
1820.00, 
1821.00, 
1822.00, 
1823.00, 
1824.00, 
1825.00, 
1826.00, 
1827.00, 
1828.00, 
1829.00, 
1830.00, 
1831.00, 
1832.00, 
1833.00, 
1834.00, 
1835.00, 
1836.00, 
1837.00, 
1838.00, 
1839.00, 
1840.00, 
1841.00, 
1842.00, 
1843.00, 
1844.00, 
1845.00, 
1846.00, 
1847.00, 
1848.00, 
1849.00, 
1850.00, 
1851.00, 
1852.00, 
1853.00, 
1854.00, 
1855.00, 
1856.00, 
1857.00, 
1858.00, 
1859.00, 
1860.00, 
1861.00, 
1862.00, 
1863.00, 
1864.00, 
1865.00, 
1866.00, 
1867.00, 
1868.00, 
1869.00, 
1870.00, 
1871.00, 
1872.00, 
1873.00, 
1874.00, 
1875.00, 
1876.00, 
1877.00, 
1878.00, 
1879.00, 
1880.00, 
1881.00, 
1882.00, 
1883.00, 
1884.00, 
1885.00, 
1886.00, 
1887.00, 
1888.00, 
1889.00, 
1890.00, 
1891.00, 
1892.00, 
1893.00, 
1894.00, 
1895.00, 
1896.00, 
1897.00, 
1898.00, 
1899.00, 
1900.00, 
1901.00, 
1902.00, 
1903.00, 
1904.00, 
1905.00, 
1906.00, 
1907.00, 
1908.00, 
1909.00, 
1910.00, 
1911.00, 
1912.00, 
1913.00, 
1914.00, 
1915.00, 
1916.00, 
1917.00, 
1918.00, 
1919.00, 
1920.00, 
1921.00, 
1922.00, 
1923.00, 
1924.00, 
1925.00, 
1926.00, 
1927.00, 
1928.00, 
1929.00, 
1930.00, 
1931.00, 
1932.00, 
1933.00, 
1934.00, 
1935.00, 
1936.00, 
1937.00, 
1938.00, 
1939.00, 
1940.00, 
1941.00, 
1942.00, 
1943.00, 
1944.00, 
1945.00, 
1946.00, 
1947.00, 
1948.00, 
1949.00, 
1950.00, 
1951.00, 
1952.00, 
1953.00, 
1954.00, 
1955.00, 
1956.00, 
1957.00, 
1958.00, 
1959.00, 
1960.00, 
1961.00, 
1962.00, 
1963.00, 
1964.00, 
1965.00, 
1966.00, 
1967.00, 
1968.00, 
1969.00, 
1970.00, 
1971.00, 
1972.00, 
1973.00, 
1974.00, 
1975.00, 
1976.00, 
1977.00, 
1978.00, 
1979.00, 
1980.00, 
1981.00, 
1982.00, 
1983.00, 
1984.00, 
1985.00, 
1986.00, 
1987.00, 
1988.00, 
1989.00, 
1990.00, 
1991.00, 
1992.00, 
1993.00, 
1994.00, 
1995.00, 
1996.00, 
1997.00, 
1998.00, 
1999.00, 
2000.00, 
2001.00, 
2002.00, 
2003.00, 
2004.00, 
2005.00, 
2006.00, 
2007.00, 
2008.00, 
2009.00, 
2010.00, 
2011.00, 
2012.00, 
2013.00, 
2014.00, 
2015.00, 
2016.00, 
2017.00, 
2018.00, 
2019.00, 
2020.00, 
2021.00, 
2022.00, 
2023.00, 
2024.00, 
2025.00, 
2026.00, 
2027.00, 
2028.00, 
2029.00, 
2030.00, 
2031.00, 
2032.00, 
2033.00, 
2034.00, 
2035.00, 
2036.00, 
2037.00, 
2038.00, 
2039.00, 
2040.00, 
2041.00, 
2042.00, 
2043.00, 
2044.00, 
2045.00, 
2046.00, 
2047.00, 
2048.00, 
2049.00, 
2050.00, 
2051.00, 
2052.00, 
2053.00, 
2054.00, 
2055.00, 
2056.00, 
2057.00, 
2058.00, 
2059.00, 
2060.00, 
2061.00, 
2062.00, 
2063.00, 
2064.00, 
2065.00, 
2066.00, 
2067.00, 
2068.00, 
2069.00, 
2070.00, 
2071.00, 
2072.00, 
2073.00, 
2074.00, 
2075.00, 
2076.00, 
2077.00, 
2078.00, 
2079.00, 
2080.00, 
2081.00, 
2082.00, 
2083.00, 
2084.00, 
2085.00, 
2086.00, 
2087.00, 
2088.00, 
2089.00, 
2090.00, 
2091.00, 
2092.00, 
2093.00, 
2094.00, 
2095.00, 
2096.00, 
2097.00, 
2098.00, 
2099.00, 
2100.00, 
2101.00, 
2102.00, 
2103.00, 
2104.00, 
2105.00, 
2106.00, 
2107.00, 
2108.00, 
2109.00, 
2110.00, 
2111.00, 
2112.00, 
2113.00, 
2114.00, 
2115.00, 
2116.00, 
2117.00, 
2118.00, 
2119.00, 
2120.00, 
2121.00, 
2122.00, 
2123.00, 
2124.00, 
2125.00, 
2126.00, 
2127.00, 
2128.00, 
2129.00, 
2130.00, 
2131.00, 
2132.00, 
2133.00, 
2134.00, 
2135.00, 
2136.00, 
2137.00, 
2138.00, 
2139.00, 
2140.00, 
2141.00, 
2142.00, 
2143.00, 
2144.00, 
2145.00, 
2146.00, 
2147.00, 
2148.00, 
2149.00, 
2150.00, 
2151.00, 
2152.00, 
2153.00, 
2154.00, 
2155.00, 
2156.00, 
2157.00, 
2158.00, 
2159.00, 
2160.00, 
2161.00, 
2162.00, 
2163.00, 
2164.00, 
2165.00, 
2166.00, 
2167.00, 
2168.00, 
2169.00, 
2170.00, 
2171.00, 
2172.00, 
2173.00, 
2174.00, 
2175.00, 
2176.00, 
2177.00, 
2178.00, 
2179.00, 
2180.00, 
2181.00, 
2182.00, 
2183.00, 
2184.00, 
2185.00, 
2186.00, 
2187.00, 
2188.00, 
2189.00, 
2190.00, 
2191.00, 
2192.00, 
2193.00, 
2194.00, 
2195.00, 
2196.00, 
2197.00, 
2198.00, 
2199.00, 
2200.00, 
2201.00, 
2202.00, 
2203.00, 
2204.00, 
2205.00, 
2206.00, 
2207.00, 
2208.00, 
2209.00, 
2210.00, 
2211.00, 
2212.00, 
2213.00, 
2214.00, 
2215.00, 
2216.00, 
2217.00, 
2218.00, 
2219.00, 
2220.00, 
2221.00, 
2222.00, 
2223.00, 
2224.00, 
2225.00, 
2226.00, 
2227.00, 
2228.00, 
2229.00, 
2230.00, 
2231.00, 
2232.00, 
2233.00, 
2234.00, 
2235.00, 
2236.00, 
2237.00, 
2238.00, 
2239.00, 
2240.00, 
2241.00, 
2242.00, 
2243.00, 
2244.00, 
2245.00, 
2246.00, 
2247.00, 
2248.00, 
2249.00, 
2250.00, 
2251.00, 
2252.00, 
2253.00, 
2254.00, 
2255.00, 
2256.00, 
2257.00, 
2258.00, 
2259.00, 
2260.00, 
2261.00, 
2262.00, 
2263.00, 
2264.00, 
2265.00, 
2266.00, 
2267.00, 
2268.00, 
2269.00, 
2270.00, 
2271.00, 
2272.00, 
2273.00, 
2274.00, 
2275.00, 
2276.00, 
2277.00, 
2278.00, 
2279.00, 
2280.00, 
2281.00, 
2282.00, 
2283.00, 
2284.00, 
2285.00, 
2286.00, 
2287.00, 
2288.00, 
2289.00, 
2290.00, 
2291.00, 
2292.00, 
2293.00, 
2294.00, 
2295.00, 
2296.00, 
2297.00, 
2298.00, 
2299.00, 
2300.00, 
2301.00, 
2302.00, 
2303.00, 
2304.00, 
2305.00, 
2306.00, 
2307.00, 
2308.00, 
2309.00, 
2310.00, 
2311.00, 
2312.00, 
2313.00, 
2314.00, 
2315.00, 
2316.00, 
2317.00, 
2318.00, 
2319.00, 
2320.00, 
2321.00, 
2322.00, 
2323.00, 
2324.00, 
2325.00, 
2326.00, 
2327.00, 
2328.00, 
2329.00, 
2330.00, 
2331.00, 
2332.00, 
2333.00, 
2334.00, 
2335.00, 
2336.00, 
2337.00, 
2338.00, 
2339.00, 
2340.00, 
2341.00, 
2342.00, 
2343.00, 
2344.00, 
2345.00, 
2346.00, 
2347.00, 
2348.00, 
2349.00, 
2350.00, 
2351.00, 
2352.00, 
2353.00, 
2354.00, 
2355.00, 
2356.00, 
2357.00, 
2358.00, 
2359.00, 
2360.00, 
2361.00, 
2362.00, 
2363.00, 
2364.00, 
2365.00, 
2366.00, 
2367.00, 
2368.00, 
2369.00, 
2370.00, 
2371.00, 
2372.00, 
2373.00, 
2374.00, 
2375.00, 
2376.00, 
2377.00, 
2378.00, 
2379.00, 
2380.00, 
2381.00, 
2382.00, 
2383.00, 
2384.00, 
2385.00, 
2386.00, 
2387.00, 
2388.00, 
2389.00, 
2390.00, 
2391.00, 
2392.00, 
2393.00, 
2394.00, 
2395.00, 
2396.00, 
2397.00, 
2398.00, 
2399.00, 
2400.00, 
2401.00, 
2402.00, 
2403.00, 
2404.00, 
2405.00, 
2406.00, 
2407.00, 
2408.00, 
2409.00, 
2410.00, 
2411.00, 
2412.00, 
2413.00, 
2414.00, 
2415.00, 
2416.00, 
2417.00, 
2418.00, 
2419.00, 
2420.00, 
2421.00, 
2422.00, 
2423.00, 
2424.00, 
2425.00, 
2426.00, 
2427.00, 
2428.00, 
2429.00, 
2430.00, 
2431.00, 
2432.00, 
2433.00, 
2434.00, 
2435.00, 
2436.00, 
2437.00, 
2438.00, 
2439.00, 
2440.00, 
2441.00, 
2442.00, 
2443.00, 
2444.00, 
2445.00, 
2446.00, 
2447.00, 
2448.00, 
2449.00, 
2450.00, 
2451.00, 
2452.00, 
2453.00, 
2454.00, 
2455.00, 
2456.00, 
2457.00, 
2458.00, 
2459.00, 
2460.00, 
2461.00, 
2462.00, 
2463.00, 
2464.00, 
2465.00, 
2466.00, 
2467.00, 
2468.00, 
2469.00, 
2470.00, 
2471.00, 
2472.00, 
2473.00, 
2474.00, 
2475.00, 
2476.00, 
2477.00, 
2478.00, 
2479.00, 
2480.00, 
2481.00, 
2482.00, 
2483.00, 
2484.00, 
2485.00, 
2486.00, 
2487.00, 
2488.00, 
2489.00, 
2490.00, 
2491.00, 
2492.00, 
2493.00, 
2494.00, 
2495.00, 
2496.00, 
2497.00, 
2498.00, 
2499.00, 
2500.00, 
2501.00, 
2502.00, 
2503.00, 
2504.00, 
2505.00, 
2506.00, 
2507.00, 
2508.00, 
2509.00, 
2510.00, 
2511.00, 
2512.00, 
2513.00, 
2514.00, 
2515.00, 
2516.00, 
2517.00, 
2518.00, 
2519.00, 
2520.00, 
2521.00, 
2522.00, 
2523.00, 
2524.00, 
2525.00, 
2526.00, 
2527.00, 
2528.00, 
2529.00, 
2530.00, 
2531.00, 
2532.00, 
2533.00, 
2534.00, 
2535.00, 
2536.00, 
2537.00, 
2538.00, 
2539.00, 
2540.00, 
2541.00, 
2542.00, 
2543.00, 
2544.00, 
2545.00, 
2546.00, 
2547.00, 
2548.00, 
2549.00, 
2550.00, 
2551.00, 
2552.00, 
2553.00, 
2554.00, 
2555.00, 
2556.00, 
2557.00, 
2558.00, 
2559.00, 
2560.00, 
2561.00, 
2562.00, 
2563.00, 
2564.00, 
2565.00, 
2566.00, 
2567.00, 
2568.00, 
2569.00, 
2570.00, 
2571.00, 
2572.00, 
2573.00, 
2574.00, 
2575.00, 
2576.00, 
2577.00, 
2578.00, 
2579.00, 
2580.00, 
2581.00, 
2582.00, 
2583.00, 
2584.00, 
2585.00, 
2586.00, 
2587.00, 
2588.00, 
2589.00, 
2590.00, 
2591.00, 
2592.00, 
2593.00, 
2594.00, 
2595.00, 
2596.00, 
2597.00, 
2598.00, 
2599.00, 
2600.00, 
