"1cP5 - RawData"
"Wavelength nm.","T%"
200.00,0.004
201.00,-0.002
202.00,0.002
203.00,0.002
204.00,0.002
205.00,0.001
206.00,-0.000
207.00,-0.002
208.00,-0.000
209.00,0.002
210.00,0.001
211.00,0.003
212.00,-0.001
213.00,0.002
214.00,0.002
215.00,0.002
216.00,-0.002
217.00,-0.002
218.00,0.002
219.00,0.001
220.00,0.004
221.00,0.001
222.00,0.004
223.00,-0.002
224.00,0.001
225.00,-0.002
226.00,0.002
227.00,-0.000
228.00,0.001
229.00,-0.002
230.00,0.000
231.00,0.000
232.00,0.002
233.00,-0.002
234.00,0.002
235.00,-0.000
236.00,0.002
237.00,0.001
238.00,0.002
239.00,-0.001
240.00,-0.001
241.00,0.000
242.00,-0.001
243.00,0.001
244.00,0.000
245.00,-0.001
246.00,-0.002
247.00,-0.002
248.00,-0.001
249.00,-0.003
250.00,0.001
251.00,0.000
252.00,0.002
253.00,-0.001
254.00,-0.001
255.00,-0.000
256.00,0.000
257.00,-0.000
258.00,-0.000
259.00,0.001
260.00,-0.001
261.00,-0.000
262.00,-0.002
263.00,0.002
264.00,-0.001
265.00,-0.001
266.00,0.002
267.00,0.000
268.00,-0.003
269.00,-0.000
270.00,0.001
271.00,0.000
272.00,-0.000
273.00,0.001
274.00,0.001
275.00,0.002
276.00,0.000
277.00,0.001
278.00,0.002
279.00,-0.000
280.00,0.001
281.00,0.001
282.00,0.001
283.00,0.000
284.00,0.001
285.00,0.000
286.00,0.001
287.00,0.000
288.00,-0.002
289.00,0.000
290.00,0.001
291.00,-0.000
292.00,-0.002
293.00,-0.001
294.00,-0.001
295.00,0.001
296.00,0.001
297.00,-0.001
298.00,0.001
299.00,0.000
300.00,0.001
301.00,-0.000
302.00,0.001
303.00,-0.001
304.00,-0.000
305.00,0.004
306.00,0.002
307.00,0.004
308.00,0.007
309.00,0.013
310.00,0.016
311.00,0.024
312.00,0.043
313.00,0.070
314.00,0.099
315.00,0.139
316.00,0.202
317.00,0.289
318.00,0.388
319.00,0.518
320.00,0.695
321.00,0.907
322.00,1.166
323.00,1.463
324.00,1.804
325.00,2.149
326.00,2.557
327.00,3.055
328.00,3.558
329.00,4.096
330.00,4.712
331.00,5.329
332.00,5.975
333.00,6.692
334.00,7.369
335.00,8.082
336.00,8.801
337.00,9.530
338.00,10.302
339.00,10.996
340.00,11.737
341.00,12.476
342.00,13.040
343.00,13.768
344.00,14.436
345.00,15.096
346.00,15.614
347.00,16.145
348.00,16.697
349.00,17.177
350.00,17.679
351.00,18.097
352.00,18.531
353.00,18.904
354.00,19.245
355.00,19.626
356.00,19.926
357.00,20.205
358.00,20.508
359.00,20.813
360.00,21.094
361.00,21.236
362.00,21.430
363.00,21.626
364.00,21.749
365.00,21.861
366.00,21.981
367.00,22.080
368.00,22.151
369.00,22.181
370.00,22.243
371.00,22.241
372.00,22.246
373.00,22.234
374.00,22.236
375.00,22.231
376.00,22.115
377.00,22.009
378.00,21.947
379.00,21.852
380.00,21.805
381.00,21.795
382.00,21.807
383.00,21.848
384.00,21.882
385.00,21.986
386.00,21.983
387.00,22.066
388.00,22.164
389.00,22.186
390.00,22.239
391.00,22.302
392.00,22.325
393.00,22.356
394.00,22.416
395.00,22.401
396.00,22.460
397.00,22.444
398.00,22.441
399.00,22.465
400.00,22.490
401.00,22.474
402.00,22.461
403.00,22.447
404.00,22.422
405.00,22.428
406.00,22.395
407.00,22.386
408.00,22.380
409.00,22.302
410.00,22.235
411.00,22.256
412.00,22.182
413.00,22.222
414.00,22.187
415.00,22.193
416.00,22.275
417.00,22.207
418.00,22.258
419.00,22.333
420.00,22.382
421.00,22.385
422.00,22.377
423.00,22.434
424.00,22.487
425.00,22.535
426.00,22.519
427.00,22.585
428.00,22.635
429.00,22.667
430.00,22.731
431.00,22.769
432.00,22.807
433.00,22.853
434.00,22.911
435.00,22.995
436.00,23.037
437.00,23.106
438.00,23.199
439.00,23.241
440.00,23.326
441.00,23.392
442.00,23.456
443.00,23.555
444.00,23.654
445.00,23.732
446.00,23.804
447.00,23.909
448.00,24.062
449.00,24.146
450.00,24.226
451.00,24.348
452.00,24.376
453.00,24.575
454.00,24.659
455.00,24.769
456.00,24.889
457.00,25.009
458.00,25.113
459.00,25.253
460.00,25.402
461.00,25.527
462.00,25.614
463.00,25.795
464.00,25.918
465.00,26.036
466.00,26.182
467.00,26.340
468.00,26.427
469.00,26.556
470.00,26.640
471.00,26.734
472.00,26.863
473.00,26.933
474.00,27.061
475.00,27.189
476.00,27.293
477.00,27.430
478.00,27.572
479.00,27.748
480.00,27.819
481.00,27.938
482.00,28.082
483.00,28.305
484.00,28.478
485.00,28.607
486.00,28.737
487.00,28.912
488.00,29.037
489.00,29.170
490.00,29.344
491.00,29.500
492.00,29.634
493.00,29.842
494.00,29.998
495.00,29.994
496.00,30.135
497.00,30.242
498.00,30.411
499.00,30.524
500.00,30.675
501.00,30.790
502.00,30.913
503.00,31.029
504.00,31.060
505.00,31.201
506.00,31.396
507.00,31.466
508.00,31.557
509.00,31.776
510.00,31.907
511.00,31.972
512.00,32.113
513.00,32.288
514.00,32.405
515.00,32.559
516.00,32.643
517.00,32.747
518.00,32.865
519.00,32.938
520.00,32.980
521.00,33.132
522.00,33.205
523.00,33.240
524.00,33.341
525.00,33.462
526.00,33.569
527.00,33.607
528.00,33.687
529.00,33.891
530.00,33.998
531.00,34.124
532.00,34.163
533.00,34.319
534.00,34.394
535.00,34.444
536.00,34.538
537.00,34.601
538.00,34.682
539.00,34.723
540.00,34.830
541.00,34.871
542.00,34.882
543.00,34.946
544.00,35.021
545.00,35.113
546.00,35.127
547.00,35.226
548.00,35.309
549.00,35.363
550.00,35.383
551.00,35.461
552.00,35.672
553.00,35.664
554.00,35.805
555.00,35.834
556.00,35.911
557.00,35.985
558.00,36.043
559.00,36.096
560.00,36.152
561.00,36.217
562.00,36.330
563.00,36.316
564.00,36.390
565.00,36.387
566.00,36.389
567.00,36.453
568.00,36.483
569.00,36.543
570.00,36.562
571.00,36.591
572.00,36.614
573.00,36.613
574.00,36.631
575.00,36.603
576.00,36.674
577.00,36.679
578.00,36.850
579.00,36.922
580.00,36.917
581.00,37.006
582.00,37.102
583.00,37.076
584.00,37.203
585.00,37.282
586.00,37.297
587.00,37.377
588.00,37.371
589.00,37.321
590.00,37.441
591.00,37.482
592.00,37.498
593.00,37.452
594.00,37.565
595.00,37.641
596.00,37.621
597.00,37.773
598.00,37.808
599.00,37.851
600.00,37.942
601.00,37.968
602.00,37.938
603.00,37.975
604.00,38.018
605.00,38.120
606.00,38.075
607.00,38.089
608.00,38.275
609.00,38.375
610.00,38.227
611.00,38.249
612.00,38.347
613.00,38.368
614.00,38.415
615.00,38.494
616.00,38.575
617.00,38.572
618.00,38.577
619.00,38.653
620.00,38.731
621.00,38.789
622.00,38.821
623.00,38.898
624.00,38.962
625.00,39.006
626.00,39.091
627.00,39.122
628.00,39.113
629.00,39.179
630.00,39.210
631.00,39.240
632.00,39.368
633.00,39.415
634.00,39.529
635.00,39.637
636.00,39.674
637.00,39.681
638.00,39.699
639.00,39.910
640.00,39.984
641.00,40.016
642.00,39.991
643.00,40.109
644.00,40.136
645.00,40.226
646.00,40.408
647.00,40.437
648.00,40.504
649.00,40.487
650.00,40.497
651.00,40.697
652.00,40.793
653.00,40.771
654.00,40.874
655.00,40.999
656.00,41.281
657.00,41.172
658.00,41.278
659.00,41.422
660.00,41.361
661.00,41.347
662.00,41.537
663.00,41.656
664.00,41.878
665.00,42.074
666.00,42.067
667.00,42.240
668.00,41.835
669.00,42.494
670.00,42.560
671.00,42.426
672.00,42.435
673.00,42.600
674.00,42.572
675.00,42.843
676.00,43.034
677.00,43.015
678.00,42.891
679.00,43.339
680.00,43.214
681.00,43.438
682.00,43.317
683.00,43.275
684.00,43.646
685.00,43.766
686.00,43.531
687.00,43.862
688.00,43.878
689.00,43.740
690.00,44.120
691.00,44.231
692.00,43.905
693.00,44.245
694.00,44.569
695.00,44.494
696.00,44.539
697.00,44.645
698.00,44.529
699.00,44.851
700.00,44.866
701.00,44.936
702.00,45.133
703.00,45.209
704.00,45.297
705.00,45.190
706.00,45.322
707.00,45.401
708.00,45.288
709.00,45.679
710.00,45.918
711.00,45.529
712.00,45.655
713.00,45.759
714.00,45.841
715.00,45.821
716.00,45.900
717.00,46.296
718.00,46.334
719.00,46.195
720.00,46.412
721.00,50.718
722.00,50.770
723.00,50.821
724.00,50.783
725.00,50.799
726.00,50.782
727.00,50.901
728.00,50.896
729.00,50.876
730.00,50.981
731.00,50.977
732.00,50.960
733.00,50.994
734.00,51.086
735.00,51.104
736.00,51.139
737.00,51.168
738.00,51.183
739.00,51.211
740.00,51.250
741.00,51.233
742.00,51.328
743.00,51.260
744.00,51.357
745.00,51.353
746.00,51.404
747.00,51.266
748.00,51.306
749.00,51.347
750.00,51.412
751.00,51.277
752.00,51.305
753.00,51.401
754.00,51.347
755.00,51.366
756.00,51.448
757.00,51.328
758.00,51.414
759.00,51.441
760.00,51.502
761.00,51.387
762.00,51.433
763.00,51.463
764.00,51.469
765.00,51.520
766.00,51.419
767.00,51.553
768.00,51.509
769.00,51.523
770.00,51.624
771.00,51.578
772.00,51.625
773.00,51.670
774.00,51.676
775.00,51.533
776.00,51.560
777.00,51.647
778.00,51.592
779.00,51.606
780.00,51.596
781.00,51.555
782.00,51.603
783.00,51.558
784.00,51.663
785.00,51.473
786.00,51.574
787.00,51.550
788.00,51.510
789.00,51.472
790.00,51.538
791.00,51.520
792.00,51.458
793.00,51.466
794.00,51.514
795.00,51.508
796.00,51.478
797.00,51.416
798.00,51.463
799.00,51.376
800.00,51.360
801.00,51.418
802.00,51.344
803.00,51.402
804.00,51.306
805.00,51.357
806.00,51.282
807.00,51.305
808.00,51.302
809.00,51.276
810.00,51.224
811.00,51.258
812.00,51.319
813.00,51.236
814.00,51.233
815.00,51.153
816.00,51.209
817.00,51.122
818.00,51.078
819.00,51.056
820.00,51.103
821.00,51.056
822.00,51.060
823.00,51.025
824.00,51.070
825.00,50.994
826.00,50.956
827.00,51.098
828.00,51.012
829.00,51.111
830.00,50.943
831.00,53.343
832.00,53.310
833.00,53.271
834.00,53.268
835.00,53.275
836.00,53.247
837.00,53.210
838.00,53.255
839.00,53.198
840.00,53.178
841.00,53.175
842.00,53.129
843.00,53.173
844.00,53.126
845.00,53.049
846.00,53.080
847.00,53.039
848.00,53.038
849.00,52.979
850.00,52.990
851.00,52.913
852.00,52.935
853.00,52.882
854.00,52.815
855.00,52.848
856.00,52.757
857.00,52.755
858.00,52.741
859.00,52.722
860.00,52.614
861.00,52.744
862.00,52.629
863.00,52.670
864.00,52.623
865.00,52.665
866.00,52.617
867.00,52.639
868.00,52.632
869.00,52.588
870.00,52.600
871.00,52.595
872.00,52.582
873.00,52.545
874.00,52.561
875.00,52.534
876.00,52.518
877.00,52.481
878.00,52.510
879.00,52.473
880.00,52.493
881.00,52.456
882.00,52.510
883.00,52.461
884.00,52.367
885.00,52.345
886.00,52.505
887.00,52.335
888.00,52.299
889.00,52.297
890.00,52.272
891.00,52.256
892.00,52.236
893.00,52.213
894.00,52.232
895.00,52.185
896.00,52.172
897.00,52.167
898.00,52.130
899.00,52.128
900.00,52.108
901.00,52.095
902.00,52.105
903.00,52.062
904.00,52.040
905.00,52.057
906.00,52.027
907.00,52.032
908.00,51.983
909.00,51.947
910.00,51.909
911.00,51.937
912.00,51.908
913.00,51.860
914.00,51.881
915.00,51.834
916.00,51.797
917.00,51.800
918.00,51.770
919.00,51.743
920.00,51.686
921.00,51.698
922.00,51.718
923.00,51.712
924.00,51.648
925.00,51.655
926.00,51.778
927.00,51.604
928.00,51.577
929.00,51.599
930.00,51.564
931.00,51.540
932.00,51.519
933.00,51.487
934.00,51.502
935.00,51.453
936.00,51.449
937.00,51.438
938.00,51.407
939.00,51.414
940.00,51.355
941.00,51.382
942.00,51.365
943.00,51.318
944.00,51.273
945.00,51.303
946.00,51.289
947.00,51.239
948.00,51.235
949.00,51.214
950.00,51.234
951.00,51.180
952.00,51.167
953.00,51.144
954.00,51.105
955.00,51.025
956.00,51.072
957.00,50.995
958.00,51.023
959.00,50.959
960.00,50.958
961.00,50.946
962.00,50.934
963.00,50.905
964.00,50.904
965.00,50.906
966.00,50.889
967.00,50.883
968.00,50.866
969.00,50.890
970.00,50.844
971.00,50.878
972.00,50.828
973.00,50.857
974.00,50.881
975.00,50.839
976.00,50.874
977.00,50.849
978.00,50.903
979.00,50.846
980.00,50.865
981.00,50.875
982.00,50.819
983.00,50.836
984.00,50.807
985.00,50.824
986.00,50.783
987.00,50.803
988.00,50.779
989.00,50.769
990.00,50.758
991.00,50.751
992.00,50.768
993.00,50.727
994.00,50.727
995.00,50.720
996.00,50.699
997.00,50.694
998.00,50.661
999.00,50.685
1000.00,50.642
1001.00,50.628
1002.00,50.700
1003.00,50.624
1004.00,50.593
1005.00,50.560
1006.00,50.582
1007.00,50.573
1008.00,50.544
1009.00,50.540
1010.00,50.531
1011.00,50.524
1012.00,50.487
1013.00,50.490
1014.00,50.479
1015.00,50.460
1016.00,50.422
1017.00,50.446
1018.00,50.430
1019.00,50.395
1020.00,50.382
1021.00,50.362
1022.00,50.358
1023.00,50.308
1024.00,50.320
1025.00,50.296
1026.00,50.298
1027.00,50.279
1028.00,50.275
1029.00,50.257
1030.00,50.221
1031.00,50.234
1032.00,50.204
1033.00,50.198
1034.00,50.164
1035.00,50.131
1036.00,50.101
1037.00,50.090
1038.00,50.074
1039.00,50.040
1040.00,50.051
1041.00,50.018
1042.00,50.008
1043.00,49.974
1044.00,50.022
1045.00,49.990
1046.00,49.987
1047.00,50.018
1048.00,50.022
1049.00,50.043
1050.00,50.029
1051.00,50.081
1052.00,50.074
1053.00,50.084
1054.00,50.078
1055.00,50.095
1056.00,50.096
1057.00,50.105
1058.00,50.095
1059.00,50.088
1060.00,50.118
1061.00,50.106
1062.00,50.082
1063.00,50.082
1064.00,50.071
1065.00,50.061
1066.00,50.047
1067.00,50.042
1068.00,50.076
1069.00,50.030
1070.00,50.023
1071.00,50.011
1072.00,50.026
1073.00,50.017
1074.00,49.991
1075.00,49.979
1076.00,49.979
1077.00,49.961
1078.00,49.941
1079.00,49.973
1080.00,49.958
1081.00,49.940
1082.00,49.939
1083.00,49.927
1084.00,49.937
1085.00,49.939
1086.00,49.921
1087.00,49.913
1088.00,49.904
1089.00,49.894
1090.00,49.890
1091.00,49.928
1092.00,49.908
1093.00,49.873
1094.00,49.843
1095.00,49.830
1096.00,49.810
1097.00,49.806
1098.00,49.805
1099.00,49.798
1100.00,49.776
1101.00,49.794
1102.00,49.761
1103.00,49.776
1104.00,49.770
1105.00,49.753
1106.00,49.751
1107.00,49.747
1108.00,49.733
1109.00,49.725
1110.00,49.727
1111.00,49.710
1112.00,49.701
1113.00,49.699
1114.00,49.683
1115.00,49.683
1116.00,49.663
1117.00,49.659
1118.00,49.647
1119.00,49.632
1120.00,49.628
1121.00,49.642
1122.00,49.623
1123.00,49.617
1124.00,49.611
1125.00,49.608
1126.00,49.605
1127.00,49.585
1128.00,49.577
1129.00,49.550
1130.00,49.549
1131.00,49.559
1132.00,49.550
1133.00,49.546
1134.00,49.526
1135.00,49.513
1136.00,49.538
1137.00,49.551
1138.00,49.541
1139.00,49.551
1140.00,49.531
1141.00,49.512
1142.00,49.513
1143.00,49.566
1144.00,49.520
1145.00,49.536
1146.00,49.541
1147.00,49.524
1148.00,49.509
1149.00,49.495
1150.00,49.505
1151.00,49.507
1152.00,49.506
1153.00,49.513
1154.00,49.504
1155.00,49.501
1156.00,49.484
1157.00,49.488
1158.00,49.469
1159.00,49.473
1160.00,49.463
1161.00,49.486
1162.00,49.487
1163.00,49.478
1164.00,49.500
1165.00,49.483
1166.00,49.471
1167.00,49.473
1168.00,49.486
1169.00,49.475
1170.00,49.493
1171.00,49.468
1172.00,49.459
1173.00,49.454
1174.00,49.467
1175.00,49.460
1176.00,49.478
1177.00,49.451
1178.00,49.461
1179.00,49.466
1180.00,49.447
1181.00,49.478
1182.00,49.462
1183.00,49.467
1184.00,49.452
1185.00,49.467
1186.00,49.445
1187.00,49.449
1188.00,49.443
1189.00,49.448
1190.00,49.457
1191.00,49.435
1192.00,49.469
1193.00,49.442
1194.00,49.462
1195.00,49.436
1196.00,49.458
1197.00,49.477
1198.00,49.453
1199.00,49.440
1200.00,49.464
1201.00,49.471
1202.00,49.453
1203.00,49.468
1204.00,49.443
1205.00,49.460
1206.00,49.462
1207.00,49.470
1208.00,49.469
1209.00,49.490
1210.00,49.484
1211.00,49.495
1212.00,49.503
1213.00,49.469
1214.00,49.498
1215.00,49.453
1216.00,49.482
1217.00,49.494
1218.00,49.474
1219.00,49.482
1220.00,49.469
1221.00,49.481
1222.00,49.466
1223.00,49.498
1224.00,49.479
1225.00,49.474
1226.00,49.471
1227.00,49.474
1228.00,49.500
1229.00,49.472
1230.00,49.520
1231.00,49.532
1232.00,49.520
1233.00,49.524
1234.00,49.526
1235.00,49.527
1236.00,49.527
1237.00,49.521
1238.00,49.523
1239.00,49.537
1240.00,49.511
1241.00,49.532
1242.00,49.537
1243.00,49.539
1244.00,49.526
1245.00,49.552
1246.00,49.570
1247.00,49.561
1248.00,49.553
1249.00,49.569
1250.00,49.575
1251.00,49.546
1252.00,49.557
1253.00,49.559
1254.00,49.581
1255.00,49.573
1256.00,49.551
1257.00,49.544
1258.00,49.615
1259.00,49.601
1260.00,49.635
1261.00,49.635
1262.00,49.619
1263.00,49.625
1264.00,49.630
1265.00,49.635
1266.00,49.637
1267.00,49.650
1268.00,49.652
1269.00,49.659
1270.00,49.674
1271.00,49.687
1272.00,49.692
1273.00,49.706
1274.00,49.710
1275.00,49.727
1276.00,49.694
1277.00,49.712
1278.00,49.716
1279.00,49.719
1280.00,49.718
1281.00,49.737
1282.00,49.768
1283.00,49.751
1284.00,49.761
1285.00,49.753
1286.00,49.778
1287.00,49.768
1288.00,49.774
1289.00,49.782
1290.00,49.790
1291.00,49.789
1292.00,49.783
1293.00,49.797
1294.00,49.807
1295.00,49.803
1296.00,49.807
1297.00,49.815
1298.00,49.857
1299.00,49.820
1300.00,49.858
1301.00,49.834
1302.00,49.875
1303.00,49.875
1304.00,49.858
1305.00,49.891
1306.00,49.889
1307.00,49.909
1308.00,49.910
1309.00,49.902
1310.00,49.907
1311.00,49.890
1312.00,49.906
1313.00,49.915
1314.00,49.945
1315.00,49.962
1316.00,49.960
1317.00,49.985
1318.00,50.000
1319.00,50.002
1320.00,49.998
1321.00,50.162
1322.00,50.156
1323.00,50.132
1324.00,50.112
1325.00,50.107
1326.00,50.125
1327.00,50.113
1328.00,50.111
1329.00,50.118
1330.00,50.117
1331.00,50.145
1332.00,50.142
1333.00,50.136
1334.00,50.182
1335.00,50.187
1336.00,50.230
1337.00,50.263
1338.00,50.304
1339.00,50.372
1340.00,50.438
1341.00,50.491
1342.00,50.564
1343.00,50.597
1344.00,50.649
1345.00,50.705
1346.00,50.737
1347.00,50.763
1348.00,50.783
1349.00,50.816
1350.00,50.832
1351.00,50.886
1352.00,50.862
1353.00,50.854
1354.00,50.895
1355.00,50.854
1356.00,50.889
1357.00,50.885
1358.00,50.943
1359.00,50.911
1360.00,50.932
1361.00,50.949
1362.00,50.829
1363.00,50.989
1364.00,51.014
1365.00,50.925
1366.00,51.041
1367.00,50.950
1368.00,50.867
1369.00,51.037
1370.00,50.892
1371.00,50.873
1372.00,50.895
1373.00,50.945
1374.00,50.930
1375.00,50.900
1376.00,50.883
1377.00,50.874
1378.00,50.977
1379.00,50.930
1380.00,50.933
1381.00,51.042
1382.00,50.907
1383.00,50.995
1384.00,50.864
1385.00,50.810
1386.00,50.939
1387.00,50.892
1388.00,50.862
1389.00,50.861
1390.00,50.894
1391.00,50.948
1392.00,50.913
1393.00,51.033
1394.00,51.022
1395.00,50.891
1396.00,50.843
1397.00,50.844
1398.00,50.936
1399.00,51.007
1400.00,50.857
1401.00,50.845
1402.00,51.021
1403.00,50.936
1404.00,50.916
1405.00,51.000
1406.00,50.959
1407.00,50.989
1408.00,50.984
1409.00,50.974
1410.00,50.987
1411.00,51.059
1412.00,51.264
1413.00,51.400
1414.00,50.972
1415.00,51.030
1416.00,51.081
1417.00,51.156
1418.00,51.062
1419.00,51.087
1420.00,51.112
1421.00,51.165
1422.00,51.134
1423.00,51.162
1424.00,51.161
1425.00,51.174
1426.00,51.177
1427.00,51.217
1428.00,51.199
1429.00,51.200
1430.00,51.254
1431.00,51.251
1432.00,51.269
1433.00,51.294
1434.00,51.282
1435.00,51.364
1436.00,51.357
1437.00,51.349
1438.00,51.374
1439.00,51.408
1440.00,51.420
1441.00,51.429
1442.00,51.427
1443.00,51.451
1444.00,51.568
1445.00,51.471
1446.00,51.488
1447.00,51.537
1448.00,51.591
1449.00,51.611
1450.00,51.607
1451.00,51.607
1452.00,51.632
1453.00,51.658
1454.00,51.680
1455.00,51.686
1456.00,51.695
1457.00,51.699
1458.00,51.720
1459.00,51.727
1460.00,51.773
1461.00,51.772
1462.00,51.790
1463.00,51.815
1464.00,51.834
1465.00,51.844
1466.00,51.837
1467.00,51.862
1468.00,51.921
1469.00,51.884
1470.00,51.925
1471.00,51.932
1472.00,51.942
1473.00,51.949
1474.00,51.987
1475.00,51.995
1476.00,52.000
1477.00,52.007
1478.00,52.034
1479.00,52.056
1480.00,52.053
1481.00,52.076
1482.00,52.126
1483.00,52.141
1484.00,52.138
1485.00,52.128
1486.00,52.151
1487.00,52.182
1488.00,52.205
1489.00,52.197
1490.00,52.219
1491.00,52.249
1492.00,52.264
1493.00,52.271
1494.00,52.303
1495.00,52.266
1496.00,52.318
1497.00,52.299
1498.00,52.310
1499.00,52.315
1500.00,52.338
1501.00, 
1502.00, 
1503.00, 
1504.00, 
1505.00, 
1506.00, 
1507.00, 
1508.00, 
1509.00, 
1510.00, 
1511.00, 
1512.00, 
1513.00, 
1514.00, 
1515.00, 
1516.00, 
1517.00, 
1518.00, 
1519.00, 
1520.00, 
1521.00, 
1522.00, 
1523.00, 
1524.00, 
1525.00, 
1526.00, 
1527.00, 
1528.00, 
1529.00, 
1530.00, 
1531.00, 
1532.00, 
1533.00, 
1534.00, 
1535.00, 
1536.00, 
1537.00, 
1538.00, 
1539.00, 
1540.00, 
1541.00, 
1542.00, 
1543.00, 
1544.00, 
1545.00, 
1546.00, 
1547.00, 
1548.00, 
1549.00, 
1550.00, 
1551.00, 
1552.00, 
1553.00, 
1554.00, 
1555.00, 
1556.00, 
1557.00, 
1558.00, 
1559.00, 
1560.00, 
1561.00, 
1562.00, 
1563.00, 
1564.00, 
1565.00, 
1566.00, 
1567.00, 
1568.00, 
1569.00, 
1570.00, 
1571.00, 
1572.00, 
1573.00, 
1574.00, 
1575.00, 
1576.00, 
1577.00, 
1578.00, 
1579.00, 
1580.00, 
1581.00, 
1582.00, 
1583.00, 
1584.00, 
1585.00, 
1586.00, 
1587.00, 
1588.00, 
1589.00, 
1590.00, 
1591.00, 
1592.00, 
1593.00, 
1594.00, 
1595.00, 
1596.00, 
1597.00, 
1598.00, 
1599.00, 
1600.00, 
1601.00, 
1602.00, 
1603.00, 
1604.00, 
1605.00, 
1606.00, 
1607.00, 
1608.00, 
1609.00, 
1610.00, 
1611.00, 
1612.00, 
1613.00, 
1614.00, 
1615.00, 
1616.00, 
1617.00, 
1618.00, 
1619.00, 
1620.00, 
1621.00, 
1622.00, 
1623.00, 
1624.00, 
1625.00, 
1626.00, 
1627.00, 
1628.00, 
1629.00, 
1630.00, 
1631.00, 
1632.00, 
1633.00, 
1634.00, 
1635.00, 
1636.00, 
1637.00, 
1638.00, 
1639.00, 
1640.00, 
1641.00, 
1642.00, 
1643.00, 
1644.00, 
1645.00, 
1646.00, 
1647.00, 
1648.00, 
1649.00, 
1650.00, 
1651.00, 
1652.00, 
1653.00, 
1654.00, 
1655.00, 
1656.00, 
1657.00, 
1658.00, 
1659.00, 
1660.00, 
1661.00, 
1662.00, 
1663.00, 
1664.00, 
1665.00, 
1666.00, 
1667.00, 
1668.00, 
1669.00, 
1670.00, 
1671.00, 
1672.00, 
1673.00, 
1674.00, 
1675.00, 
1676.00, 
1677.00, 
1678.00, 
1679.00, 
1680.00, 
1681.00, 
1682.00, 
1683.00, 
1684.00, 
1685.00, 
1686.00, 
1687.00, 
1688.00, 
1689.00, 
1690.00, 
1691.00, 
1692.00, 
1693.00, 
1694.00, 
1695.00, 
1696.00, 
1697.00, 
1698.00, 
1699.00, 
1700.00, 
1701.00, 
1702.00, 
1703.00, 
1704.00, 
1705.00, 
1706.00, 
1707.00, 
1708.00, 
1709.00, 
1710.00, 
1711.00, 
1712.00, 
1713.00, 
1714.00, 
1715.00, 
1716.00, 
1717.00, 
1718.00, 
1719.00, 
1720.00, 
1721.00, 
1722.00, 
1723.00, 
1724.00, 
1725.00, 
1726.00, 
1727.00, 
1728.00, 
1729.00, 
1730.00, 
1731.00, 
1732.00, 
1733.00, 
1734.00, 
1735.00, 
1736.00, 
1737.00, 
1738.00, 
1739.00, 
1740.00, 
1741.00, 
1742.00, 
1743.00, 
1744.00, 
1745.00, 
1746.00, 
1747.00, 
1748.00, 
1749.00, 
1750.00, 
1751.00, 
1752.00, 
1753.00, 
1754.00, 
1755.00, 
1756.00, 
1757.00, 
1758.00, 
1759.00, 
1760.00, 
1761.00, 
1762.00, 
1763.00, 
1764.00, 
1765.00, 
1766.00, 
1767.00, 
1768.00, 
1769.00, 
1770.00, 
1771.00, 
1772.00, 
1773.00, 
1774.00, 
1775.00, 
1776.00, 
1777.00, 
1778.00, 
1779.00, 
1780.00, 
1781.00, 
1782.00, 
1783.00, 
1784.00, 
1785.00, 
1786.00, 
1787.00, 
1788.00, 
1789.00, 
1790.00, 
1791.00, 
1792.00, 
1793.00, 
1794.00, 
1795.00, 
1796.00, 
1797.00, 
1798.00, 
1799.00, 
1800.00, 
1801.00, 
1802.00, 
1803.00, 
1804.00, 
1805.00, 
1806.00, 
1807.00, 
1808.00, 
1809.00, 
1810.00, 
1811.00, 
1812.00, 
1813.00, 
1814.00, 
1815.00, 
1816.00, 
1817.00, 
1818.00, 
1819.00, 
1820.00, 
1821.00, 
1822.00, 
1823.00, 
1824.00, 
1825.00, 
1826.00, 
1827.00, 
1828.00, 
1829.00, 
1830.00, 
1831.00, 
1832.00, 
1833.00, 
1834.00, 
1835.00, 
1836.00, 
1837.00, 
1838.00, 
1839.00, 
1840.00, 
1841.00, 
1842.00, 
1843.00, 
1844.00, 
1845.00, 
1846.00, 
1847.00, 
1848.00, 
1849.00, 
1850.00, 
1851.00, 
1852.00, 
1853.00, 
1854.00, 
1855.00, 
1856.00, 
1857.00, 
1858.00, 
1859.00, 
1860.00, 
1861.00, 
1862.00, 
1863.00, 
1864.00, 
1865.00, 
1866.00, 
1867.00, 
1868.00, 
1869.00, 
1870.00, 
1871.00, 
1872.00, 
1873.00, 
1874.00, 
1875.00, 
1876.00, 
1877.00, 
1878.00, 
1879.00, 
1880.00, 
1881.00, 
1882.00, 
1883.00, 
1884.00, 
1885.00, 
1886.00, 
1887.00, 
1888.00, 
1889.00, 
1890.00, 
1891.00, 
1892.00, 
1893.00, 
1894.00, 
1895.00, 
1896.00, 
1897.00, 
1898.00, 
1899.00, 
1900.00, 
1901.00, 
1902.00, 
1903.00, 
1904.00, 
1905.00, 
1906.00, 
1907.00, 
1908.00, 
1909.00, 
1910.00, 
1911.00, 
1912.00, 
1913.00, 
1914.00, 
1915.00, 
1916.00, 
1917.00, 
1918.00, 
1919.00, 
1920.00, 
1921.00, 
1922.00, 
1923.00, 
1924.00, 
1925.00, 
1926.00, 
1927.00, 
1928.00, 
1929.00, 
1930.00, 
1931.00, 
1932.00, 
1933.00, 
1934.00, 
1935.00, 
1936.00, 
1937.00, 
1938.00, 
1939.00, 
1940.00, 
1941.00, 
1942.00, 
1943.00, 
1944.00, 
1945.00, 
1946.00, 
1947.00, 
1948.00, 
1949.00, 
1950.00, 
1951.00, 
1952.00, 
1953.00, 
1954.00, 
1955.00, 
1956.00, 
1957.00, 
1958.00, 
1959.00, 
1960.00, 
1961.00, 
1962.00, 
1963.00, 
1964.00, 
1965.00, 
1966.00, 
1967.00, 
1968.00, 
1969.00, 
1970.00, 
1971.00, 
1972.00, 
1973.00, 
1974.00, 
1975.00, 
1976.00, 
1977.00, 
1978.00, 
1979.00, 
1980.00, 
1981.00, 
1982.00, 
1983.00, 
1984.00, 
1985.00, 
1986.00, 
1987.00, 
1988.00, 
1989.00, 
1990.00, 
1991.00, 
1992.00, 
1993.00, 
1994.00, 
1995.00, 
1996.00, 
1997.00, 
1998.00, 
1999.00, 
2000.00, 
2001.00, 
2002.00, 
2003.00, 
2004.00, 
2005.00, 
2006.00, 
2007.00, 
2008.00, 
2009.00, 
2010.00, 
2011.00, 
2012.00, 
2013.00, 
2014.00, 
2015.00, 
2016.00, 
2017.00, 
2018.00, 
2019.00, 
2020.00, 
2021.00, 
2022.00, 
2023.00, 
2024.00, 
2025.00, 
2026.00, 
2027.00, 
2028.00, 
2029.00, 
2030.00, 
2031.00, 
2032.00, 
2033.00, 
2034.00, 
2035.00, 
2036.00, 
2037.00, 
2038.00, 
2039.00, 
2040.00, 
2041.00, 
2042.00, 
2043.00, 
2044.00, 
2045.00, 
2046.00, 
2047.00, 
2048.00, 
2049.00, 
2050.00, 
2051.00, 
2052.00, 
2053.00, 
2054.00, 
2055.00, 
2056.00, 
2057.00, 
2058.00, 
2059.00, 
2060.00, 
2061.00, 
2062.00, 
2063.00, 
2064.00, 
2065.00, 
2066.00, 
2067.00, 
2068.00, 
2069.00, 
2070.00, 
2071.00, 
2072.00, 
2073.00, 
2074.00, 
2075.00, 
2076.00, 
2077.00, 
2078.00, 
2079.00, 
2080.00, 
2081.00, 
2082.00, 
2083.00, 
2084.00, 
2085.00, 
2086.00, 
2087.00, 
2088.00, 
2089.00, 
2090.00, 
2091.00, 
2092.00, 
2093.00, 
2094.00, 
2095.00, 
2096.00, 
2097.00, 
2098.00, 
2099.00, 
2100.00, 
2101.00, 
2102.00, 
2103.00, 
2104.00, 
2105.00, 
2106.00, 
2107.00, 
2108.00, 
2109.00, 
2110.00, 
2111.00, 
2112.00, 
2113.00, 
2114.00, 
2115.00, 
2116.00, 
2117.00, 
2118.00, 
2119.00, 
2120.00, 
2121.00, 
2122.00, 
2123.00, 
2124.00, 
2125.00, 
2126.00, 
2127.00, 
2128.00, 
2129.00, 
2130.00, 
2131.00, 
2132.00, 
2133.00, 
2134.00, 
2135.00, 
2136.00, 
2137.00, 
2138.00, 
2139.00, 
2140.00, 
2141.00, 
2142.00, 
2143.00, 
2144.00, 
2145.00, 
2146.00, 
2147.00, 
2148.00, 
2149.00, 
2150.00, 
2151.00, 
2152.00, 
2153.00, 
2154.00, 
2155.00, 
2156.00, 
2157.00, 
2158.00, 
2159.00, 
2160.00, 
2161.00, 
2162.00, 
2163.00, 
2164.00, 
2165.00, 
2166.00, 
2167.00, 
2168.00, 
2169.00, 
2170.00, 
2171.00, 
2172.00, 
2173.00, 
2174.00, 
2175.00, 
2176.00, 
2177.00, 
2178.00, 
2179.00, 
2180.00, 
2181.00, 
2182.00, 
2183.00, 
2184.00, 
2185.00, 
2186.00, 
2187.00, 
2188.00, 
2189.00, 
2190.00, 
2191.00, 
2192.00, 
2193.00, 
2194.00, 
2195.00, 
2196.00, 
2197.00, 
2198.00, 
2199.00, 
2200.00, 
2201.00, 
2202.00, 
2203.00, 
2204.00, 
2205.00, 
2206.00, 
2207.00, 
2208.00, 
2209.00, 
2210.00, 
2211.00, 
2212.00, 
2213.00, 
2214.00, 
2215.00, 
2216.00, 
2217.00, 
2218.00, 
2219.00, 
2220.00, 
2221.00, 
2222.00, 
2223.00, 
2224.00, 
2225.00, 
2226.00, 
2227.00, 
2228.00, 
2229.00, 
2230.00, 
2231.00, 
2232.00, 
2233.00, 
2234.00, 
2235.00, 
2236.00, 
2237.00, 
2238.00, 
2239.00, 
2240.00, 
2241.00, 
2242.00, 
2243.00, 
2244.00, 
2245.00, 
2246.00, 
2247.00, 
2248.00, 
2249.00, 
2250.00, 
2251.00, 
2252.00, 
2253.00, 
2254.00, 
2255.00, 
2256.00, 
2257.00, 
2258.00, 
2259.00, 
2260.00, 
2261.00, 
2262.00, 
2263.00, 
2264.00, 
2265.00, 
2266.00, 
2267.00, 
2268.00, 
2269.00, 
2270.00, 
2271.00, 
2272.00, 
2273.00, 
2274.00, 
2275.00, 
2276.00, 
2277.00, 
2278.00, 
2279.00, 
2280.00, 
2281.00, 
2282.00, 
2283.00, 
2284.00, 
2285.00, 
2286.00, 
2287.00, 
2288.00, 
2289.00, 
2290.00, 
2291.00, 
2292.00, 
2293.00, 
2294.00, 
2295.00, 
2296.00, 
2297.00, 
2298.00, 
2299.00, 
2300.00, 
2301.00, 
2302.00, 
2303.00, 
2304.00, 
2305.00, 
2306.00, 
2307.00, 
2308.00, 
2309.00, 
2310.00, 
2311.00, 
2312.00, 
2313.00, 
2314.00, 
2315.00, 
2316.00, 
2317.00, 
2318.00, 
2319.00, 
2320.00, 
2321.00, 
2322.00, 
2323.00, 
2324.00, 
2325.00, 
2326.00, 
2327.00, 
2328.00, 
2329.00, 
2330.00, 
2331.00, 
2332.00, 
2333.00, 
2334.00, 
2335.00, 
2336.00, 
2337.00, 
2338.00, 
2339.00, 
2340.00, 
2341.00, 
2342.00, 
2343.00, 
2344.00, 
2345.00, 
2346.00, 
2347.00, 
2348.00, 
2349.00, 
2350.00, 
2351.00, 
2352.00, 
2353.00, 
2354.00, 
2355.00, 
2356.00, 
2357.00, 
2358.00, 
2359.00, 
2360.00, 
2361.00, 
2362.00, 
2363.00, 
2364.00, 
2365.00, 
2366.00, 
2367.00, 
2368.00, 
2369.00, 
2370.00, 
2371.00, 
2372.00, 
2373.00, 
2374.00, 
2375.00, 
2376.00, 
2377.00, 
2378.00, 
2379.00, 
2380.00, 
2381.00, 
2382.00, 
2383.00, 
2384.00, 
2385.00, 
2386.00, 
2387.00, 
2388.00, 
2389.00, 
2390.00, 
2391.00, 
2392.00, 
2393.00, 
2394.00, 
2395.00, 
2396.00, 
2397.00, 
2398.00, 
2399.00, 
2400.00, 
2401.00, 
2402.00, 
2403.00, 
2404.00, 
2405.00, 
2406.00, 
2407.00, 
2408.00, 
2409.00, 
2410.00, 
2411.00, 
2412.00, 
2413.00, 
2414.00, 
2415.00, 
2416.00, 
2417.00, 
2418.00, 
2419.00, 
2420.00, 
2421.00, 
2422.00, 
2423.00, 
2424.00, 
2425.00, 
2426.00, 
2427.00, 
2428.00, 
2429.00, 
2430.00, 
2431.00, 
2432.00, 
2433.00, 
2434.00, 
2435.00, 
2436.00, 
2437.00, 
2438.00, 
2439.00, 
2440.00, 
2441.00, 
2442.00, 
2443.00, 
2444.00, 
2445.00, 
2446.00, 
2447.00, 
2448.00, 
2449.00, 
2450.00, 
2451.00, 
2452.00, 
2453.00, 
2454.00, 
2455.00, 
2456.00, 
2457.00, 
2458.00, 
2459.00, 
2460.00, 
2461.00, 
2462.00, 
2463.00, 
2464.00, 
2465.00, 
2466.00, 
2467.00, 
2468.00, 
2469.00, 
2470.00, 
2471.00, 
2472.00, 
2473.00, 
2474.00, 
2475.00, 
2476.00, 
2477.00, 
2478.00, 
2479.00, 
2480.00, 
2481.00, 
2482.00, 
2483.00, 
2484.00, 
2485.00, 
2486.00, 
2487.00, 
2488.00, 
2489.00, 
2490.00, 
2491.00, 
2492.00, 
2493.00, 
2494.00, 
2495.00, 
2496.00, 
2497.00, 
2498.00, 
2499.00, 
2500.00, 
2501.00, 
2502.00, 
2503.00, 
2504.00, 
2505.00, 
2506.00, 
2507.00, 
2508.00, 
2509.00, 
2510.00, 
2511.00, 
2512.00, 
2513.00, 
2514.00, 
2515.00, 
2516.00, 
2517.00, 
2518.00, 
2519.00, 
2520.00, 
2521.00, 
2522.00, 
2523.00, 
2524.00, 
2525.00, 
2526.00, 
2527.00, 
2528.00, 
2529.00, 
2530.00, 
2531.00, 
2532.00, 
2533.00, 
2534.00, 
2535.00, 
2536.00, 
2537.00, 
2538.00, 
2539.00, 
2540.00, 
2541.00, 
2542.00, 
2543.00, 
2544.00, 
2545.00, 
2546.00, 
2547.00, 
2548.00, 
2549.00, 
2550.00, 
2551.00, 
2552.00, 
2553.00, 
2554.00, 
2555.00, 
2556.00, 
2557.00, 
2558.00, 
2559.00, 
2560.00, 
2561.00, 
2562.00, 
2563.00, 
2564.00, 
2565.00, 
2566.00, 
2567.00, 
2568.00, 
2569.00, 
2570.00, 
2571.00, 
2572.00, 
2573.00, 
2574.00, 
2575.00, 
2576.00, 
2577.00, 
2578.00, 
2579.00, 
2580.00, 
2581.00, 
2582.00, 
2583.00, 
2584.00, 
2585.00, 
2586.00, 
2587.00, 
2588.00, 
2589.00, 
2590.00, 
2591.00, 
2592.00, 
2593.00, 
2594.00, 
2595.00, 
2596.00, 
2597.00, 
2598.00, 
2599.00, 
2600.00, 
