"2cP1 - RawData"
"Wavelength nm.","T%"
200.00,0.002
201.00,-0.000
202.00,0.000
203.00,0.002
204.00,0.001
205.00,0.001
206.00,0.001
207.00,0.003
208.00,-0.001
209.00,0.002
210.00,0.002
211.00,-0.000
212.00,0.001
213.00,0.001
214.00,0.001
215.00,0.003
216.00,0.001
217.00,0.000
218.00,0.003
219.00,0.000
220.00,0.000
221.00,0.003
222.00,0.003
223.00,0.001
224.00,0.000
225.00,-0.002
226.00,-0.002
227.00,0.001
228.00,0.000
229.00,0.002
230.00,-0.001
231.00,-0.001
232.00,0.002
233.00,0.000
234.00,-0.001
235.00,0.002
236.00,-0.001
237.00,-0.001
238.00,0.002
239.00,-0.000
240.00,0.001
241.00,0.001
242.00,0.002
243.00,0.000
244.00,0.001
245.00,-0.002
246.00,0.001
247.00,-0.000
248.00,0.001
249.00,0.000
250.00,0.001
251.00,0.002
252.00,0.000
253.00,0.000
254.00,0.001
255.00,0.000
256.00,-0.000
257.00,0.000
258.00,0.000
259.00,0.001
260.00,0.002
261.00,0.002
262.00,0.001
263.00,0.003
264.00,-0.001
265.00,-0.000
266.00,-0.001
267.00,0.000
268.00,0.001
269.00,-0.000
270.00,0.002
271.00,0.002
272.00,0.000
273.00,0.000
274.00,-0.000
275.00,0.000
276.00,-0.000
277.00,0.000
278.00,0.001
279.00,-0.001
280.00,-0.000
281.00,-0.001
282.00,0.001
283.00,0.001
284.00,0.001
285.00,0.000
286.00,0.000
287.00,0.000
288.00,0.001
289.00,0.000
290.00,0.000
291.00,-0.002
292.00,0.001
293.00,0.001
294.00,-0.001
295.00,0.001
296.00,0.001
297.00,0.001
298.00,-0.000
299.00,0.001
300.00,0.004
301.00,0.004
302.00,0.007
303.00,0.009
304.00,0.012
305.00,0.022
306.00,0.031
307.00,0.047
308.00,0.073
309.00,0.115
310.00,0.161
311.00,0.214
312.00,0.292
313.00,0.404
314.00,0.534
315.00,0.703
316.00,0.853
317.00,1.123
318.00,1.375
319.00,1.693
320.00,2.070
321.00,2.487
322.00,2.954
323.00,3.446
324.00,4.014
325.00,4.583
326.00,5.180
327.00,5.847
328.00,6.548
329.00,7.232
330.00,7.989
331.00,8.727
332.00,9.506
333.00,10.318
334.00,11.055
335.00,11.883
336.00,12.630
337.00,13.404
338.00,14.158
339.00,14.904
340.00,15.645
341.00,16.361
342.00,17.024
343.00,17.704
344.00,18.308
345.00,18.863
346.00,19.413
347.00,19.973
348.00,20.523
349.00,21.025
350.00,21.500
351.00,21.858
352.00,22.317
353.00,22.656
354.00,23.034
355.00,23.357
356.00,23.650
357.00,23.952
358.00,24.247
359.00,24.539
360.00,24.755
361.00,25.003
362.00,25.243
363.00,25.386
364.00,25.601
365.00,25.795
366.00,25.872
367.00,25.990
368.00,26.068
369.00,26.164
370.00,26.209
371.00,26.304
372.00,26.307
373.00,26.366
374.00,26.375
375.00,26.357
376.00,26.369
377.00,26.334
378.00,26.303
379.00,26.254
380.00,26.245
381.00,26.230
382.00,26.265
383.00,26.305
384.00,26.340
385.00,26.416
386.00,26.429
387.00,26.560
388.00,26.564
389.00,26.606
390.00,26.694
391.00,26.651
392.00,26.743
393.00,26.693
394.00,26.830
395.00,26.873
396.00,26.886
397.00,26.907
398.00,26.921
399.00,26.931
400.00,26.943
401.00,26.960
402.00,26.946
403.00,26.982
404.00,26.958
405.00,26.979
406.00,26.994
407.00,26.915
408.00,26.915
409.00,26.878
410.00,26.844
411.00,26.844
412.00,26.822
413.00,26.839
414.00,26.849
415.00,26.832
416.00,26.871
417.00,26.837
418.00,26.888
419.00,26.919
420.00,26.936
421.00,27.034
422.00,27.025
423.00,27.080
424.00,27.144
425.00,27.141
426.00,27.151
427.00,27.215
428.00,27.264
429.00,27.304
430.00,27.349
431.00,27.371
432.00,27.420
433.00,27.464
434.00,27.528
435.00,27.606
436.00,27.628
437.00,27.710
438.00,27.779
439.00,27.831
440.00,27.883
441.00,27.948
442.00,28.040
443.00,28.114
444.00,28.197
445.00,28.283
446.00,28.330
447.00,28.446
448.00,28.531
449.00,28.653
450.00,28.757
451.00,28.831
452.00,28.823
453.00,29.016
454.00,29.113
455.00,29.239
456.00,29.344
457.00,29.454
458.00,29.517
459.00,29.621
460.00,29.747
461.00,29.871
462.00,29.956
463.00,30.087
464.00,30.211
465.00,30.330
466.00,30.399
467.00,30.516
468.00,30.606
469.00,30.712
470.00,30.815
471.00,30.934
472.00,31.029
473.00,31.070
474.00,31.171
475.00,31.320
476.00,31.364
477.00,31.500
478.00,31.597
479.00,31.723
480.00,31.876
481.00,31.998
482.00,32.159
483.00,32.270
484.00,32.400
485.00,32.577
486.00,32.666
487.00,32.820
488.00,32.894
489.00,33.068
490.00,33.187
491.00,33.330
492.00,33.488
493.00,33.557
494.00,33.513
495.00,33.800
496.00,33.860
497.00,33.978
498.00,34.077
499.00,34.245
500.00,34.316
501.00,34.450
502.00,34.599
503.00,34.668
504.00,34.786
505.00,34.935
506.00,35.037
507.00,35.086
508.00,35.184
509.00,35.277
510.00,35.452
511.00,35.524
512.00,35.672
513.00,35.812
514.00,35.878
515.00,35.949
516.00,36.087
517.00,36.197
518.00,36.245
519.00,36.374
520.00,36.440
521.00,36.464
522.00,36.552
523.00,36.610
524.00,36.658
525.00,36.850
526.00,36.902
527.00,37.011
528.00,37.085
529.00,37.155
530.00,37.232
531.00,37.385
532.00,37.481
533.00,37.592
534.00,37.679
535.00,37.751
536.00,37.849
537.00,37.885
538.00,37.991
539.00,38.021
540.00,38.124
541.00,38.161
542.00,38.234
543.00,38.270
544.00,38.362
545.00,38.412
546.00,38.457
547.00,38.556
548.00,38.652
549.00,38.691
550.00,38.709
551.00,38.828
552.00,38.825
553.00,38.856
554.00,39.066
555.00,39.127
556.00,39.172
557.00,39.224
558.00,39.285
559.00,39.306
560.00,39.449
561.00,39.438
562.00,39.457
563.00,39.548
564.00,39.557
565.00,39.620
566.00,39.582
567.00,39.679
568.00,39.699
569.00,39.741
570.00,39.777
571.00,39.823
572.00,39.885
573.00,39.904
574.00,39.937
575.00,40.003
576.00,40.003
577.00,40.074
578.00,40.148
579.00,40.162
580.00,40.276
581.00,40.366
582.00,40.437
583.00,40.488
584.00,40.597
585.00,40.644
586.00,40.701
587.00,40.744
588.00,40.805
589.00,40.831
590.00,40.888
591.00,40.937
592.00,40.925
593.00,41.009
594.00,41.071
595.00,41.076
596.00,41.172
597.00,41.187
598.00,41.359
599.00,41.331
600.00,41.340
601.00,41.383
602.00,41.420
603.00,41.415
604.00,41.449
605.00,41.518
606.00,41.569
607.00,41.631
608.00,41.565
609.00,41.668
610.00,41.552
611.00,41.739
612.00,41.825
613.00,41.776
614.00,41.861
615.00,41.901
616.00,41.951
617.00,42.029
618.00,42.019
619.00,42.014
620.00,42.110
621.00,42.162
622.00,42.171
623.00,42.234
624.00,42.265
625.00,42.312
626.00,42.413
627.00,42.450
628.00,42.495
629.00,42.605
630.00,42.604
631.00,42.660
632.00,42.678
633.00,42.797
634.00,42.843
635.00,42.942
636.00,43.007
637.00,43.008
638.00,43.121
639.00,43.182
640.00,43.191
641.00,43.178
642.00,43.320
643.00,43.307
644.00,43.323
645.00,43.481
646.00,43.511
647.00,43.519
648.00,43.578
649.00,43.632
650.00,43.662
651.00,43.787
652.00,43.872
653.00,43.892
654.00,44.066
655.00,44.083
656.00,44.164
657.00,44.290
658.00,44.302
659.00,44.267
660.00,44.275
661.00,44.392
662.00,44.657
663.00,44.619
664.00,44.685
665.00,44.738
666.00,44.830
667.00,44.901
668.00,44.953
669.00,45.008
670.00,45.109
671.00,45.074
672.00,45.098
673.00,45.262
674.00,45.296
675.00,45.424
676.00,45.552
677.00,45.519
678.00,45.569
679.00,45.688
680.00,45.755
681.00,45.812
682.00,45.885
683.00,46.032
684.00,45.992
685.00,46.009
686.00,46.160
687.00,46.219
688.00,46.216
689.00,46.274
690.00,46.374
691.00,46.460
692.00,46.494
693.00,46.515
694.00,46.571
695.00,46.605
696.00,46.684
697.00,46.800
698.00,46.812
699.00,46.921
700.00,47.148
701.00,47.067
702.00,47.150
703.00,47.189
704.00,47.118
705.00,47.273
706.00,47.308
707.00,47.443
708.00,47.277
709.00,47.415
710.00,47.677
711.00,47.379
712.00,47.492
713.00,47.657
714.00,47.579
715.00,47.707
716.00,47.808
717.00,47.847
718.00,47.832
719.00,47.918
720.00,47.942
721.00,52.182
722.00,52.179
723.00,52.107
724.00,52.102
725.00,52.183
726.00,52.142
727.00,52.142
728.00,52.096
729.00,52.123
730.00,52.152
731.00,52.155
732.00,52.123
733.00,52.115
734.00,52.202
735.00,52.252
736.00,52.252
737.00,52.280
738.00,52.279
739.00,52.289
740.00,52.281
741.00,52.298
742.00,52.325
743.00,52.323
744.00,52.310
745.00,52.180
746.00,52.216
747.00,52.223
748.00,52.182
749.00,52.183
750.00,52.156
751.00,52.181
752.00,52.153
753.00,52.096
754.00,52.206
755.00,52.201
756.00,52.166
757.00,52.129
758.00,52.162
759.00,52.156
760.00,52.210
761.00,52.106
762.00,52.153
763.00,52.115
764.00,52.091
765.00,52.118
766.00,52.132
767.00,52.155
768.00,52.116
769.00,52.199
770.00,52.202
771.00,52.150
772.00,52.093
773.00,52.169
774.00,52.120
775.00,52.184
776.00,52.146
777.00,52.107
778.00,52.070
779.00,52.075
780.00,52.139
781.00,52.072
782.00,52.131
783.00,52.092
784.00,52.040
785.00,52.031
786.00,52.045
787.00,52.046
788.00,51.948
789.00,51.995
790.00,51.894
791.00,51.908
792.00,51.991
793.00,51.862
794.00,51.857
795.00,51.816
796.00,51.872
797.00,51.840
798.00,51.853
799.00,51.863
800.00,51.700
801.00,51.710
802.00,51.723
803.00,51.767
804.00,51.718
805.00,51.727
806.00,51.675
807.00,51.615
808.00,51.544
809.00,51.616
810.00,51.580
811.00,51.584
812.00,51.541
813.00,51.529
814.00,51.548
815.00,51.457
816.00,51.514
817.00,51.330
818.00,51.400
819.00,51.355
820.00,51.363
821.00,51.394
822.00,51.397
823.00,51.292
824.00,51.421
825.00,51.253
826.00,51.279
827.00,51.384
828.00,51.196
829.00,51.182
830.00,51.329
831.00,53.776
832.00,53.799
833.00,53.722
834.00,53.741
835.00,53.698
836.00,53.685
837.00,53.663
838.00,53.627
839.00,53.639
840.00,53.545
841.00,53.593
842.00,53.523
843.00,53.508
844.00,53.555
845.00,53.478
846.00,53.511
847.00,53.483
848.00,53.426
849.00,53.381
850.00,53.337
851.00,53.293
852.00,53.306
853.00,53.207
854.00,53.208
855.00,53.196
856.00,53.132
857.00,53.107
858.00,53.100
859.00,53.048
860.00,53.074
861.00,53.024
862.00,53.007
863.00,53.027
864.00,52.973
865.00,53.000
866.00,52.927
867.00,52.931
868.00,52.932
869.00,52.925
870.00,52.897
871.00,52.910
872.00,52.888
873.00,52.840
874.00,52.834
875.00,52.832
876.00,52.790
877.00,52.806
878.00,52.775
879.00,52.786
880.00,52.780
881.00,52.721
882.00,52.746
883.00,52.698
884.00,52.694
885.00,52.615
886.00,52.687
887.00,52.612
888.00,52.588
889.00,52.543
890.00,52.557
891.00,52.514
892.00,52.496
893.00,52.480
894.00,52.466
895.00,52.439
896.00,52.420
897.00,52.380
898.00,52.362
899.00,52.349
900.00,52.343
901.00,52.514
902.00,52.314
903.00,52.287
904.00,52.310
905.00,52.259
906.00,52.237
907.00,52.216
908.00,52.205
909.00,52.183
910.00,52.153
911.00,52.153
912.00,52.154
913.00,52.085
914.00,52.055
915.00,52.084
916.00,51.989
917.00,52.002
918.00,51.997
919.00,51.978
920.00,51.952
921.00,51.941
922.00,51.921
923.00,51.904
924.00,51.871
925.00,51.828
926.00,51.845
927.00,51.839
928.00,51.815
929.00,51.785
930.00,51.763
931.00,51.763
932.00,51.717
933.00,51.720
934.00,51.710
935.00,51.687
936.00,51.622
937.00,51.603
938.00,51.608
939.00,51.608
940.00,51.589
941.00,51.560
942.00,51.652
943.00,51.545
944.00,51.480
945.00,51.470
946.00,51.489
947.00,51.484
948.00,51.425
949.00,51.389
950.00,51.373
951.00,51.377
952.00,51.332
953.00,51.308
954.00,51.314
955.00,51.275
956.00,51.268
957.00,51.193
958.00,51.211
959.00,51.172
960.00,51.168
961.00,51.132
962.00,51.160
963.00,51.088
964.00,51.094
965.00,51.063
966.00,51.053
967.00,51.060
968.00,51.033
969.00,51.055
970.00,51.038
971.00,51.039
972.00,51.005
973.00,51.048
974.00,51.060
975.00,51.020
976.00,51.043
977.00,51.014
978.00,51.064
979.00,51.019
980.00,51.039
981.00,51.029
982.00,51.014
983.00,51.009
984.00,51.013
985.00,51.023
986.00,50.971
987.00,51.012
988.00,50.984
989.00,50.966
990.00,50.964
991.00,50.942
992.00,50.971
993.00,50.911
994.00,50.908
995.00,50.907
996.00,50.881
997.00,50.868
998.00,50.842
999.00,50.869
1000.00,50.830
1001.00,50.841
1002.00,50.814
1003.00,50.817
1004.00,50.795
1005.00,50.770
1006.00,50.790
1007.00,50.743
1008.00,50.734
1009.00,50.715
1010.00,50.701
1011.00,50.696
1012.00,50.661
1013.00,50.671
1014.00,50.630
1015.00,50.641
1016.00,50.593
1017.00,50.603
1018.00,50.581
1019.00,50.555
1020.00,50.553
1021.00,50.524
1022.00,50.525
1023.00,50.483
1024.00,50.492
1025.00,50.486
1026.00,50.468
1027.00,50.434
1028.00,50.425
1029.00,50.406
1030.00,50.390
1031.00,50.395
1032.00,50.336
1033.00,50.354
1034.00,50.331
1035.00,50.292
1036.00,50.292
1037.00,50.258
1038.00,50.229
1039.00,50.205
1040.00,50.203
1041.00,50.149
1042.00,50.159
1043.00,50.128
1044.00,50.167
1045.00,50.155
1046.00,50.144
1047.00,50.164
1048.00,50.180
1049.00,50.177
1050.00,50.198
1051.00,50.197
1052.00,50.201
1053.00,50.217
1054.00,50.201
1055.00,50.228
1056.00,50.233
1057.00,50.247
1058.00,50.235
1059.00,50.238
1060.00,50.225
1061.00,50.225
1062.00,50.203
1063.00,50.215
1064.00,50.198
1065.00,50.190
1066.00,50.176
1067.00,50.163
1068.00,50.170
1069.00,50.154
1070.00,50.134
1071.00,50.111
1072.00,50.128
1073.00,50.106
1074.00,50.100
1075.00,50.090
1076.00,50.075
1077.00,50.067
1078.00,50.061
1079.00,50.035
1080.00,50.054
1081.00,50.031
1082.00,50.022
1083.00,50.016
1084.00,49.998
1085.00,49.989
1086.00,49.992
1087.00,49.980
1088.00,49.971
1089.00,49.955
1090.00,49.959
1091.00,49.952
1092.00,49.944
1093.00,49.918
1094.00,49.931
1095.00,49.906
1096.00,49.887
1097.00,49.885
1098.00,49.867
1099.00,49.854
1100.00,49.846
1101.00,49.819
1102.00,49.842
1103.00,49.825
1104.00,49.814
1105.00,49.799
1106.00,49.798
1107.00,49.780
1108.00,49.778
1109.00,49.784
1110.00,49.791
1111.00,49.773
1112.00,49.748
1113.00,49.736
1114.00,49.731
1115.00,49.719
1116.00,49.728
1117.00,49.696
1118.00,49.694
1119.00,49.676
1120.00,49.687
1121.00,49.691
1122.00,49.668
1123.00,49.662
1124.00,49.673
1125.00,49.655
1126.00,49.643
1127.00,49.646
1128.00,49.620
1129.00,49.601
1130.00,49.607
1131.00,49.577
1132.00,49.593
1133.00,49.582
1134.00,49.557
1135.00,49.645
1136.00,49.578
1137.00,49.560
1138.00,49.564
1139.00,49.559
1140.00,49.546
1141.00,49.539
1142.00,49.537
1143.00,49.541
1144.00,49.519
1145.00,49.507
1146.00,49.529
1147.00,49.513
1148.00,49.491
1149.00,49.507
1150.00,49.499
1151.00,49.500
1152.00,49.495
1153.00,49.489
1154.00,49.486
1155.00,49.498
1156.00,49.506
1157.00,49.486
1158.00,49.484
1159.00,49.464
1160.00,49.471
1161.00,49.465
1162.00,49.450
1163.00,49.467
1164.00,49.447
1165.00,49.447
1166.00,49.453
1167.00,49.448
1168.00,49.460
1169.00,49.445
1170.00,49.465
1171.00,49.455
1172.00,49.425
1173.00,49.432
1174.00,49.436
1175.00,49.422
1176.00,49.429
1177.00,49.423
1178.00,49.418
1179.00,49.430
1180.00,49.423
1181.00,49.420
1182.00,49.434
1183.00,49.427
1184.00,49.427
1185.00,49.431
1186.00,49.397
1187.00,49.398
1188.00,49.391
1189.00,49.392
1190.00,49.395
1191.00,49.392
1192.00,49.385
1193.00,49.394
1194.00,49.393
1195.00,49.362
1196.00,49.397
1197.00,49.381
1198.00,49.378
1199.00,49.371
1200.00,49.368
1201.00,49.385
1202.00,49.362
1203.00,49.362
1204.00,49.349
1205.00,49.359
1206.00,49.343
1207.00,49.360
1208.00,49.334
1209.00,49.335
1210.00,49.343
1211.00,49.343
1212.00,49.370
1213.00,49.329
1214.00,49.350
1215.00,49.343
1216.00,49.344
1217.00,49.350
1218.00,49.339
1219.00,49.348
1220.00,49.329
1221.00,49.342
1222.00,49.333
1223.00,49.359
1224.00,49.358
1225.00,49.337
1226.00,49.352
1227.00,49.348
1228.00,49.343
1229.00,49.381
1230.00,49.389
1231.00,49.378
1232.00,49.399
1233.00,49.393
1234.00,49.402
1235.00,49.390
1236.00,49.385
1237.00,49.386
1238.00,49.380
1239.00,49.379
1240.00,49.389
1241.00,49.380
1242.00,49.379
1243.00,49.407
1244.00,49.375
1245.00,49.413
1246.00,49.414
1247.00,49.409
1248.00,49.414
1249.00,49.401
1250.00,49.405
1251.00,49.408
1252.00,49.420
1253.00,49.408
1254.00,49.434
1255.00,49.435
1256.00,49.405
1257.00,49.396
1258.00,49.451
1259.00,49.448
1260.00,49.447
1261.00,49.447
1262.00,49.450
1263.00,49.432
1264.00,49.460
1265.00,49.454
1266.00,49.448
1267.00,49.451
1268.00,49.486
1269.00,49.458
1270.00,49.474
1271.00,49.471
1272.00,49.481
1273.00,49.490
1274.00,49.473
1275.00,49.485
1276.00,49.494
1277.00,49.490
1278.00,49.518
1279.00,49.499
1280.00,49.500
1281.00,49.510
1282.00,49.520
1283.00,49.498
1284.00,49.505
1285.00,49.489
1286.00,49.504
1287.00,49.509
1288.00,49.511
1289.00,49.521
1290.00,49.539
1291.00,49.544
1292.00,49.578
1293.00,49.554
1294.00,49.547
1295.00,49.561
1296.00,49.556
1297.00,49.571
1298.00,49.582
1299.00,49.568
1300.00,49.579
1301.00,49.586
1302.00,49.578
1303.00,49.611
1304.00,49.582
1305.00,49.615
1306.00,49.627
1307.00,49.618
1308.00,49.629
1309.00,49.622
1310.00,49.639
1311.00,49.629
1312.00,49.635
1313.00,49.626
1314.00,49.646
1315.00,49.659
1316.00,49.654
1317.00,49.667
1318.00,49.658
1319.00,49.660
1320.00,49.692
1321.00,49.841
1322.00,49.859
1323.00,49.839
1324.00,49.825
1325.00,49.824
1326.00,49.842
1327.00,49.831
1328.00,49.834
1329.00,49.817
1330.00,49.840
1331.00,49.839
1332.00,49.818
1333.00,49.844
1334.00,49.875
1335.00,49.879
1336.00,49.921
1337.00,49.936
1338.00,50.009
1339.00,50.064
1340.00,50.111
1341.00,50.185
1342.00,50.252
1343.00,50.282
1344.00,50.345
1345.00,50.398
1346.00,50.434
1347.00,50.450
1348.00,50.460
1349.00,50.484
1350.00,50.507
1351.00,50.513
1352.00,50.524
1353.00,50.550
1354.00,50.525
1355.00,50.505
1356.00,50.527
1357.00,50.540
1358.00,50.592
1359.00,50.620
1360.00,50.646
1361.00,50.517
1362.00,50.551
1363.00,50.562
1364.00,50.571
1365.00,50.557
1366.00,50.575
1367.00,50.511
1368.00,50.484
1369.00,50.533
1370.00,50.518
1371.00,50.452
1372.00,50.515
1373.00,50.518
1374.00,50.547
1375.00,50.535
1376.00,50.500
1377.00,50.517
1378.00,50.596
1379.00,50.520
1380.00,50.505
1381.00,50.492
1382.00,50.187
1383.00,50.566
1384.00,50.480
1385.00,50.468
1386.00,50.520
1387.00,50.434
1388.00,50.470
1389.00,50.486
1390.00,50.546
1391.00,50.471
1392.00,50.521
1393.00,50.611
1394.00,50.455
1395.00,50.488
1396.00,50.474
1397.00,50.533
1398.00,50.539
1399.00,50.422
1400.00,50.446
1401.00,50.477
1402.00,50.581
1403.00,50.480
1404.00,50.481
1405.00,50.546
1406.00,50.512
1407.00,50.563
1408.00,50.588
1409.00,50.508
1410.00,50.558
1411.00,50.549
1412.00,50.580
1413.00,50.488
1414.00,50.535
1415.00,50.587
1416.00,50.623
1417.00,50.622
1418.00,50.584
1419.00,50.609
1420.00,50.620
1421.00,50.676
1422.00,50.658
1423.00,50.645
1424.00,50.695
1425.00,50.675
1426.00,50.703
1427.00,50.719
1428.00,50.718
1429.00,50.749
1430.00,50.763
1431.00,50.755
1432.00,50.787
1433.00,50.804
1434.00,50.792
1435.00,50.852
1436.00,50.826
1437.00,50.839
1438.00,50.870
1439.00,50.895
1440.00,50.905
1441.00,50.916
1442.00,50.903
1443.00,50.978
1444.00,51.001
1445.00,50.947
1446.00,50.976
1447.00,51.004
1448.00,51.035
1449.00,51.048
1450.00,51.011
1451.00,51.037
1452.00,51.062
1453.00,51.074
1454.00,51.090
1455.00,51.111
1456.00,51.097
1457.00,51.150
1458.00,51.141
1459.00,51.167
1460.00,51.173
1461.00,51.180
1462.00,51.202
1463.00,51.235
1464.00,51.223
1465.00,51.232
1466.00,51.232
1467.00,51.259
1468.00,51.299
1469.00,51.286
1470.00,51.304
1471.00,51.329
1472.00,51.320
1473.00,51.342
1474.00,51.370
1475.00,51.354
1476.00,51.392
1477.00,51.394
1478.00,51.402
1479.00,51.433
1480.00,51.437
1481.00,51.432
1482.00,51.473
1483.00,51.466
1484.00,51.481
1485.00,51.489
1486.00,51.467
1487.00,51.504
1488.00,51.507
1489.00,51.517
1490.00,51.551
1491.00,51.542
1492.00,51.560
1493.00,51.571
1494.00,51.588
1495.00,51.593
1496.00,51.599
1497.00,51.587
1498.00,51.607
1499.00,51.630
1500.00,51.649
1501.00, 
1502.00, 
1503.00, 
1504.00, 
1505.00, 
1506.00, 
1507.00, 
1508.00, 
1509.00, 
1510.00, 
1511.00, 
1512.00, 
1513.00, 
1514.00, 
1515.00, 
1516.00, 
1517.00, 
1518.00, 
1519.00, 
1520.00, 
1521.00, 
1522.00, 
1523.00, 
1524.00, 
1525.00, 
1526.00, 
1527.00, 
1528.00, 
1529.00, 
1530.00, 
1531.00, 
1532.00, 
1533.00, 
1534.00, 
1535.00, 
1536.00, 
1537.00, 
1538.00, 
1539.00, 
1540.00, 
1541.00, 
1542.00, 
1543.00, 
1544.00, 
1545.00, 
1546.00, 
1547.00, 
1548.00, 
1549.00, 
1550.00, 
1551.00, 
1552.00, 
1553.00, 
1554.00, 
1555.00, 
1556.00, 
1557.00, 
1558.00, 
1559.00, 
1560.00, 
1561.00, 
1562.00, 
1563.00, 
1564.00, 
1565.00, 
1566.00, 
1567.00, 
1568.00, 
1569.00, 
1570.00, 
1571.00, 
1572.00, 
1573.00, 
1574.00, 
1575.00, 
1576.00, 
1577.00, 
1578.00, 
1579.00, 
1580.00, 
1581.00, 
1582.00, 
1583.00, 
1584.00, 
1585.00, 
1586.00, 
1587.00, 
1588.00, 
1589.00, 
1590.00, 
1591.00, 
1592.00, 
1593.00, 
1594.00, 
1595.00, 
1596.00, 
1597.00, 
1598.00, 
1599.00, 
1600.00, 
1601.00, 
1602.00, 
1603.00, 
1604.00, 
1605.00, 
1606.00, 
1607.00, 
1608.00, 
1609.00, 
1610.00, 
1611.00, 
1612.00, 
1613.00, 
1614.00, 
1615.00, 
1616.00, 
1617.00, 
1618.00, 
1619.00, 
1620.00, 
1621.00, 
1622.00, 
1623.00, 
1624.00, 
1625.00, 
1626.00, 
1627.00, 
1628.00, 
1629.00, 
1630.00, 
1631.00, 
1632.00, 
1633.00, 
1634.00, 
1635.00, 
1636.00, 
1637.00, 
1638.00, 
1639.00, 
1640.00, 
1641.00, 
1642.00, 
1643.00, 
1644.00, 
1645.00, 
1646.00, 
1647.00, 
1648.00, 
1649.00, 
1650.00, 
1651.00, 
1652.00, 
1653.00, 
1654.00, 
1655.00, 
1656.00, 
1657.00, 
1658.00, 
1659.00, 
1660.00, 
1661.00, 
1662.00, 
1663.00, 
1664.00, 
1665.00, 
1666.00, 
1667.00, 
1668.00, 
1669.00, 
1670.00, 
1671.00, 
1672.00, 
1673.00, 
1674.00, 
1675.00, 
1676.00, 
1677.00, 
1678.00, 
1679.00, 
1680.00, 
1681.00, 
1682.00, 
1683.00, 
1684.00, 
1685.00, 
1686.00, 
1687.00, 
1688.00, 
1689.00, 
1690.00, 
1691.00, 
1692.00, 
1693.00, 
1694.00, 
1695.00, 
1696.00, 
1697.00, 
1698.00, 
1699.00, 
1700.00, 
1701.00, 
1702.00, 
1703.00, 
1704.00, 
1705.00, 
1706.00, 
1707.00, 
1708.00, 
1709.00, 
1710.00, 
1711.00, 
1712.00, 
1713.00, 
1714.00, 
1715.00, 
1716.00, 
1717.00, 
1718.00, 
1719.00, 
1720.00, 
1721.00, 
1722.00, 
1723.00, 
1724.00, 
1725.00, 
1726.00, 
1727.00, 
1728.00, 
1729.00, 
1730.00, 
1731.00, 
1732.00, 
1733.00, 
1734.00, 
1735.00, 
1736.00, 
1737.00, 
1738.00, 
1739.00, 
1740.00, 
1741.00, 
1742.00, 
1743.00, 
1744.00, 
1745.00, 
1746.00, 
1747.00, 
1748.00, 
1749.00, 
1750.00, 
1751.00, 
1752.00, 
1753.00, 
1754.00, 
1755.00, 
1756.00, 
1757.00, 
1758.00, 
1759.00, 
1760.00, 
1761.00, 
1762.00, 
1763.00, 
1764.00, 
1765.00, 
1766.00, 
1767.00, 
1768.00, 
1769.00, 
1770.00, 
1771.00, 
1772.00, 
1773.00, 
1774.00, 
1775.00, 
1776.00, 
1777.00, 
1778.00, 
1779.00, 
1780.00, 
1781.00, 
1782.00, 
1783.00, 
1784.00, 
1785.00, 
1786.00, 
1787.00, 
1788.00, 
1789.00, 
1790.00, 
1791.00, 
1792.00, 
1793.00, 
1794.00, 
1795.00, 
1796.00, 
1797.00, 
1798.00, 
1799.00, 
1800.00, 
1801.00, 
1802.00, 
1803.00, 
1804.00, 
1805.00, 
1806.00, 
1807.00, 
1808.00, 
1809.00, 
1810.00, 
1811.00, 
1812.00, 
1813.00, 
1814.00, 
1815.00, 
1816.00, 
1817.00, 
1818.00, 
1819.00, 
1820.00, 
1821.00, 
1822.00, 
1823.00, 
1824.00, 
1825.00, 
1826.00, 
1827.00, 
1828.00, 
1829.00, 
1830.00, 
1831.00, 
1832.00, 
1833.00, 
1834.00, 
1835.00, 
1836.00, 
1837.00, 
1838.00, 
1839.00, 
1840.00, 
1841.00, 
1842.00, 
1843.00, 
1844.00, 
1845.00, 
1846.00, 
1847.00, 
1848.00, 
1849.00, 
1850.00, 
1851.00, 
1852.00, 
1853.00, 
1854.00, 
1855.00, 
1856.00, 
1857.00, 
1858.00, 
1859.00, 
1860.00, 
1861.00, 
1862.00, 
1863.00, 
1864.00, 
1865.00, 
1866.00, 
1867.00, 
1868.00, 
1869.00, 
1870.00, 
1871.00, 
1872.00, 
1873.00, 
1874.00, 
1875.00, 
1876.00, 
1877.00, 
1878.00, 
1879.00, 
1880.00, 
1881.00, 
1882.00, 
1883.00, 
1884.00, 
1885.00, 
1886.00, 
1887.00, 
1888.00, 
1889.00, 
1890.00, 
1891.00, 
1892.00, 
1893.00, 
1894.00, 
1895.00, 
1896.00, 
1897.00, 
1898.00, 
1899.00, 
1900.00, 
1901.00, 
1902.00, 
1903.00, 
1904.00, 
1905.00, 
1906.00, 
1907.00, 
1908.00, 
1909.00, 
1910.00, 
1911.00, 
1912.00, 
1913.00, 
1914.00, 
1915.00, 
1916.00, 
1917.00, 
1918.00, 
1919.00, 
1920.00, 
1921.00, 
1922.00, 
1923.00, 
1924.00, 
1925.00, 
1926.00, 
1927.00, 
1928.00, 
1929.00, 
1930.00, 
1931.00, 
1932.00, 
1933.00, 
1934.00, 
1935.00, 
1936.00, 
1937.00, 
1938.00, 
1939.00, 
1940.00, 
1941.00, 
1942.00, 
1943.00, 
1944.00, 
1945.00, 
1946.00, 
1947.00, 
1948.00, 
1949.00, 
1950.00, 
1951.00, 
1952.00, 
1953.00, 
1954.00, 
1955.00, 
1956.00, 
1957.00, 
1958.00, 
1959.00, 
1960.00, 
1961.00, 
1962.00, 
1963.00, 
1964.00, 
1965.00, 
1966.00, 
1967.00, 
1968.00, 
1969.00, 
1970.00, 
1971.00, 
1972.00, 
1973.00, 
1974.00, 
1975.00, 
1976.00, 
1977.00, 
1978.00, 
1979.00, 
1980.00, 
1981.00, 
1982.00, 
1983.00, 
1984.00, 
1985.00, 
1986.00, 
1987.00, 
1988.00, 
1989.00, 
1990.00, 
1991.00, 
1992.00, 
1993.00, 
1994.00, 
1995.00, 
1996.00, 
1997.00, 
1998.00, 
1999.00, 
2000.00, 
2001.00, 
2002.00, 
2003.00, 
2004.00, 
2005.00, 
2006.00, 
2007.00, 
2008.00, 
2009.00, 
2010.00, 
2011.00, 
2012.00, 
2013.00, 
2014.00, 
2015.00, 
2016.00, 
2017.00, 
2018.00, 
2019.00, 
2020.00, 
2021.00, 
2022.00, 
2023.00, 
2024.00, 
2025.00, 
2026.00, 
2027.00, 
2028.00, 
2029.00, 
2030.00, 
2031.00, 
2032.00, 
2033.00, 
2034.00, 
2035.00, 
2036.00, 
2037.00, 
2038.00, 
2039.00, 
2040.00, 
2041.00, 
2042.00, 
2043.00, 
2044.00, 
2045.00, 
2046.00, 
2047.00, 
2048.00, 
2049.00, 
2050.00, 
2051.00, 
2052.00, 
2053.00, 
2054.00, 
2055.00, 
2056.00, 
2057.00, 
2058.00, 
2059.00, 
2060.00, 
2061.00, 
2062.00, 
2063.00, 
2064.00, 
2065.00, 
2066.00, 
2067.00, 
2068.00, 
2069.00, 
2070.00, 
2071.00, 
2072.00, 
2073.00, 
2074.00, 
2075.00, 
2076.00, 
2077.00, 
2078.00, 
2079.00, 
2080.00, 
2081.00, 
2082.00, 
2083.00, 
2084.00, 
2085.00, 
2086.00, 
2087.00, 
2088.00, 
2089.00, 
2090.00, 
2091.00, 
2092.00, 
2093.00, 
2094.00, 
2095.00, 
2096.00, 
2097.00, 
2098.00, 
2099.00, 
2100.00, 
2101.00, 
2102.00, 
2103.00, 
2104.00, 
2105.00, 
2106.00, 
2107.00, 
2108.00, 
2109.00, 
2110.00, 
2111.00, 
2112.00, 
2113.00, 
2114.00, 
2115.00, 
2116.00, 
2117.00, 
2118.00, 
2119.00, 
2120.00, 
2121.00, 
2122.00, 
2123.00, 
2124.00, 
2125.00, 
2126.00, 
2127.00, 
2128.00, 
2129.00, 
2130.00, 
2131.00, 
2132.00, 
2133.00, 
2134.00, 
2135.00, 
2136.00, 
2137.00, 
2138.00, 
2139.00, 
2140.00, 
2141.00, 
2142.00, 
2143.00, 
2144.00, 
2145.00, 
2146.00, 
2147.00, 
2148.00, 
2149.00, 
2150.00, 
2151.00, 
2152.00, 
2153.00, 
2154.00, 
2155.00, 
2156.00, 
2157.00, 
2158.00, 
2159.00, 
2160.00, 
2161.00, 
2162.00, 
2163.00, 
2164.00, 
2165.00, 
2166.00, 
2167.00, 
2168.00, 
2169.00, 
2170.00, 
2171.00, 
2172.00, 
2173.00, 
2174.00, 
2175.00, 
2176.00, 
2177.00, 
2178.00, 
2179.00, 
2180.00, 
2181.00, 
2182.00, 
2183.00, 
2184.00, 
2185.00, 
2186.00, 
2187.00, 
2188.00, 
2189.00, 
2190.00, 
2191.00, 
2192.00, 
2193.00, 
2194.00, 
2195.00, 
2196.00, 
2197.00, 
2198.00, 
2199.00, 
2200.00, 
2201.00, 
2202.00, 
2203.00, 
2204.00, 
2205.00, 
2206.00, 
2207.00, 
2208.00, 
2209.00, 
2210.00, 
2211.00, 
2212.00, 
2213.00, 
2214.00, 
2215.00, 
2216.00, 
2217.00, 
2218.00, 
2219.00, 
2220.00, 
2221.00, 
2222.00, 
2223.00, 
2224.00, 
2225.00, 
2226.00, 
2227.00, 
2228.00, 
2229.00, 
2230.00, 
2231.00, 
2232.00, 
2233.00, 
2234.00, 
2235.00, 
2236.00, 
2237.00, 
2238.00, 
2239.00, 
2240.00, 
2241.00, 
2242.00, 
2243.00, 
2244.00, 
2245.00, 
2246.00, 
2247.00, 
2248.00, 
2249.00, 
2250.00, 
2251.00, 
2252.00, 
2253.00, 
2254.00, 
2255.00, 
2256.00, 
2257.00, 
2258.00, 
2259.00, 
2260.00, 
2261.00, 
2262.00, 
2263.00, 
2264.00, 
2265.00, 
2266.00, 
2267.00, 
2268.00, 
2269.00, 
2270.00, 
2271.00, 
2272.00, 
2273.00, 
2274.00, 
2275.00, 
2276.00, 
2277.00, 
2278.00, 
2279.00, 
2280.00, 
2281.00, 
2282.00, 
2283.00, 
2284.00, 
2285.00, 
2286.00, 
2287.00, 
2288.00, 
2289.00, 
2290.00, 
2291.00, 
2292.00, 
2293.00, 
2294.00, 
2295.00, 
2296.00, 
2297.00, 
2298.00, 
2299.00, 
2300.00, 
2301.00, 
2302.00, 
2303.00, 
2304.00, 
2305.00, 
2306.00, 
2307.00, 
2308.00, 
2309.00, 
2310.00, 
2311.00, 
2312.00, 
2313.00, 
2314.00, 
2315.00, 
2316.00, 
2317.00, 
2318.00, 
2319.00, 
2320.00, 
2321.00, 
2322.00, 
2323.00, 
2324.00, 
2325.00, 
2326.00, 
2327.00, 
2328.00, 
2329.00, 
2330.00, 
2331.00, 
2332.00, 
2333.00, 
2334.00, 
2335.00, 
2336.00, 
2337.00, 
2338.00, 
2339.00, 
2340.00, 
2341.00, 
2342.00, 
2343.00, 
2344.00, 
2345.00, 
2346.00, 
2347.00, 
2348.00, 
2349.00, 
2350.00, 
2351.00, 
2352.00, 
2353.00, 
2354.00, 
2355.00, 
2356.00, 
2357.00, 
2358.00, 
2359.00, 
2360.00, 
2361.00, 
2362.00, 
2363.00, 
2364.00, 
2365.00, 
2366.00, 
2367.00, 
2368.00, 
2369.00, 
2370.00, 
2371.00, 
2372.00, 
2373.00, 
2374.00, 
2375.00, 
2376.00, 
2377.00, 
2378.00, 
2379.00, 
2380.00, 
2381.00, 
2382.00, 
2383.00, 
2384.00, 
2385.00, 
2386.00, 
2387.00, 
2388.00, 
2389.00, 
2390.00, 
2391.00, 
2392.00, 
2393.00, 
2394.00, 
2395.00, 
2396.00, 
2397.00, 
2398.00, 
2399.00, 
2400.00, 
2401.00, 
2402.00, 
2403.00, 
2404.00, 
2405.00, 
2406.00, 
2407.00, 
2408.00, 
2409.00, 
2410.00, 
2411.00, 
2412.00, 
2413.00, 
2414.00, 
2415.00, 
2416.00, 
2417.00, 
2418.00, 
2419.00, 
2420.00, 
2421.00, 
2422.00, 
2423.00, 
2424.00, 
2425.00, 
2426.00, 
2427.00, 
2428.00, 
2429.00, 
2430.00, 
2431.00, 
2432.00, 
2433.00, 
2434.00, 
2435.00, 
2436.00, 
2437.00, 
2438.00, 
2439.00, 
2440.00, 
2441.00, 
2442.00, 
2443.00, 
2444.00, 
2445.00, 
2446.00, 
2447.00, 
2448.00, 
2449.00, 
2450.00, 
2451.00, 
2452.00, 
2453.00, 
2454.00, 
2455.00, 
2456.00, 
2457.00, 
2458.00, 
2459.00, 
2460.00, 
2461.00, 
2462.00, 
2463.00, 
2464.00, 
2465.00, 
2466.00, 
2467.00, 
2468.00, 
2469.00, 
2470.00, 
2471.00, 
2472.00, 
2473.00, 
2474.00, 
2475.00, 
2476.00, 
2477.00, 
2478.00, 
2479.00, 
2480.00, 
2481.00, 
2482.00, 
2483.00, 
2484.00, 
2485.00, 
2486.00, 
2487.00, 
2488.00, 
2489.00, 
2490.00, 
2491.00, 
2492.00, 
2493.00, 
2494.00, 
2495.00, 
2496.00, 
2497.00, 
2498.00, 
2499.00, 
2500.00, 
2501.00, 
2502.00, 
2503.00, 
2504.00, 
2505.00, 
2506.00, 
2507.00, 
2508.00, 
2509.00, 
2510.00, 
2511.00, 
2512.00, 
2513.00, 
2514.00, 
2515.00, 
2516.00, 
2517.00, 
2518.00, 
2519.00, 
2520.00, 
2521.00, 
2522.00, 
2523.00, 
2524.00, 
2525.00, 
2526.00, 
2527.00, 
2528.00, 
2529.00, 
2530.00, 
2531.00, 
2532.00, 
2533.00, 
2534.00, 
2535.00, 
2536.00, 
2537.00, 
2538.00, 
2539.00, 
2540.00, 
2541.00, 
2542.00, 
2543.00, 
2544.00, 
2545.00, 
2546.00, 
2547.00, 
2548.00, 
2549.00, 
2550.00, 
2551.00, 
2552.00, 
2553.00, 
2554.00, 
2555.00, 
2556.00, 
2557.00, 
2558.00, 
2559.00, 
2560.00, 
2561.00, 
2562.00, 
2563.00, 
2564.00, 
2565.00, 
2566.00, 
2567.00, 
2568.00, 
2569.00, 
2570.00, 
2571.00, 
2572.00, 
2573.00, 
2574.00, 
2575.00, 
2576.00, 
2577.00, 
2578.00, 
2579.00, 
2580.00, 
2581.00, 
2582.00, 
2583.00, 
2584.00, 
2585.00, 
2586.00, 
2587.00, 
2588.00, 
2589.00, 
2590.00, 
2591.00, 
2592.00, 
2593.00, 
2594.00, 
2595.00, 
2596.00, 
2597.00, 
2598.00, 
2599.00, 
2600.00, 
