"2cP3 - RawData"
"Wavelength nm.","T%"
200.00,0.004
201.00,0.001
202.00,0.003
203.00,0.003
204.00,0.001
205.00,-0.000
206.00,0.002
207.00,0.006
208.00,0.004
209.00,0.000
210.00,0.003
211.00,0.002
212.00,0.005
213.00,-0.002
214.00,-0.001
215.00,0.001
216.00,0.003
217.00,-0.000
218.00,0.005
219.00,0.000
220.00,0.000
221.00,0.004
222.00,-0.000
223.00,-0.001
224.00,0.003
225.00,0.000
226.00,0.003
227.00,0.002
228.00,0.000
229.00,0.001
230.00,-0.001
231.00,0.002
232.00,-0.001
233.00,0.001
234.00,0.001
235.00,0.002
236.00,0.001
237.00,0.000
238.00,0.002
239.00,0.001
240.00,0.001
241.00,0.002
242.00,0.001
243.00,-0.000
244.00,0.000
245.00,0.000
246.00,0.000
247.00,0.001
248.00,-0.001
249.00,0.003
250.00,0.001
251.00,0.001
252.00,0.002
253.00,0.001
254.00,-0.001
255.00,0.001
256.00,0.001
257.00,0.000
258.00,0.001
259.00,-0.000
260.00,-0.000
261.00,0.001
262.00,-0.000
263.00,0.001
264.00,-0.000
265.00,0.002
266.00,-0.002
267.00,-0.001
268.00,-0.001
269.00,0.000
270.00,-0.001
271.00,-0.000
272.00,0.002
273.00,0.001
274.00,0.001
275.00,0.002
276.00,-0.000
277.00,0.000
278.00,0.002
279.00,-0.000
280.00,0.000
281.00,0.000
282.00,0.000
283.00,-0.001
284.00,-0.000
285.00,-0.000
286.00,0.001
287.00,-0.000
288.00,0.001
289.00,-0.001
290.00,-0.001
291.00,0.001
292.00,-0.002
293.00,-0.000
294.00,0.000
295.00,0.001
296.00,-0.001
297.00,0.000
298.00,0.001
299.00,0.002
300.00,0.003
301.00,0.003
302.00,0.007
303.00,0.010
304.00,0.014
305.00,0.024
306.00,0.036
307.00,0.054
308.00,0.084
309.00,0.132
310.00,0.184
311.00,0.246
312.00,0.337
313.00,0.458
314.00,0.608
315.00,0.794
316.00,1.005
317.00,1.274
318.00,1.564
319.00,1.939
320.00,2.363
321.00,2.820
322.00,3.356
323.00,3.979
324.00,4.603
325.00,5.219
326.00,5.902
327.00,6.684
328.00,7.483
329.00,8.273
330.00,9.144
331.00,9.992
332.00,10.864
333.00,11.787
334.00,12.639
335.00,13.603
336.00,14.452
337.00,15.393
338.00,16.284
339.00,17.082
340.00,17.950
341.00,18.760
342.00,19.588
343.00,20.350
344.00,21.087
345.00,21.795
346.00,22.378
347.00,23.045
348.00,23.672
349.00,24.239
350.00,24.729
351.00,25.255
352.00,25.731
353.00,26.173
354.00,26.631
355.00,27.067
356.00,27.441
357.00,27.796
358.00,28.152
359.00,28.478
360.00,28.770
361.00,28.987
362.00,29.292
363.00,29.539
364.00,29.722
365.00,30.068
366.00,30.165
367.00,30.295
368.00,30.397
369.00,30.547
370.00,30.556
371.00,30.756
372.00,30.804
373.00,30.827
374.00,30.902
375.00,30.908
376.00,30.865
377.00,30.885
378.00,30.849
379.00,30.818
380.00,30.822
381.00,30.862
382.00,30.880
383.00,30.926
384.00,31.022
385.00,31.077
386.00,31.153
387.00,31.270
388.00,31.330
389.00,31.406
390.00,31.488
391.00,31.568
392.00,31.603
393.00,31.623
394.00,31.728
395.00,31.713
396.00,31.779
397.00,31.770
398.00,31.858
399.00,31.910
400.00,31.947
401.00,31.912
402.00,31.952
403.00,31.973
404.00,31.969
405.00,32.003
406.00,31.972
407.00,31.948
408.00,31.965
409.00,31.891
410.00,31.871
411.00,31.817
412.00,31.843
413.00,31.807
414.00,31.818
415.00,31.853
416.00,31.854
417.00,31.898
418.00,31.961
419.00,31.989
420.00,32.015
421.00,32.090
422.00,32.087
423.00,32.129
424.00,32.159
425.00,32.164
426.00,32.195
427.00,32.212
428.00,32.311
429.00,32.322
430.00,32.369
431.00,32.406
432.00,32.448
433.00,32.518
434.00,32.565
435.00,32.615
436.00,32.640
437.00,32.700
438.00,32.770
439.00,32.782
440.00,32.864
441.00,32.948
442.00,33.006
443.00,33.081
444.00,33.180
445.00,33.197
446.00,33.254
447.00,33.379
448.00,33.470
449.00,33.575
450.00,33.653
451.00,33.691
452.00,33.806
453.00,33.886
454.00,33.968
455.00,34.064
456.00,34.182
457.00,34.270
458.00,34.292
459.00,34.404
460.00,34.511
461.00,34.619
462.00,34.706
463.00,34.815
464.00,34.912
465.00,34.974
466.00,35.067
467.00,35.221
468.00,35.282
469.00,35.384
470.00,35.392
471.00,35.401
472.00,35.658
473.00,35.655
474.00,35.746
475.00,35.871
476.00,35.929
477.00,36.015
478.00,36.104
479.00,36.219
480.00,36.355
481.00,36.452
482.00,36.566
483.00,36.680
484.00,36.757
485.00,36.947
486.00,36.973
487.00,37.146
488.00,37.248
489.00,37.434
490.00,37.531
491.00,37.684
492.00,37.828
493.00,37.905
494.00,37.907
495.00,38.023
496.00,38.084
497.00,38.212
498.00,38.150
499.00,38.455
500.00,38.524
501.00,38.581
502.00,38.723
503.00,38.818
504.00,38.866
505.00,39.012
506.00,39.072
507.00,39.025
508.00,39.209
509.00,39.389
510.00,39.509
511.00,39.438
512.00,39.642
513.00,39.634
514.00,39.899
515.00,39.952
516.00,40.053
517.00,40.189
518.00,40.218
519.00,40.291
520.00,40.375
521.00,40.429
522.00,40.433
523.00,40.484
524.00,40.561
525.00,40.634
526.00,40.745
527.00,40.862
528.00,40.932
529.00,41.045
530.00,41.118
531.00,41.283
532.00,41.322
533.00,41.398
534.00,41.460
535.00,41.520
536.00,41.619
537.00,41.684
538.00,41.748
539.00,41.795
540.00,41.873
541.00,41.890
542.00,41.951
543.00,42.005
544.00,42.068
545.00,42.146
546.00,42.166
547.00,42.286
548.00,42.353
549.00,42.341
550.00,42.488
551.00,42.531
552.00,42.611
553.00,42.677
554.00,42.745
555.00,42.795
556.00,42.853
557.00,42.891
558.00,42.905
559.00,42.995
560.00,43.046
561.00,43.115
562.00,43.167
563.00,43.198
564.00,43.280
565.00,43.290
566.00,43.263
567.00,43.316
568.00,43.335
569.00,43.341
570.00,43.336
571.00,43.440
572.00,43.442
573.00,43.478
574.00,43.500
575.00,43.591
576.00,43.594
577.00,43.699
578.00,43.744
579.00,43.756
580.00,43.845
581.00,43.934
582.00,44.010
583.00,44.061
584.00,44.177
585.00,44.211
586.00,44.269
587.00,44.309
588.00,44.331
589.00,44.380
590.00,44.360
591.00,44.379
592.00,44.409
593.00,44.481
594.00,44.523
595.00,44.574
596.00,44.664
597.00,44.696
598.00,44.851
599.00,44.792
600.00,44.825
601.00,44.835
602.00,44.835
603.00,44.870
604.00,44.933
605.00,44.952
606.00,45.033
607.00,45.049
608.00,45.160
609.00,45.101
610.00,45.061
611.00,45.088
612.00,45.136
613.00,45.068
614.00,45.170
615.00,45.259
616.00,45.305
617.00,45.387
618.00,45.410
619.00,45.418
620.00,45.446
621.00,45.509
622.00,45.530
623.00,45.482
624.00,45.657
625.00,45.685
626.00,45.642
627.00,45.721
628.00,45.715
629.00,45.750
630.00,45.856
631.00,45.852
632.00,45.879
633.00,45.977
634.00,45.978
635.00,46.145
636.00,46.165
637.00,46.241
638.00,46.249
639.00,46.294
640.00,46.319
641.00,46.317
642.00,46.406
643.00,46.409
644.00,46.451
645.00,46.511
646.00,46.556
647.00,46.643
648.00,46.640
649.00,46.741
650.00,46.752
651.00,46.837
652.00,46.891
653.00,46.845
654.00,46.971
655.00,46.890
656.00,47.066
657.00,47.304
658.00,47.193
659.00,47.197
660.00,47.215
661.00,47.229
662.00,47.364
663.00,47.440
664.00,47.429
665.00,47.574
666.00,47.470
667.00,47.557
668.00,47.547
669.00,47.793
670.00,47.838
671.00,47.773
672.00,47.797
673.00,47.873
674.00,47.953
675.00,48.070
676.00,48.098
677.00,48.100
678.00,48.002
679.00,48.013
680.00,48.154
681.00,48.225
682.00,48.288
683.00,48.240
684.00,48.460
685.00,48.420
686.00,48.283
687.00,48.458
688.00,48.470
689.00,48.550
690.00,48.596
691.00,48.693
692.00,48.544
693.00,48.627
694.00,48.617
695.00,48.686
696.00,48.680
697.00,48.836
698.00,48.840
699.00,48.968
700.00,49.035
701.00,48.935
702.00,49.048
703.00,49.161
704.00,49.115
705.00,49.184
706.00,49.191
707.00,49.342
708.00,49.155
709.00,49.234
710.00,49.516
711.00,49.201
712.00,49.168
713.00,49.358
714.00,49.282
715.00,49.459
716.00,49.402
717.00,49.398
718.00,49.512
719.00,49.427
720.00,49.494
721.00,53.926
722.00,53.922
723.00,53.865
724.00,53.889
725.00,53.855
726.00,53.865
727.00,53.837
728.00,53.765
729.00,53.781
730.00,53.724
731.00,53.737
732.00,53.719
733.00,53.769
734.00,53.769
735.00,53.738
736.00,53.752
737.00,53.694
738.00,53.698
739.00,53.773
740.00,53.693
741.00,53.750
742.00,53.726
743.00,53.723
744.00,53.709
745.00,53.620
746.00,53.600
747.00,53.578
748.00,53.542
749.00,53.539
750.00,53.477
751.00,53.475
752.00,53.400
753.00,53.398
754.00,53.406
755.00,53.406
756.00,53.375
757.00,53.395
758.00,53.349
759.00,53.339
760.00,53.395
761.00,53.234
762.00,53.219
763.00,53.367
764.00,53.252
765.00,53.207
766.00,53.231
767.00,53.224
768.00,53.233
769.00,53.222
770.00,53.253
771.00,53.197
772.00,53.099
773.00,53.157
774.00,53.209
775.00,53.176
776.00,53.120
777.00,53.122
778.00,53.142
779.00,53.100
780.00,53.144
781.00,53.065
782.00,53.042
783.00,53.079
784.00,52.974
785.00,52.995
786.00,53.038
787.00,52.999
788.00,52.900
789.00,52.813
790.00,52.814
791.00,52.841
792.00,52.860
793.00,52.747
794.00,52.761
795.00,52.742
796.00,52.762
797.00,52.634
798.00,52.666
799.00,52.652
800.00,52.508
801.00,52.595
802.00,52.577
803.00,52.577
804.00,52.515
805.00,52.481
806.00,52.460
807.00,52.427
808.00,52.408
809.00,52.438
810.00,52.398
811.00,52.332
812.00,52.333
813.00,52.368
814.00,52.246
815.00,52.300
816.00,52.272
817.00,52.096
818.00,52.113
819.00,52.132
820.00,52.124
821.00,52.095
822.00,52.160
823.00,51.995
824.00,52.232
825.00,52.023
826.00,52.040
827.00,52.069
828.00,51.991
829.00,51.969
830.00,51.972
831.00,54.462
832.00,54.503
833.00,54.399
834.00,54.411
835.00,54.366
836.00,54.375
837.00,54.340
838.00,54.323
839.00,54.275
840.00,54.252
841.00,54.264
842.00,54.171
843.00,54.177
844.00,54.170
845.00,54.107
846.00,54.153
847.00,54.111
848.00,54.062
849.00,54.032
850.00,53.999
851.00,53.958
852.00,53.976
853.00,53.888
854.00,53.854
855.00,53.777
856.00,53.787
857.00,53.747
858.00,53.698
859.00,53.670
860.00,53.671
861.00,53.680
862.00,53.616
863.00,53.636
864.00,53.607
865.00,53.623
866.00,53.551
867.00,53.563
868.00,53.556
869.00,53.519
870.00,53.514
871.00,53.510
872.00,53.474
873.00,53.455
874.00,53.424
875.00,53.444
876.00,53.391
877.00,53.440
878.00,53.379
879.00,53.365
880.00,53.350
881.00,53.330
882.00,53.343
883.00,53.209
884.00,53.231
885.00,53.250
886.00,53.241
887.00,53.207
888.00,53.187
889.00,53.125
890.00,53.255
891.00,53.105
892.00,53.102
893.00,53.072
894.00,53.068
895.00,53.042
896.00,53.003
897.00,52.982
898.00,52.949
899.00,52.953
900.00,52.940
901.00,52.937
902.00,52.897
903.00,52.887
904.00,52.892
905.00,52.845
906.00,52.821
907.00,52.803
908.00,52.770
909.00,52.758
910.00,52.733
911.00,52.734
912.00,52.728
913.00,52.662
914.00,52.628
915.00,52.674
916.00,52.563
917.00,52.588
918.00,52.598
919.00,52.568
920.00,52.531
921.00,52.516
922.00,52.508
923.00,52.462
924.00,52.437
925.00,52.427
926.00,52.409
927.00,52.409
928.00,52.377
929.00,52.366
930.00,52.334
931.00,52.328
932.00,52.290
933.00,52.299
934.00,52.263
935.00,52.212
936.00,52.179
937.00,52.192
938.00,52.158
939.00,52.158
940.00,52.137
941.00,52.121
942.00,52.086
943.00,52.092
944.00,52.023
945.00,52.034
946.00,52.040
947.00,52.040
948.00,51.978
949.00,51.955
950.00,51.922
951.00,51.930
952.00,51.896
953.00,51.859
954.00,51.854
955.00,51.798
956.00,51.786
957.00,51.754
958.00,51.750
959.00,51.720
960.00,51.730
961.00,51.685
962.00,51.711
963.00,51.641
964.00,51.642
965.00,51.612
966.00,51.599
967.00,51.607
968.00,51.575
969.00,51.589
970.00,51.569
971.00,51.580
972.00,51.540
973.00,51.582
974.00,51.600
975.00,51.545
976.00,51.580
977.00,51.562
978.00,51.618
979.00,51.563
980.00,51.583
981.00,51.582
982.00,51.548
983.00,51.545
984.00,51.539
985.00,51.562
986.00,51.508
987.00,51.545
988.00,51.505
989.00,51.488
990.00,51.503
991.00,51.464
992.00,51.508
993.00,51.460
994.00,51.434
995.00,51.432
996.00,51.411
997.00,51.404
998.00,51.380
999.00,51.404
1000.00,51.347
1001.00,51.355
1002.00,51.339
1003.00,51.344
1004.00,51.334
1005.00,51.288
1006.00,51.326
1007.00,51.281
1008.00,51.262
1009.00,51.245
1010.00,51.230
1011.00,51.226
1012.00,51.180
1013.00,51.191
1014.00,51.158
1015.00,51.183
1016.00,51.136
1017.00,51.148
1018.00,51.121
1019.00,51.081
1020.00,51.086
1021.00,51.055
1022.00,51.060
1023.00,50.998
1024.00,51.011
1025.00,51.010
1026.00,50.991
1027.00,50.962
1028.00,50.957
1029.00,50.942
1030.00,50.908
1031.00,50.914
1032.00,50.876
1033.00,50.871
1034.00,50.849
1035.00,50.810
1036.00,50.826
1037.00,50.805
1038.00,50.757
1039.00,50.736
1040.00,50.737
1041.00,50.692
1042.00,50.697
1043.00,50.664
1044.00,50.696
1045.00,50.675
1046.00,50.667
1047.00,50.695
1048.00,50.701
1049.00,50.693
1050.00,50.716
1051.00,50.735
1052.00,50.731
1053.00,50.746
1054.00,50.733
1055.00,50.753
1056.00,50.762
1057.00,50.761
1058.00,50.750
1059.00,50.740
1060.00,50.739
1061.00,50.758
1062.00,50.736
1063.00,50.744
1064.00,50.748
1065.00,50.737
1066.00,50.693
1067.00,50.696
1068.00,50.728
1069.00,50.668
1070.00,50.650
1071.00,50.628
1072.00,50.660
1073.00,50.636
1074.00,50.621
1075.00,50.611
1076.00,50.631
1077.00,50.619
1078.00,50.581
1079.00,50.562
1080.00,50.575
1081.00,50.550
1082.00,50.544
1083.00,50.540
1084.00,50.524
1085.00,50.506
1086.00,50.511
1087.00,50.491
1088.00,50.483
1089.00,50.477
1090.00,50.482
1091.00,50.479
1092.00,50.467
1093.00,50.438
1094.00,50.445
1095.00,50.407
1096.00,50.398
1097.00,50.431
1098.00,50.420
1099.00,50.382
1100.00,50.375
1101.00,50.348
1102.00,50.368
1103.00,50.359
1104.00,50.342
1105.00,50.332
1106.00,50.329
1107.00,50.315
1108.00,50.310
1109.00,50.288
1110.00,50.286
1111.00,50.290
1112.00,50.278
1113.00,50.276
1114.00,50.266
1115.00,50.251
1116.00,50.264
1117.00,50.232
1118.00,50.224
1119.00,50.222
1120.00,50.210
1121.00,50.212
1122.00,50.202
1123.00,50.195
1124.00,50.193
1125.00,50.183
1126.00,50.165
1127.00,50.165
1128.00,50.146
1129.00,50.127
1130.00,50.117
1131.00,50.103
1132.00,50.094
1133.00,50.104
1134.00,50.102
1135.00,50.083
1136.00,50.099
1137.00,50.079
1138.00,50.097
1139.00,50.092
1140.00,50.081
1141.00,50.075
1142.00,50.066
1143.00,50.079
1144.00,50.055
1145.00,50.036
1146.00,50.048
1147.00,50.042
1148.00,50.017
1149.00,50.049
1150.00,50.025
1151.00,50.037
1152.00,50.018
1153.00,50.006
1154.00,50.010
1155.00,50.009
1156.00,49.997
1157.00,50.000
1158.00,49.996
1159.00,49.993
1160.00,49.986
1161.00,49.980
1162.00,49.968
1163.00,49.984
1164.00,49.963
1165.00,49.964
1166.00,49.971
1167.00,49.957
1168.00,49.978
1169.00,49.966
1170.00,49.960
1171.00,49.942
1172.00,49.940
1173.00,49.948
1174.00,49.963
1175.00,49.946
1176.00,49.945
1177.00,49.944
1178.00,49.930
1179.00,49.955
1180.00,49.939
1181.00,49.948
1182.00,49.952
1183.00,49.934
1184.00,49.928
1185.00,49.943
1186.00,49.911
1187.00,49.923
1188.00,49.914
1189.00,49.917
1190.00,49.922
1191.00,49.919
1192.00,49.911
1193.00,49.920
1194.00,49.917
1195.00,49.879
1196.00,49.910
1197.00,49.894
1198.00,49.899
1199.00,49.901
1200.00,49.897
1201.00,49.915
1202.00,49.889
1203.00,49.897
1204.00,49.891
1205.00,49.912
1206.00,49.883
1207.00,49.899
1208.00,49.873
1209.00,49.873
1210.00,49.889
1211.00,49.868
1212.00,49.896
1213.00,49.860
1214.00,49.875
1215.00,49.872
1216.00,49.871
1217.00,49.880
1218.00,49.874
1219.00,49.879
1220.00,49.866
1221.00,49.880
1222.00,49.861
1223.00,49.890
1224.00,49.884
1225.00,49.852
1226.00,49.873
1227.00,49.857
1228.00,49.872
1229.00,49.875
1230.00,49.897
1231.00,49.895
1232.00,49.912
1233.00,49.905
1234.00,49.931
1235.00,49.944
1236.00,49.932
1237.00,49.917
1238.00,49.918
1239.00,49.921
1240.00,49.920
1241.00,49.920
1242.00,49.915
1243.00,49.938
1244.00,49.905
1245.00,49.950
1246.00,49.953
1247.00,49.930
1248.00,49.958
1249.00,49.944
1250.00,49.953
1251.00,49.945
1252.00,49.954
1253.00,49.935
1254.00,49.957
1255.00,49.946
1256.00,49.928
1257.00,49.898
1258.00,49.951
1259.00,49.966
1260.00,49.978
1261.00,49.967
1262.00,49.982
1263.00,49.964
1264.00,49.984
1265.00,49.988
1266.00,49.987
1267.00,49.996
1268.00,50.015
1269.00,49.992
1270.00,50.012
1271.00,50.003
1272.00,50.003
1273.00,50.019
1274.00,50.009
1275.00,50.008
1276.00,50.022
1277.00,50.014
1278.00,50.052
1279.00,50.032
1280.00,50.029
1281.00,50.052
1282.00,50.044
1283.00,50.042
1284.00,50.059
1285.00,50.039
1286.00,50.051
1287.00,50.043
1288.00,50.047
1289.00,50.051
1290.00,50.079
1291.00,50.061
1292.00,50.089
1293.00,50.066
1294.00,50.089
1295.00,50.098
1296.00,50.093
1297.00,50.104
1298.00,50.119
1299.00,50.104
1300.00,50.125
1301.00,50.115
1302.00,50.106
1303.00,50.138
1304.00,50.112
1305.00,50.134
1306.00,50.140
1307.00,50.141
1308.00,50.149
1309.00,50.157
1310.00,50.161
1311.00,50.164
1312.00,50.164
1313.00,50.155
1314.00,50.176
1315.00,50.176
1316.00,50.175
1317.00,50.197
1318.00,50.180
1319.00,50.190
1320.00,50.212
1321.00,50.350
1322.00,50.381
1323.00,50.359
1324.00,50.361
1325.00,50.359
1326.00,50.374
1327.00,50.352
1328.00,50.368
1329.00,50.356
1330.00,50.375
1331.00,50.374
1332.00,50.350
1333.00,50.349
1334.00,50.390
1335.00,50.389
1336.00,50.435
1337.00,50.452
1338.00,50.494
1339.00,50.568
1340.00,50.641
1341.00,50.712
1342.00,50.750
1343.00,50.773
1344.00,50.843
1345.00,50.887
1346.00,50.921
1347.00,50.950
1348.00,50.940
1349.00,50.967
1350.00,51.004
1351.00,51.028
1352.00,51.015
1353.00,51.072
1354.00,51.023
1355.00,50.968
1356.00,51.082
1357.00,51.056
1358.00,51.082
1359.00,51.075
1360.00,51.158
1361.00,51.025
1362.00,51.009
1363.00,51.114
1364.00,51.099
1365.00,51.081
1366.00,51.135
1367.00,51.013
1368.00,51.029
1369.00,51.081
1370.00,51.048
1371.00,50.979
1372.00,51.028
1373.00,51.019
1374.00,51.051
1375.00,51.048
1376.00,51.002
1377.00,51.016
1378.00,51.114
1379.00,51.056
1380.00,51.059
1381.00,51.062
1382.00,50.915
1383.00,51.058
1384.00,50.984
1385.00,50.962
1386.00,51.136
1387.00,51.020
1388.00,50.978
1389.00,50.962
1390.00,51.007
1391.00,50.974
1392.00,51.018
1393.00,51.034
1394.00,51.007
1395.00,50.901
1396.00,50.965
1397.00,51.032
1398.00,51.076
1399.00,50.994
1400.00,50.912
1401.00,51.049
1402.00,51.022
1403.00,51.217
1404.00,51.009
1405.00,51.042
1406.00,51.064
1407.00,51.083
1408.00,51.085
1409.00,51.059
1410.00,51.095
1411.00,51.084
1412.00,51.122
1413.00,51.042
1414.00,51.039
1415.00,51.087
1416.00,51.139
1417.00,51.157
1418.00,51.122
1419.00,51.113
1420.00,51.139
1421.00,51.197
1422.00,51.192
1423.00,51.165
1424.00,51.207
1425.00,51.195
1426.00,51.219
1427.00,51.256
1428.00,51.244
1429.00,51.264
1430.00,51.283
1431.00,51.279
1432.00,51.303
1433.00,51.320
1434.00,51.305
1435.00,51.365
1436.00,51.354
1437.00,51.350
1438.00,51.385
1439.00,51.406
1440.00,51.432
1441.00,51.438
1442.00,51.421
1443.00,51.474
1444.00,51.508
1445.00,51.477
1446.00,51.498
1447.00,51.528
1448.00,51.556
1449.00,51.559
1450.00,51.537
1451.00,51.561
1452.00,51.579
1453.00,51.585
1454.00,51.614
1455.00,51.636
1456.00,51.644
1457.00,51.657
1458.00,51.670
1459.00,51.685
1460.00,51.710
1461.00,51.726
1462.00,51.740
1463.00,51.766
1464.00,51.758
1465.00,51.771
1466.00,51.780
1467.00,51.800
1468.00,51.846
1469.00,51.828
1470.00,51.838
1471.00,51.872
1472.00,51.860
1473.00,51.887
1474.00,51.922
1475.00,51.902
1476.00,51.934
1477.00,51.939
1478.00,51.933
1479.00,51.961
1480.00,51.966
1481.00,51.964
1482.00,52.004
1483.00,52.009
1484.00,52.017
1485.00,52.030
1486.00,52.013
1487.00,52.054
1488.00,52.064
1489.00,52.062
1490.00,52.094
1491.00,52.089
1492.00,52.103
1493.00,52.114
1494.00,52.123
1495.00,52.133
1496.00,52.156
1497.00,52.135
1498.00,52.141
1499.00,52.167
1500.00,52.172
1501.00, 
1502.00, 
1503.00, 
1504.00, 
1505.00, 
1506.00, 
1507.00, 
1508.00, 
1509.00, 
1510.00, 
1511.00, 
1512.00, 
1513.00, 
1514.00, 
1515.00, 
1516.00, 
1517.00, 
1518.00, 
1519.00, 
1520.00, 
1521.00, 
1522.00, 
1523.00, 
1524.00, 
1525.00, 
1526.00, 
1527.00, 
1528.00, 
1529.00, 
1530.00, 
1531.00, 
1532.00, 
1533.00, 
1534.00, 
1535.00, 
1536.00, 
1537.00, 
1538.00, 
1539.00, 
1540.00, 
1541.00, 
1542.00, 
1543.00, 
1544.00, 
1545.00, 
1546.00, 
1547.00, 
1548.00, 
1549.00, 
1550.00, 
1551.00, 
1552.00, 
1553.00, 
1554.00, 
1555.00, 
1556.00, 
1557.00, 
1558.00, 
1559.00, 
1560.00, 
1561.00, 
1562.00, 
1563.00, 
1564.00, 
1565.00, 
1566.00, 
1567.00, 
1568.00, 
1569.00, 
1570.00, 
1571.00, 
1572.00, 
1573.00, 
1574.00, 
1575.00, 
1576.00, 
1577.00, 
1578.00, 
1579.00, 
1580.00, 
1581.00, 
1582.00, 
1583.00, 
1584.00, 
1585.00, 
1586.00, 
1587.00, 
1588.00, 
1589.00, 
1590.00, 
1591.00, 
1592.00, 
1593.00, 
1594.00, 
1595.00, 
1596.00, 
1597.00, 
1598.00, 
1599.00, 
1600.00, 
1601.00, 
1602.00, 
1603.00, 
1604.00, 
1605.00, 
1606.00, 
1607.00, 
1608.00, 
1609.00, 
1610.00, 
1611.00, 
1612.00, 
1613.00, 
1614.00, 
1615.00, 
1616.00, 
1617.00, 
1618.00, 
1619.00, 
1620.00, 
1621.00, 
1622.00, 
1623.00, 
1624.00, 
1625.00, 
1626.00, 
1627.00, 
1628.00, 
1629.00, 
1630.00, 
1631.00, 
1632.00, 
1633.00, 
1634.00, 
1635.00, 
1636.00, 
1637.00, 
1638.00, 
1639.00, 
1640.00, 
1641.00, 
1642.00, 
1643.00, 
1644.00, 
1645.00, 
1646.00, 
1647.00, 
1648.00, 
1649.00, 
1650.00, 
1651.00, 
1652.00, 
1653.00, 
1654.00, 
1655.00, 
1656.00, 
1657.00, 
1658.00, 
1659.00, 
1660.00, 
1661.00, 
1662.00, 
1663.00, 
1664.00, 
1665.00, 
1666.00, 
1667.00, 
1668.00, 
1669.00, 
1670.00, 
1671.00, 
1672.00, 
1673.00, 
1674.00, 
1675.00, 
1676.00, 
1677.00, 
1678.00, 
1679.00, 
1680.00, 
1681.00, 
1682.00, 
1683.00, 
1684.00, 
1685.00, 
1686.00, 
1687.00, 
1688.00, 
1689.00, 
1690.00, 
1691.00, 
1692.00, 
1693.00, 
1694.00, 
1695.00, 
1696.00, 
1697.00, 
1698.00, 
1699.00, 
1700.00, 
1701.00, 
1702.00, 
1703.00, 
1704.00, 
1705.00, 
1706.00, 
1707.00, 
1708.00, 
1709.00, 
1710.00, 
1711.00, 
1712.00, 
1713.00, 
1714.00, 
1715.00, 
1716.00, 
1717.00, 
1718.00, 
1719.00, 
1720.00, 
1721.00, 
1722.00, 
1723.00, 
1724.00, 
1725.00, 
1726.00, 
1727.00, 
1728.00, 
1729.00, 
1730.00, 
1731.00, 
1732.00, 
1733.00, 
1734.00, 
1735.00, 
1736.00, 
1737.00, 
1738.00, 
1739.00, 
1740.00, 
1741.00, 
1742.00, 
1743.00, 
1744.00, 
1745.00, 
1746.00, 
1747.00, 
1748.00, 
1749.00, 
1750.00, 
1751.00, 
1752.00, 
1753.00, 
1754.00, 
1755.00, 
1756.00, 
1757.00, 
1758.00, 
1759.00, 
1760.00, 
1761.00, 
1762.00, 
1763.00, 
1764.00, 
1765.00, 
1766.00, 
1767.00, 
1768.00, 
1769.00, 
1770.00, 
1771.00, 
1772.00, 
1773.00, 
1774.00, 
1775.00, 
1776.00, 
1777.00, 
1778.00, 
1779.00, 
1780.00, 
1781.00, 
1782.00, 
1783.00, 
1784.00, 
1785.00, 
1786.00, 
1787.00, 
1788.00, 
1789.00, 
1790.00, 
1791.00, 
1792.00, 
1793.00, 
1794.00, 
1795.00, 
1796.00, 
1797.00, 
1798.00, 
1799.00, 
1800.00, 
1801.00, 
1802.00, 
1803.00, 
1804.00, 
1805.00, 
1806.00, 
1807.00, 
1808.00, 
1809.00, 
1810.00, 
1811.00, 
1812.00, 
1813.00, 
1814.00, 
1815.00, 
1816.00, 
1817.00, 
1818.00, 
1819.00, 
1820.00, 
1821.00, 
1822.00, 
1823.00, 
1824.00, 
1825.00, 
1826.00, 
1827.00, 
1828.00, 
1829.00, 
1830.00, 
1831.00, 
1832.00, 
1833.00, 
1834.00, 
1835.00, 
1836.00, 
1837.00, 
1838.00, 
1839.00, 
1840.00, 
1841.00, 
1842.00, 
1843.00, 
1844.00, 
1845.00, 
1846.00, 
1847.00, 
1848.00, 
1849.00, 
1850.00, 
1851.00, 
1852.00, 
1853.00, 
1854.00, 
1855.00, 
1856.00, 
1857.00, 
1858.00, 
1859.00, 
1860.00, 
1861.00, 
1862.00, 
1863.00, 
1864.00, 
1865.00, 
1866.00, 
1867.00, 
1868.00, 
1869.00, 
1870.00, 
1871.00, 
1872.00, 
1873.00, 
1874.00, 
1875.00, 
1876.00, 
1877.00, 
1878.00, 
1879.00, 
1880.00, 
1881.00, 
1882.00, 
1883.00, 
1884.00, 
1885.00, 
1886.00, 
1887.00, 
1888.00, 
1889.00, 
1890.00, 
1891.00, 
1892.00, 
1893.00, 
1894.00, 
1895.00, 
1896.00, 
1897.00, 
1898.00, 
1899.00, 
1900.00, 
1901.00, 
1902.00, 
1903.00, 
1904.00, 
1905.00, 
1906.00, 
1907.00, 
1908.00, 
1909.00, 
1910.00, 
1911.00, 
1912.00, 
1913.00, 
1914.00, 
1915.00, 
1916.00, 
1917.00, 
1918.00, 
1919.00, 
1920.00, 
1921.00, 
1922.00, 
1923.00, 
1924.00, 
1925.00, 
1926.00, 
1927.00, 
1928.00, 
1929.00, 
1930.00, 
1931.00, 
1932.00, 
1933.00, 
1934.00, 
1935.00, 
1936.00, 
1937.00, 
1938.00, 
1939.00, 
1940.00, 
1941.00, 
1942.00, 
1943.00, 
1944.00, 
1945.00, 
1946.00, 
1947.00, 
1948.00, 
1949.00, 
1950.00, 
1951.00, 
1952.00, 
1953.00, 
1954.00, 
1955.00, 
1956.00, 
1957.00, 
1958.00, 
1959.00, 
1960.00, 
1961.00, 
1962.00, 
1963.00, 
1964.00, 
1965.00, 
1966.00, 
1967.00, 
1968.00, 
1969.00, 
1970.00, 
1971.00, 
1972.00, 
1973.00, 
1974.00, 
1975.00, 
1976.00, 
1977.00, 
1978.00, 
1979.00, 
1980.00, 
1981.00, 
1982.00, 
1983.00, 
1984.00, 
1985.00, 
1986.00, 
1987.00, 
1988.00, 
1989.00, 
1990.00, 
1991.00, 
1992.00, 
1993.00, 
1994.00, 
1995.00, 
1996.00, 
1997.00, 
1998.00, 
1999.00, 
2000.00, 
2001.00, 
2002.00, 
2003.00, 
2004.00, 
2005.00, 
2006.00, 
2007.00, 
2008.00, 
2009.00, 
2010.00, 
2011.00, 
2012.00, 
2013.00, 
2014.00, 
2015.00, 
2016.00, 
2017.00, 
2018.00, 
2019.00, 
2020.00, 
2021.00, 
2022.00, 
2023.00, 
2024.00, 
2025.00, 
2026.00, 
2027.00, 
2028.00, 
2029.00, 
2030.00, 
2031.00, 
2032.00, 
2033.00, 
2034.00, 
2035.00, 
2036.00, 
2037.00, 
2038.00, 
2039.00, 
2040.00, 
2041.00, 
2042.00, 
2043.00, 
2044.00, 
2045.00, 
2046.00, 
2047.00, 
2048.00, 
2049.00, 
2050.00, 
2051.00, 
2052.00, 
2053.00, 
2054.00, 
2055.00, 
2056.00, 
2057.00, 
2058.00, 
2059.00, 
2060.00, 
2061.00, 
2062.00, 
2063.00, 
2064.00, 
2065.00, 
2066.00, 
2067.00, 
2068.00, 
2069.00, 
2070.00, 
2071.00, 
2072.00, 
2073.00, 
2074.00, 
2075.00, 
2076.00, 
2077.00, 
2078.00, 
2079.00, 
2080.00, 
2081.00, 
2082.00, 
2083.00, 
2084.00, 
2085.00, 
2086.00, 
2087.00, 
2088.00, 
2089.00, 
2090.00, 
2091.00, 
2092.00, 
2093.00, 
2094.00, 
2095.00, 
2096.00, 
2097.00, 
2098.00, 
2099.00, 
2100.00, 
2101.00, 
2102.00, 
2103.00, 
2104.00, 
2105.00, 
2106.00, 
2107.00, 
2108.00, 
2109.00, 
2110.00, 
2111.00, 
2112.00, 
2113.00, 
2114.00, 
2115.00, 
2116.00, 
2117.00, 
2118.00, 
2119.00, 
2120.00, 
2121.00, 
2122.00, 
2123.00, 
2124.00, 
2125.00, 
2126.00, 
2127.00, 
2128.00, 
2129.00, 
2130.00, 
2131.00, 
2132.00, 
2133.00, 
2134.00, 
2135.00, 
2136.00, 
2137.00, 
2138.00, 
2139.00, 
2140.00, 
2141.00, 
2142.00, 
2143.00, 
2144.00, 
2145.00, 
2146.00, 
2147.00, 
2148.00, 
2149.00, 
2150.00, 
2151.00, 
2152.00, 
2153.00, 
2154.00, 
2155.00, 
2156.00, 
2157.00, 
2158.00, 
2159.00, 
2160.00, 
2161.00, 
2162.00, 
2163.00, 
2164.00, 
2165.00, 
2166.00, 
2167.00, 
2168.00, 
2169.00, 
2170.00, 
2171.00, 
2172.00, 
2173.00, 
2174.00, 
2175.00, 
2176.00, 
2177.00, 
2178.00, 
2179.00, 
2180.00, 
2181.00, 
2182.00, 
2183.00, 
2184.00, 
2185.00, 
2186.00, 
2187.00, 
2188.00, 
2189.00, 
2190.00, 
2191.00, 
2192.00, 
2193.00, 
2194.00, 
2195.00, 
2196.00, 
2197.00, 
2198.00, 
2199.00, 
2200.00, 
2201.00, 
2202.00, 
2203.00, 
2204.00, 
2205.00, 
2206.00, 
2207.00, 
2208.00, 
2209.00, 
2210.00, 
2211.00, 
2212.00, 
2213.00, 
2214.00, 
2215.00, 
2216.00, 
2217.00, 
2218.00, 
2219.00, 
2220.00, 
2221.00, 
2222.00, 
2223.00, 
2224.00, 
2225.00, 
2226.00, 
2227.00, 
2228.00, 
2229.00, 
2230.00, 
2231.00, 
2232.00, 
2233.00, 
2234.00, 
2235.00, 
2236.00, 
2237.00, 
2238.00, 
2239.00, 
2240.00, 
2241.00, 
2242.00, 
2243.00, 
2244.00, 
2245.00, 
2246.00, 
2247.00, 
2248.00, 
2249.00, 
2250.00, 
2251.00, 
2252.00, 
2253.00, 
2254.00, 
2255.00, 
2256.00, 
2257.00, 
2258.00, 
2259.00, 
2260.00, 
2261.00, 
2262.00, 
2263.00, 
2264.00, 
2265.00, 
2266.00, 
2267.00, 
2268.00, 
2269.00, 
2270.00, 
2271.00, 
2272.00, 
2273.00, 
2274.00, 
2275.00, 
2276.00, 
2277.00, 
2278.00, 
2279.00, 
2280.00, 
2281.00, 
2282.00, 
2283.00, 
2284.00, 
2285.00, 
2286.00, 
2287.00, 
2288.00, 
2289.00, 
2290.00, 
2291.00, 
2292.00, 
2293.00, 
2294.00, 
2295.00, 
2296.00, 
2297.00, 
2298.00, 
2299.00, 
2300.00, 
2301.00, 
2302.00, 
2303.00, 
2304.00, 
2305.00, 
2306.00, 
2307.00, 
2308.00, 
2309.00, 
2310.00, 
2311.00, 
2312.00, 
2313.00, 
2314.00, 
2315.00, 
2316.00, 
2317.00, 
2318.00, 
2319.00, 
2320.00, 
2321.00, 
2322.00, 
2323.00, 
2324.00, 
2325.00, 
2326.00, 
2327.00, 
2328.00, 
2329.00, 
2330.00, 
2331.00, 
2332.00, 
2333.00, 
2334.00, 
2335.00, 
2336.00, 
2337.00, 
2338.00, 
2339.00, 
2340.00, 
2341.00, 
2342.00, 
2343.00, 
2344.00, 
2345.00, 
2346.00, 
2347.00, 
2348.00, 
2349.00, 
2350.00, 
2351.00, 
2352.00, 
2353.00, 
2354.00, 
2355.00, 
2356.00, 
2357.00, 
2358.00, 
2359.00, 
2360.00, 
2361.00, 
2362.00, 
2363.00, 
2364.00, 
2365.00, 
2366.00, 
2367.00, 
2368.00, 
2369.00, 
2370.00, 
2371.00, 
2372.00, 
2373.00, 
2374.00, 
2375.00, 
2376.00, 
2377.00, 
2378.00, 
2379.00, 
2380.00, 
2381.00, 
2382.00, 
2383.00, 
2384.00, 
2385.00, 
2386.00, 
2387.00, 
2388.00, 
2389.00, 
2390.00, 
2391.00, 
2392.00, 
2393.00, 
2394.00, 
2395.00, 
2396.00, 
2397.00, 
2398.00, 
2399.00, 
2400.00, 
2401.00, 
2402.00, 
2403.00, 
2404.00, 
2405.00, 
2406.00, 
2407.00, 
2408.00, 
2409.00, 
2410.00, 
2411.00, 
2412.00, 
2413.00, 
2414.00, 
2415.00, 
2416.00, 
2417.00, 
2418.00, 
2419.00, 
2420.00, 
2421.00, 
2422.00, 
2423.00, 
2424.00, 
2425.00, 
2426.00, 
2427.00, 
2428.00, 
2429.00, 
2430.00, 
2431.00, 
2432.00, 
2433.00, 
2434.00, 
2435.00, 
2436.00, 
2437.00, 
2438.00, 
2439.00, 
2440.00, 
2441.00, 
2442.00, 
2443.00, 
2444.00, 
2445.00, 
2446.00, 
2447.00, 
2448.00, 
2449.00, 
2450.00, 
2451.00, 
2452.00, 
2453.00, 
2454.00, 
2455.00, 
2456.00, 
2457.00, 
2458.00, 
2459.00, 
2460.00, 
2461.00, 
2462.00, 
2463.00, 
2464.00, 
2465.00, 
2466.00, 
2467.00, 
2468.00, 
2469.00, 
2470.00, 
2471.00, 
2472.00, 
2473.00, 
2474.00, 
2475.00, 
2476.00, 
2477.00, 
2478.00, 
2479.00, 
2480.00, 
2481.00, 
2482.00, 
2483.00, 
2484.00, 
2485.00, 
2486.00, 
2487.00, 
2488.00, 
2489.00, 
2490.00, 
2491.00, 
2492.00, 
2493.00, 
2494.00, 
2495.00, 
2496.00, 
2497.00, 
2498.00, 
2499.00, 
2500.00, 
2501.00, 
2502.00, 
2503.00, 
2504.00, 
2505.00, 
2506.00, 
2507.00, 
2508.00, 
2509.00, 
2510.00, 
2511.00, 
2512.00, 
2513.00, 
2514.00, 
2515.00, 
2516.00, 
2517.00, 
2518.00, 
2519.00, 
2520.00, 
2521.00, 
2522.00, 
2523.00, 
2524.00, 
2525.00, 
2526.00, 
2527.00, 
2528.00, 
2529.00, 
2530.00, 
2531.00, 
2532.00, 
2533.00, 
2534.00, 
2535.00, 
2536.00, 
2537.00, 
2538.00, 
2539.00, 
2540.00, 
2541.00, 
2542.00, 
2543.00, 
2544.00, 
2545.00, 
2546.00, 
2547.00, 
2548.00, 
2549.00, 
2550.00, 
2551.00, 
2552.00, 
2553.00, 
2554.00, 
2555.00, 
2556.00, 
2557.00, 
2558.00, 
2559.00, 
2560.00, 
2561.00, 
2562.00, 
2563.00, 
2564.00, 
2565.00, 
2566.00, 
2567.00, 
2568.00, 
2569.00, 
2570.00, 
2571.00, 
2572.00, 
2573.00, 
2574.00, 
2575.00, 
2576.00, 
2577.00, 
2578.00, 
2579.00, 
2580.00, 
2581.00, 
2582.00, 
2583.00, 
2584.00, 
2585.00, 
2586.00, 
2587.00, 
2588.00, 
2589.00, 
2590.00, 
2591.00, 
2592.00, 
2593.00, 
2594.00, 
2595.00, 
2596.00, 
2597.00, 
2598.00, 
2599.00, 
2600.00, 
