"2cP5 - RawData"
"Wavelength nm.","T%"
200.00,0.003
201.00,0.001
202.00,0.003
203.00,0.002
204.00,0.002
205.00,0.002
206.00,-0.001
207.00,0.001
208.00,-0.001
209.00,0.002
210.00,0.001
211.00,0.001
212.00,-0.001
213.00,0.000
214.00,-0.001
215.00,0.001
216.00,0.003
217.00,0.001
218.00,-0.002
219.00,0.000
220.00,0.002
221.00,-0.000
222.00,-0.000
223.00,-0.001
224.00,0.001
225.00,-0.001
226.00,-0.000
227.00,0.003
228.00,0.002
229.00,-0.001
230.00,-0.002
231.00,0.000
232.00,0.002
233.00,-0.001
234.00,0.001
235.00,-0.001
236.00,0.001
237.00,-0.000
238.00,0.002
239.00,-0.000
240.00,-0.002
241.00,0.002
242.00,-0.000
243.00,0.002
244.00,0.002
245.00,0.001
246.00,0.001
247.00,0.001
248.00,0.002
249.00,-0.002
250.00,0.000
251.00,0.000
252.00,-0.001
253.00,-0.002
254.00,-0.000
255.00,0.001
256.00,0.000
257.00,0.001
258.00,-0.000
259.00,-0.000
260.00,-0.000
261.00,-0.002
262.00,-0.001
263.00,-0.001
264.00,0.001
265.00,0.001
266.00,0.001
267.00,-0.000
268.00,0.000
269.00,0.002
270.00,-0.002
271.00,-0.001
272.00,-0.001
273.00,0.002
274.00,0.001
275.00,0.001
276.00,-0.000
277.00,0.001
278.00,-0.000
279.00,0.001
280.00,0.000
281.00,-0.000
282.00,0.001
283.00,0.000
284.00,-0.000
285.00,-0.001
286.00,0.000
287.00,-0.000
288.00,-0.002
289.00,0.001
290.00,0.000
291.00,-0.001
292.00,0.000
293.00,-0.000
294.00,-0.000
295.00,0.001
296.00,0.000
297.00,-0.001
298.00,-0.001
299.00,0.001
300.00,0.002
301.00,0.003
302.00,0.004
303.00,0.006
304.00,0.012
305.00,0.017
306.00,0.027
307.00,0.042
308.00,0.063
309.00,0.099
310.00,0.136
311.00,0.184
312.00,0.246
313.00,0.343
314.00,0.451
315.00,0.584
316.00,0.746
317.00,0.950
318.00,1.163
319.00,1.423
320.00,1.726
321.00,2.093
322.00,2.478
323.00,2.912
324.00,3.367
325.00,3.845
326.00,4.322
327.00,4.883
328.00,5.465
329.00,6.051
330.00,6.656
331.00,7.269
332.00,7.888
333.00,8.550
334.00,9.199
335.00,9.847
336.00,10.480
337.00,11.115
338.00,11.783
339.00,12.357
340.00,12.945
341.00,13.540
342.00,14.102
343.00,14.580
344.00,15.125
345.00,15.617
346.00,16.077
347.00,16.495
348.00,16.918
349.00,17.295
350.00,17.645
351.00,17.979
352.00,18.290
353.00,18.580
354.00,18.889
355.00,19.185
356.00,19.413
357.00,19.591
358.00,19.844
359.00,20.106
360.00,20.283
361.00,20.404
362.00,20.594
363.00,20.728
364.00,20.862
365.00,20.996
366.00,20.999
367.00,21.106
368.00,21.104
369.00,21.219
370.00,21.287
371.00,21.281
372.00,21.225
373.00,21.299
374.00,21.289
375.00,21.274
376.00,21.298
377.00,21.251
378.00,21.178
379.00,21.112
380.00,21.085
381.00,21.085
382.00,21.080
383.00,21.094
384.00,21.110
385.00,21.129
386.00,21.169
387.00,21.228
388.00,21.274
389.00,21.266
390.00,21.298
391.00,21.337
392.00,21.361
393.00,21.327
394.00,21.376
395.00,21.395
396.00,21.373
397.00,21.389
398.00,21.405
399.00,21.421
400.00,21.419
401.00,21.406
402.00,21.417
403.00,21.429
404.00,21.402
405.00,21.417
406.00,21.409
407.00,21.392
408.00,21.387
409.00,21.339
410.00,21.307
411.00,21.291
412.00,21.290
413.00,21.293
414.00,21.295
415.00,21.288
416.00,21.341
417.00,21.335
418.00,21.377
419.00,21.420
420.00,21.482
421.00,21.515
422.00,21.556
423.00,21.599
424.00,21.651
425.00,21.639
426.00,21.634
427.00,21.689
428.00,21.770
429.00,21.800
430.00,21.918
431.00,21.954
432.00,21.999
433.00,22.042
434.00,22.137
435.00,22.195
436.00,22.249
437.00,22.329
438.00,22.431
439.00,22.457
440.00,22.542
441.00,22.617
442.00,22.716
443.00,22.805
444.00,22.900
445.00,22.991
446.00,23.088
447.00,23.188
448.00,23.288
449.00,23.412
450.00,23.524
451.00,23.586
452.00,23.682
453.00,23.792
454.00,23.917
455.00,24.026
456.00,24.148
457.00,24.271
458.00,24.374
459.00,24.502
460.00,24.635
461.00,24.745
462.00,24.878
463.00,25.036
464.00,25.162
465.00,25.288
466.00,25.404
467.00,25.535
468.00,25.652
469.00,25.783
470.00,25.889
471.00,25.982
472.00,26.105
473.00,26.197
474.00,26.318
475.00,26.451
476.00,26.581
477.00,26.685
478.00,26.791
479.00,26.990
480.00,27.116
481.00,27.255
482.00,27.403
483.00,27.547
484.00,27.673
485.00,27.876
486.00,28.013
487.00,28.171
488.00,28.301
489.00,28.469
490.00,28.616
491.00,28.757
492.00,28.989
493.00,29.137
494.00,29.147
495.00,29.320
496.00,29.421
497.00,29.568
498.00,29.653
499.00,29.802
500.00,29.953
501.00,30.024
502.00,30.226
503.00,30.362
504.00,30.407
505.00,30.622
506.00,30.710
507.00,30.780
508.00,30.926
509.00,31.068
510.00,31.170
511.00,31.276
512.00,31.543
513.00,31.571
514.00,31.671
515.00,31.872
516.00,31.954
517.00,32.070
518.00,32.175
519.00,32.283
520.00,32.321
521.00,32.460
522.00,32.508
523.00,32.559
524.00,32.706
525.00,32.787
526.00,32.885
527.00,32.976
528.00,33.010
529.00,33.193
530.00,33.354
531.00,33.462
532.00,33.566
533.00,33.669
534.00,33.755
535.00,33.822
536.00,33.926
537.00,33.992
538.00,34.060
539.00,34.109
540.00,34.188
541.00,34.284
542.00,34.320
543.00,34.366
544.00,34.467
545.00,34.514
546.00,34.552
547.00,34.711
548.00,34.790
549.00,34.810
550.00,34.894
551.00,34.984
552.00,35.040
553.00,35.101
554.00,35.143
555.00,35.273
556.00,35.278
557.00,35.255
558.00,35.314
559.00,35.447
560.00,35.533
561.00,35.611
562.00,35.685
563.00,35.720
564.00,35.763
565.00,35.801
566.00,35.809
567.00,35.850
568.00,35.896
569.00,35.941
570.00,35.986
571.00,36.060
572.00,36.071
573.00,36.047
574.00,36.095
575.00,36.155
576.00,36.164
577.00,36.216
578.00,36.302
579.00,36.316
580.00,36.394
581.00,36.552
582.00,36.583
583.00,36.565
584.00,36.655
585.00,36.787
586.00,36.846
587.00,36.843
588.00,36.796
589.00,36.694
590.00,36.991
591.00,37.120
592.00,37.012
593.00,37.041
594.00,37.139
595.00,37.239
596.00,37.385
597.00,37.408
598.00,37.523
599.00,37.462
600.00,37.422
601.00,37.504
602.00,37.500
603.00,37.490
604.00,37.474
605.00,37.642
606.00,37.757
607.00,37.712
608.00,37.831
609.00,37.915
610.00,37.807
611.00,37.888
612.00,37.975
613.00,38.017
614.00,38.037
615.00,38.050
616.00,38.231
617.00,38.247
618.00,38.210
619.00,38.290
620.00,38.352
621.00,38.424
622.00,38.504
623.00,38.533
624.00,38.614
625.00,38.673
626.00,38.725
627.00,38.805
628.00,38.858
629.00,38.861
630.00,38.923
631.00,39.002
632.00,39.041
633.00,39.176
634.00,39.287
635.00,39.351
636.00,39.443
637.00,39.462
638.00,39.521
639.00,39.604
640.00,39.667
641.00,39.714
642.00,39.802
643.00,39.831
644.00,39.975
645.00,40.009
646.00,40.111
647.00,40.258
648.00,40.274
649.00,40.339
650.00,40.399
651.00,40.543
652.00,40.623
653.00,40.538
654.00,40.659
655.00,40.860
656.00,41.154
657.00,40.968
658.00,41.061
659.00,41.219
660.00,41.275
661.00,41.404
662.00,41.457
663.00,41.500
664.00,41.757
665.00,41.916
666.00,41.850
667.00,41.872
668.00,41.881
669.00,42.157
670.00,42.427
671.00,42.358
672.00,42.402
673.00,42.501
674.00,42.573
675.00,42.620
676.00,42.891
677.00,43.048
678.00,42.926
679.00,43.054
680.00,43.217
681.00,43.305
682.00,43.417
683.00,43.357
684.00,43.607
685.00,43.716
686.00,43.642
687.00,43.746
688.00,43.759
689.00,43.786
690.00,44.100
691.00,44.363
692.00,44.038
693.00,44.282
694.00,44.472
695.00,44.407
696.00,44.467
697.00,44.632
698.00,44.589
699.00,45.015
700.00,44.973
701.00,44.864
702.00,44.903
703.00,45.431
704.00,45.566
705.00,45.428
706.00,45.419
707.00,45.511
708.00,45.411
709.00,45.760
710.00,46.160
711.00,45.673
712.00,45.755
713.00,46.041
714.00,46.148
715.00,46.142
716.00,46.209
717.00,46.395
718.00,46.421
719.00,46.371
720.00,46.516
721.00,51.141
722.00,51.035
723.00,51.093
724.00,51.113
725.00,51.199
726.00,51.208
727.00,51.209
728.00,51.205
729.00,51.236
730.00,51.264
731.00,51.274
732.00,51.306
733.00,51.408
734.00,51.439
735.00,51.576
736.00,51.532
737.00,51.565
738.00,51.626
739.00,51.651
740.00,51.699
741.00,51.732
742.00,51.748
743.00,51.756
744.00,51.741
745.00,51.776
746.00,51.850
747.00,51.921
748.00,51.727
749.00,51.834
750.00,51.881
751.00,51.877
752.00,51.891
753.00,51.904
754.00,51.926
755.00,51.963
756.00,51.952
757.00,51.940
758.00,51.958
759.00,51.953
760.00,52.078
761.00,51.917
762.00,52.066
763.00,52.100
764.00,52.038
765.00,52.028
766.00,52.084
767.00,52.193
768.00,52.084
769.00,52.209
770.00,52.199
771.00,52.178
772.00,52.145
773.00,52.165
774.00,52.289
775.00,52.230
776.00,52.219
777.00,52.229
778.00,52.257
779.00,52.320
780.00,52.233
781.00,52.281
782.00,52.328
783.00,52.227
784.00,52.359
785.00,52.274
786.00,52.324
787.00,52.314
788.00,52.236
789.00,52.259
790.00,52.153
791.00,52.307
792.00,52.275
793.00,52.271
794.00,52.205
795.00,52.234
796.00,52.247
797.00,52.175
798.00,52.216
799.00,52.198
800.00,52.133
801.00,52.130
802.00,52.180
803.00,52.138
804.00,52.109
805.00,52.185
806.00,52.102
807.00,52.065
808.00,52.095
809.00,52.077
810.00,52.091
811.00,52.115
812.00,52.135
813.00,52.100
814.00,52.087
815.00,52.030
816.00,52.066
817.00,51.927
818.00,51.904
819.00,51.939
820.00,51.878
821.00,51.963
822.00,52.012
823.00,51.946
824.00,52.029
825.00,51.836
826.00,51.803
827.00,51.947
828.00,52.039
829.00,51.801
830.00,51.853
831.00,54.020
832.00,54.047
833.00,53.999
834.00,53.996
835.00,53.973
836.00,53.957
837.00,53.938
838.00,53.922
839.00,53.891
840.00,53.846
841.00,53.901
842.00,53.791
843.00,53.838
844.00,53.800
845.00,53.798
846.00,53.811
847.00,53.758
848.00,53.749
849.00,53.694
850.00,53.671
851.00,53.633
852.00,53.639
853.00,53.561
854.00,53.556
855.00,53.519
856.00,53.507
857.00,53.497
858.00,53.476
859.00,53.431
860.00,53.425
861.00,53.408
862.00,53.388
863.00,53.438
864.00,53.335
865.00,53.409
866.00,53.333
867.00,53.360
868.00,53.365
869.00,53.324
870.00,53.308
871.00,53.338
872.00,53.314
873.00,53.271
874.00,53.269
875.00,53.259
876.00,53.244
877.00,53.253
878.00,53.222
879.00,53.239
880.00,53.215
881.00,53.170
882.00,53.211
883.00,53.138
884.00,53.134
885.00,53.120
886.00,53.113
887.00,53.070
888.00,53.070
889.00,53.044
890.00,53.054
891.00,53.000
892.00,52.998
893.00,52.979
894.00,52.983
895.00,52.937
896.00,52.927
897.00,52.894
898.00,52.866
899.00,52.891
900.00,52.848
901.00,52.863
902.00,52.832
903.00,52.830
904.00,52.857
905.00,52.784
906.00,52.752
907.00,52.951
908.00,52.716
909.00,52.725
910.00,52.698
911.00,52.686
912.00,52.684
913.00,52.630
914.00,52.589
915.00,52.627
916.00,52.513
917.00,52.559
918.00,52.549
919.00,52.529
920.00,52.505
921.00,52.481
922.00,52.465
923.00,52.428
924.00,52.397
925.00,52.398
926.00,52.380
927.00,52.394
928.00,52.358
929.00,52.358
930.00,52.323
931.00,52.313
932.00,52.270
933.00,52.289
934.00,52.243
935.00,52.230
936.00,52.205
937.00,52.202
938.00,52.179
939.00,52.170
940.00,52.131
941.00,52.130
942.00,52.097
943.00,52.107
944.00,52.061
945.00,52.054
946.00,52.058
947.00,52.053
948.00,51.997
949.00,51.981
950.00,51.950
951.00,51.938
952.00,51.925
953.00,51.875
954.00,51.876
955.00,51.825
956.00,51.823
957.00,51.780
958.00,51.787
959.00,51.738
960.00,51.752
961.00,51.747
962.00,51.730
963.00,51.687
964.00,51.715
965.00,51.669
966.00,51.657
967.00,51.654
968.00,51.622
969.00,51.657
970.00,51.642
971.00,51.646
972.00,51.605
973.00,51.654
974.00,51.679
975.00,51.620
976.00,51.647
977.00,51.621
978.00,51.676
979.00,51.616
980.00,51.646
981.00,51.647
982.00,51.616
983.00,51.630
984.00,51.620
985.00,51.632
986.00,51.569
987.00,51.611
988.00,51.568
989.00,51.549
990.00,51.554
991.00,51.538
992.00,51.567
993.00,51.516
994.00,51.509
995.00,51.501
996.00,51.505
997.00,51.490
998.00,51.470
999.00,51.483
1000.00,51.426
1001.00,51.428
1002.00,51.407
1003.00,51.421
1004.00,51.394
1005.00,51.364
1006.00,51.394
1007.00,51.349
1008.00,51.327
1009.00,51.334
1010.00,51.305
1011.00,51.294
1012.00,51.261
1013.00,51.275
1014.00,51.239
1015.00,51.249
1016.00,51.226
1017.00,51.222
1018.00,51.202
1019.00,51.182
1020.00,51.166
1021.00,51.148
1022.00,51.187
1023.00,51.094
1024.00,51.110
1025.00,51.095
1026.00,51.080
1027.00,51.052
1028.00,51.056
1029.00,51.034
1030.00,50.999
1031.00,51.000
1032.00,50.951
1033.00,50.956
1034.00,50.932
1035.00,50.884
1036.00,50.871
1037.00,50.856
1038.00,50.840
1039.00,50.802
1040.00,50.800
1041.00,50.757
1042.00,50.763
1043.00,50.736
1044.00,50.765
1045.00,50.749
1046.00,50.739
1047.00,50.775
1048.00,50.793
1049.00,50.796
1050.00,50.805
1051.00,50.839
1052.00,50.821
1053.00,50.831
1054.00,50.823
1055.00,50.841
1056.00,50.860
1057.00,50.865
1058.00,50.848
1059.00,50.840
1060.00,50.847
1061.00,50.833
1062.00,50.821
1063.00,50.822
1064.00,50.818
1065.00,50.802
1066.00,50.784
1067.00,50.785
1068.00,50.804
1069.00,50.756
1070.00,50.744
1071.00,50.727
1072.00,50.763
1073.00,50.736
1074.00,50.719
1075.00,50.715
1076.00,50.716
1077.00,50.691
1078.00,50.672
1079.00,50.674
1080.00,50.683
1081.00,50.658
1082.00,50.658
1083.00,50.656
1084.00,50.645
1085.00,50.633
1086.00,50.622
1087.00,50.614
1088.00,50.589
1089.00,50.579
1090.00,50.585
1091.00,50.585
1092.00,50.564
1093.00,50.559
1094.00,50.559
1095.00,50.553
1096.00,50.522
1097.00,50.525
1098.00,50.509
1099.00,50.492
1100.00,50.483
1101.00,50.485
1102.00,50.487
1103.00,50.482
1104.00,50.465
1105.00,50.451
1106.00,50.441
1107.00,50.435
1108.00,50.435
1109.00,50.431
1110.00,50.414
1111.00,50.408
1112.00,50.384
1113.00,50.380
1114.00,50.373
1115.00,50.369
1116.00,50.367
1117.00,50.346
1118.00,50.321
1119.00,50.322
1120.00,50.337
1121.00,50.336
1122.00,50.307
1123.00,50.307
1124.00,50.306
1125.00,50.292
1126.00,50.284
1127.00,50.291
1128.00,50.269
1129.00,50.247
1130.00,50.228
1131.00,50.241
1132.00,50.220
1133.00,50.212
1134.00,50.207
1135.00,50.191
1136.00,50.196
1137.00,50.198
1138.00,50.210
1139.00,50.206
1140.00,50.203
1141.00,50.199
1142.00,50.180
1143.00,50.192
1144.00,50.159
1145.00,50.156
1146.00,50.158
1147.00,50.146
1148.00,50.127
1149.00,50.142
1150.00,50.138
1151.00,50.140
1152.00,50.133
1153.00,50.138
1154.00,50.122
1155.00,50.122
1156.00,50.108
1157.00,50.118
1158.00,50.119
1159.00,50.108
1160.00,50.110
1161.00,50.116
1162.00,50.107
1163.00,50.116
1164.00,50.113
1165.00,50.099
1166.00,50.104
1167.00,50.099
1168.00,50.109
1169.00,50.091
1170.00,50.088
1171.00,50.074
1172.00,50.076
1173.00,50.062
1174.00,50.085
1175.00,50.074
1176.00,50.074
1177.00,50.076
1178.00,50.069
1179.00,50.082
1180.00,50.050
1181.00,50.074
1182.00,50.072
1183.00,50.053
1184.00,50.049
1185.00,50.064
1186.00,50.050
1187.00,50.031
1188.00,50.032
1189.00,50.052
1190.00,50.041
1191.00,50.061
1192.00,50.105
1193.00,50.078
1194.00,50.058
1195.00,50.017
1196.00,50.050
1197.00,50.041
1198.00,50.020
1199.00,50.018
1200.00,50.029
1201.00,50.043
1202.00,50.016
1203.00,50.015
1204.00,50.013
1205.00,50.024
1206.00,50.001
1207.00,50.005
1208.00,49.996
1209.00,49.997
1210.00,50.002
1211.00,50.008
1212.00,50.033
1213.00,50.001
1214.00,50.028
1215.00,50.023
1216.00,50.027
1217.00,50.009
1218.00,50.004
1219.00,50.014
1220.00,50.006
1221.00,50.001
1222.00,50.001
1223.00,50.045
1224.00,50.017
1225.00,50.003
1226.00,50.018
1227.00,50.010
1228.00,50.019
1229.00,50.020
1230.00,50.042
1231.00,50.016
1232.00,50.035
1233.00,50.054
1234.00,50.058
1235.00,50.053
1236.00,50.041
1237.00,50.063
1238.00,50.055
1239.00,50.040
1240.00,50.037
1241.00,50.038
1242.00,50.041
1243.00,50.055
1244.00,50.034
1245.00,50.069
1246.00,50.080
1247.00,50.055
1248.00,50.059
1249.00,50.067
1250.00,50.082
1251.00,50.077
1252.00,50.077
1253.00,50.059
1254.00,50.084
1255.00,50.083
1256.00,50.058
1257.00,50.051
1258.00,50.106
1259.00,50.102
1260.00,50.109
1261.00,50.100
1262.00,50.104
1263.00,50.117
1264.00,50.105
1265.00,50.109
1266.00,50.120
1267.00,50.110
1268.00,50.136
1269.00,50.133
1270.00,50.138
1271.00,50.141
1272.00,50.134
1273.00,50.152
1274.00,50.151
1275.00,50.152
1276.00,50.153
1277.00,50.167
1278.00,50.178
1279.00,50.162
1280.00,50.152
1281.00,50.177
1282.00,50.185
1283.00,50.202
1284.00,50.189
1285.00,50.184
1286.00,50.191
1287.00,50.185
1288.00,50.177
1289.00,50.180
1290.00,50.211
1291.00,50.193
1292.00,50.202
1293.00,50.201
1294.00,50.213
1295.00,50.230
1296.00,50.224
1297.00,50.224
1298.00,50.248
1299.00,50.236
1300.00,50.255
1301.00,50.253
1302.00,50.265
1303.00,50.280
1304.00,50.256
1305.00,50.276
1306.00,50.285
1307.00,50.278
1308.00,50.277
1309.00,50.286
1310.00,50.300
1311.00,50.278
1312.00,50.296
1313.00,50.304
1314.00,50.336
1315.00,50.351
1316.00,50.335
1317.00,50.368
1318.00,50.354
1319.00,50.355
1320.00,50.374
1321.00,50.517
1322.00,50.516
1323.00,50.501
1324.00,50.494
1325.00,50.500
1326.00,50.494
1327.00,50.503
1328.00,50.511
1329.00,50.482
1330.00,50.488
1331.00,50.490
1332.00,50.469
1333.00,50.492
1334.00,50.507
1335.00,50.527
1336.00,50.557
1337.00,50.580
1338.00,50.638
1339.00,50.690
1340.00,50.754
1341.00,50.828
1342.00,50.887
1343.00,50.935
1344.00,50.988
1345.00,51.043
1346.00,51.074
1347.00,51.090
1348.00,51.118
1349.00,51.126
1350.00,51.155
1351.00,51.167
1352.00,51.156
1353.00,51.200
1354.00,51.163
1355.00,51.118
1356.00,51.225
1357.00,51.212
1358.00,51.188
1359.00,51.241
1360.00,51.164
1361.00,51.137
1362.00,51.142
1363.00,51.285
1364.00,51.313
1365.00,51.206
1366.00,51.226
1367.00,51.162
1368.00,51.158
1369.00,51.220
1370.00,51.189
1371.00,51.129
1372.00,51.188
1373.00,51.198
1374.00,51.213
1375.00,51.196
1376.00,51.148
1377.00,51.164
1378.00,51.147
1379.00,51.169
1380.00,51.139
1381.00,51.150
1382.00,51.033
1383.00,51.193
1384.00,51.094
1385.00,51.090
1386.00,51.212
1387.00,51.100
1388.00,51.110
1389.00,51.069
1390.00,51.154
1391.00,51.158
1392.00,51.149
1393.00,51.095
1394.00,51.152
1395.00,51.102
1396.00,51.093
1397.00,51.081
1398.00,51.180
1399.00,51.128
1400.00,50.990
1401.00,51.113
1402.00,51.188
1403.00,51.156
1404.00,51.163
1405.00,51.106
1406.00,51.205
1407.00,51.258
1408.00,51.282
1409.00,51.180
1410.00,51.227
1411.00,51.210
1412.00,51.263
1413.00,51.142
1414.00,51.235
1415.00,51.265
1416.00,51.365
1417.00,51.289
1418.00,51.244
1419.00,51.279
1420.00,51.290
1421.00,51.348
1422.00,51.329
1423.00,51.339
1424.00,51.343
1425.00,51.335
1426.00,51.353
1427.00,51.384
1428.00,51.370
1429.00,51.387
1430.00,51.428
1431.00,51.425
1432.00,51.461
1433.00,51.464
1434.00,51.442
1435.00,51.522
1436.00,51.502
1437.00,51.498
1438.00,51.522
1439.00,51.534
1440.00,51.546
1441.00,51.567
1442.00,51.566
1443.00,51.592
1444.00,51.620
1445.00,51.586
1446.00,51.617
1447.00,51.644
1448.00,51.689
1449.00,51.696
1450.00,51.690
1451.00,51.753
1452.00,51.717
1453.00,51.727
1454.00,51.749
1455.00,51.765
1456.00,51.784
1457.00,51.786
1458.00,51.800
1459.00,51.831
1460.00,51.837
1461.00,51.845
1462.00,51.871
1463.00,51.889
1464.00,51.891
1465.00,51.912
1466.00,51.907
1467.00,51.938
1468.00,51.993
1469.00,51.960
1470.00,51.984
1471.00,52.004
1472.00,52.005
1473.00,52.019
1474.00,52.043
1475.00,52.037
1476.00,52.070
1477.00,52.062
1478.00,52.072
1479.00,52.101
1480.00,52.090
1481.00,52.099
1482.00,52.130
1483.00,52.129
1484.00,52.155
1485.00,52.160
1486.00,52.167
1487.00,52.188
1488.00,52.199
1489.00,52.201
1490.00,52.215
1491.00,52.205
1492.00,52.219
1493.00,52.220
1494.00,52.261
1495.00,52.263
1496.00,52.282
1497.00,52.261
1498.00,52.292
1499.00,52.303
1500.00,52.333
1501.00, 
1502.00, 
1503.00, 
1504.00, 
1505.00, 
1506.00, 
1507.00, 
1508.00, 
1509.00, 
1510.00, 
1511.00, 
1512.00, 
1513.00, 
1514.00, 
1515.00, 
1516.00, 
1517.00, 
1518.00, 
1519.00, 
1520.00, 
1521.00, 
1522.00, 
1523.00, 
1524.00, 
1525.00, 
1526.00, 
1527.00, 
1528.00, 
1529.00, 
1530.00, 
1531.00, 
1532.00, 
1533.00, 
1534.00, 
1535.00, 
1536.00, 
1537.00, 
1538.00, 
1539.00, 
1540.00, 
1541.00, 
1542.00, 
1543.00, 
1544.00, 
1545.00, 
1546.00, 
1547.00, 
1548.00, 
1549.00, 
1550.00, 
1551.00, 
1552.00, 
1553.00, 
1554.00, 
1555.00, 
1556.00, 
1557.00, 
1558.00, 
1559.00, 
1560.00, 
1561.00, 
1562.00, 
1563.00, 
1564.00, 
1565.00, 
1566.00, 
1567.00, 
1568.00, 
1569.00, 
1570.00, 
1571.00, 
1572.00, 
1573.00, 
1574.00, 
1575.00, 
1576.00, 
1577.00, 
1578.00, 
1579.00, 
1580.00, 
1581.00, 
1582.00, 
1583.00, 
1584.00, 
1585.00, 
1586.00, 
1587.00, 
1588.00, 
1589.00, 
1590.00, 
1591.00, 
1592.00, 
1593.00, 
1594.00, 
1595.00, 
1596.00, 
1597.00, 
1598.00, 
1599.00, 
1600.00, 
1601.00, 
1602.00, 
1603.00, 
1604.00, 
1605.00, 
1606.00, 
1607.00, 
1608.00, 
1609.00, 
1610.00, 
1611.00, 
1612.00, 
1613.00, 
1614.00, 
1615.00, 
1616.00, 
1617.00, 
1618.00, 
1619.00, 
1620.00, 
1621.00, 
1622.00, 
1623.00, 
1624.00, 
1625.00, 
1626.00, 
1627.00, 
1628.00, 
1629.00, 
1630.00, 
1631.00, 
1632.00, 
1633.00, 
1634.00, 
1635.00, 
1636.00, 
1637.00, 
1638.00, 
1639.00, 
1640.00, 
1641.00, 
1642.00, 
1643.00, 
1644.00, 
1645.00, 
1646.00, 
1647.00, 
1648.00, 
1649.00, 
1650.00, 
1651.00, 
1652.00, 
1653.00, 
1654.00, 
1655.00, 
1656.00, 
1657.00, 
1658.00, 
1659.00, 
1660.00, 
1661.00, 
1662.00, 
1663.00, 
1664.00, 
1665.00, 
1666.00, 
1667.00, 
1668.00, 
1669.00, 
1670.00, 
1671.00, 
1672.00, 
1673.00, 
1674.00, 
1675.00, 
1676.00, 
1677.00, 
1678.00, 
1679.00, 
1680.00, 
1681.00, 
1682.00, 
1683.00, 
1684.00, 
1685.00, 
1686.00, 
1687.00, 
1688.00, 
1689.00, 
1690.00, 
1691.00, 
1692.00, 
1693.00, 
1694.00, 
1695.00, 
1696.00, 
1697.00, 
1698.00, 
1699.00, 
1700.00, 
1701.00, 
1702.00, 
1703.00, 
1704.00, 
1705.00, 
1706.00, 
1707.00, 
1708.00, 
1709.00, 
1710.00, 
1711.00, 
1712.00, 
1713.00, 
1714.00, 
1715.00, 
1716.00, 
1717.00, 
1718.00, 
1719.00, 
1720.00, 
1721.00, 
1722.00, 
1723.00, 
1724.00, 
1725.00, 
1726.00, 
1727.00, 
1728.00, 
1729.00, 
1730.00, 
1731.00, 
1732.00, 
1733.00, 
1734.00, 
1735.00, 
1736.00, 
1737.00, 
1738.00, 
1739.00, 
1740.00, 
1741.00, 
1742.00, 
1743.00, 
1744.00, 
1745.00, 
1746.00, 
1747.00, 
1748.00, 
1749.00, 
1750.00, 
1751.00, 
1752.00, 
1753.00, 
1754.00, 
1755.00, 
1756.00, 
1757.00, 
1758.00, 
1759.00, 
1760.00, 
1761.00, 
1762.00, 
1763.00, 
1764.00, 
1765.00, 
1766.00, 
1767.00, 
1768.00, 
1769.00, 
1770.00, 
1771.00, 
1772.00, 
1773.00, 
1774.00, 
1775.00, 
1776.00, 
1777.00, 
1778.00, 
1779.00, 
1780.00, 
1781.00, 
1782.00, 
1783.00, 
1784.00, 
1785.00, 
1786.00, 
1787.00, 
1788.00, 
1789.00, 
1790.00, 
1791.00, 
1792.00, 
1793.00, 
1794.00, 
1795.00, 
1796.00, 
1797.00, 
1798.00, 
1799.00, 
1800.00, 
1801.00, 
1802.00, 
1803.00, 
1804.00, 
1805.00, 
1806.00, 
1807.00, 
1808.00, 
1809.00, 
1810.00, 
1811.00, 
1812.00, 
1813.00, 
1814.00, 
1815.00, 
1816.00, 
1817.00, 
1818.00, 
1819.00, 
1820.00, 
1821.00, 
1822.00, 
1823.00, 
1824.00, 
1825.00, 
1826.00, 
1827.00, 
1828.00, 
1829.00, 
1830.00, 
1831.00, 
1832.00, 
1833.00, 
1834.00, 
1835.00, 
1836.00, 
1837.00, 
1838.00, 
1839.00, 
1840.00, 
1841.00, 
1842.00, 
1843.00, 
1844.00, 
1845.00, 
1846.00, 
1847.00, 
1848.00, 
1849.00, 
1850.00, 
1851.00, 
1852.00, 
1853.00, 
1854.00, 
1855.00, 
1856.00, 
1857.00, 
1858.00, 
1859.00, 
1860.00, 
1861.00, 
1862.00, 
1863.00, 
1864.00, 
1865.00, 
1866.00, 
1867.00, 
1868.00, 
1869.00, 
1870.00, 
1871.00, 
1872.00, 
1873.00, 
1874.00, 
1875.00, 
1876.00, 
1877.00, 
1878.00, 
1879.00, 
1880.00, 
1881.00, 
1882.00, 
1883.00, 
1884.00, 
1885.00, 
1886.00, 
1887.00, 
1888.00, 
1889.00, 
1890.00, 
1891.00, 
1892.00, 
1893.00, 
1894.00, 
1895.00, 
1896.00, 
1897.00, 
1898.00, 
1899.00, 
1900.00, 
1901.00, 
1902.00, 
1903.00, 
1904.00, 
1905.00, 
1906.00, 
1907.00, 
1908.00, 
1909.00, 
1910.00, 
1911.00, 
1912.00, 
1913.00, 
1914.00, 
1915.00, 
1916.00, 
1917.00, 
1918.00, 
1919.00, 
1920.00, 
1921.00, 
1922.00, 
1923.00, 
1924.00, 
1925.00, 
1926.00, 
1927.00, 
1928.00, 
1929.00, 
1930.00, 
1931.00, 
1932.00, 
1933.00, 
1934.00, 
1935.00, 
1936.00, 
1937.00, 
1938.00, 
1939.00, 
1940.00, 
1941.00, 
1942.00, 
1943.00, 
1944.00, 
1945.00, 
1946.00, 
1947.00, 
1948.00, 
1949.00, 
1950.00, 
1951.00, 
1952.00, 
1953.00, 
1954.00, 
1955.00, 
1956.00, 
1957.00, 
1958.00, 
1959.00, 
1960.00, 
1961.00, 
1962.00, 
1963.00, 
1964.00, 
1965.00, 
1966.00, 
1967.00, 
1968.00, 
1969.00, 
1970.00, 
1971.00, 
1972.00, 
1973.00, 
1974.00, 
1975.00, 
1976.00, 
1977.00, 
1978.00, 
1979.00, 
1980.00, 
1981.00, 
1982.00, 
1983.00, 
1984.00, 
1985.00, 
1986.00, 
1987.00, 
1988.00, 
1989.00, 
1990.00, 
1991.00, 
1992.00, 
1993.00, 
1994.00, 
1995.00, 
1996.00, 
1997.00, 
1998.00, 
1999.00, 
2000.00, 
2001.00, 
2002.00, 
2003.00, 
2004.00, 
2005.00, 
2006.00, 
2007.00, 
2008.00, 
2009.00, 
2010.00, 
2011.00, 
2012.00, 
2013.00, 
2014.00, 
2015.00, 
2016.00, 
2017.00, 
2018.00, 
2019.00, 
2020.00, 
2021.00, 
2022.00, 
2023.00, 
2024.00, 
2025.00, 
2026.00, 
2027.00, 
2028.00, 
2029.00, 
2030.00, 
2031.00, 
2032.00, 
2033.00, 
2034.00, 
2035.00, 
2036.00, 
2037.00, 
2038.00, 
2039.00, 
2040.00, 
2041.00, 
2042.00, 
2043.00, 
2044.00, 
2045.00, 
2046.00, 
2047.00, 
2048.00, 
2049.00, 
2050.00, 
2051.00, 
2052.00, 
2053.00, 
2054.00, 
2055.00, 
2056.00, 
2057.00, 
2058.00, 
2059.00, 
2060.00, 
2061.00, 
2062.00, 
2063.00, 
2064.00, 
2065.00, 
2066.00, 
2067.00, 
2068.00, 
2069.00, 
2070.00, 
2071.00, 
2072.00, 
2073.00, 
2074.00, 
2075.00, 
2076.00, 
2077.00, 
2078.00, 
2079.00, 
2080.00, 
2081.00, 
2082.00, 
2083.00, 
2084.00, 
2085.00, 
2086.00, 
2087.00, 
2088.00, 
2089.00, 
2090.00, 
2091.00, 
2092.00, 
2093.00, 
2094.00, 
2095.00, 
2096.00, 
2097.00, 
2098.00, 
2099.00, 
2100.00, 
2101.00, 
2102.00, 
2103.00, 
2104.00, 
2105.00, 
2106.00, 
2107.00, 
2108.00, 
2109.00, 
2110.00, 
2111.00, 
2112.00, 
2113.00, 
2114.00, 
2115.00, 
2116.00, 
2117.00, 
2118.00, 
2119.00, 
2120.00, 
2121.00, 
2122.00, 
2123.00, 
2124.00, 
2125.00, 
2126.00, 
2127.00, 
2128.00, 
2129.00, 
2130.00, 
2131.00, 
2132.00, 
2133.00, 
2134.00, 
2135.00, 
2136.00, 
2137.00, 
2138.00, 
2139.00, 
2140.00, 
2141.00, 
2142.00, 
2143.00, 
2144.00, 
2145.00, 
2146.00, 
2147.00, 
2148.00, 
2149.00, 
2150.00, 
2151.00, 
2152.00, 
2153.00, 
2154.00, 
2155.00, 
2156.00, 
2157.00, 
2158.00, 
2159.00, 
2160.00, 
2161.00, 
2162.00, 
2163.00, 
2164.00, 
2165.00, 
2166.00, 
2167.00, 
2168.00, 
2169.00, 
2170.00, 
2171.00, 
2172.00, 
2173.00, 
2174.00, 
2175.00, 
2176.00, 
2177.00, 
2178.00, 
2179.00, 
2180.00, 
2181.00, 
2182.00, 
2183.00, 
2184.00, 
2185.00, 
2186.00, 
2187.00, 
2188.00, 
2189.00, 
2190.00, 
2191.00, 
2192.00, 
2193.00, 
2194.00, 
2195.00, 
2196.00, 
2197.00, 
2198.00, 
2199.00, 
2200.00, 
2201.00, 
2202.00, 
2203.00, 
2204.00, 
2205.00, 
2206.00, 
2207.00, 
2208.00, 
2209.00, 
2210.00, 
2211.00, 
2212.00, 
2213.00, 
2214.00, 
2215.00, 
2216.00, 
2217.00, 
2218.00, 
2219.00, 
2220.00, 
2221.00, 
2222.00, 
2223.00, 
2224.00, 
2225.00, 
2226.00, 
2227.00, 
2228.00, 
2229.00, 
2230.00, 
2231.00, 
2232.00, 
2233.00, 
2234.00, 
2235.00, 
2236.00, 
2237.00, 
2238.00, 
2239.00, 
2240.00, 
2241.00, 
2242.00, 
2243.00, 
2244.00, 
2245.00, 
2246.00, 
2247.00, 
2248.00, 
2249.00, 
2250.00, 
2251.00, 
2252.00, 
2253.00, 
2254.00, 
2255.00, 
2256.00, 
2257.00, 
2258.00, 
2259.00, 
2260.00, 
2261.00, 
2262.00, 
2263.00, 
2264.00, 
2265.00, 
2266.00, 
2267.00, 
2268.00, 
2269.00, 
2270.00, 
2271.00, 
2272.00, 
2273.00, 
2274.00, 
2275.00, 
2276.00, 
2277.00, 
2278.00, 
2279.00, 
2280.00, 
2281.00, 
2282.00, 
2283.00, 
2284.00, 
2285.00, 
2286.00, 
2287.00, 
2288.00, 
2289.00, 
2290.00, 
2291.00, 
2292.00, 
2293.00, 
2294.00, 
2295.00, 
2296.00, 
2297.00, 
2298.00, 
2299.00, 
2300.00, 
2301.00, 
2302.00, 
2303.00, 
2304.00, 
2305.00, 
2306.00, 
2307.00, 
2308.00, 
2309.00, 
2310.00, 
2311.00, 
2312.00, 
2313.00, 
2314.00, 
2315.00, 
2316.00, 
2317.00, 
2318.00, 
2319.00, 
2320.00, 
2321.00, 
2322.00, 
2323.00, 
2324.00, 
2325.00, 
2326.00, 
2327.00, 
2328.00, 
2329.00, 
2330.00, 
2331.00, 
2332.00, 
2333.00, 
2334.00, 
2335.00, 
2336.00, 
2337.00, 
2338.00, 
2339.00, 
2340.00, 
2341.00, 
2342.00, 
2343.00, 
2344.00, 
2345.00, 
2346.00, 
2347.00, 
2348.00, 
2349.00, 
2350.00, 
2351.00, 
2352.00, 
2353.00, 
2354.00, 
2355.00, 
2356.00, 
2357.00, 
2358.00, 
2359.00, 
2360.00, 
2361.00, 
2362.00, 
2363.00, 
2364.00, 
2365.00, 
2366.00, 
2367.00, 
2368.00, 
2369.00, 
2370.00, 
2371.00, 
2372.00, 
2373.00, 
2374.00, 
2375.00, 
2376.00, 
2377.00, 
2378.00, 
2379.00, 
2380.00, 
2381.00, 
2382.00, 
2383.00, 
2384.00, 
2385.00, 
2386.00, 
2387.00, 
2388.00, 
2389.00, 
2390.00, 
2391.00, 
2392.00, 
2393.00, 
2394.00, 
2395.00, 
2396.00, 
2397.00, 
2398.00, 
2399.00, 
2400.00, 
2401.00, 
2402.00, 
2403.00, 
2404.00, 
2405.00, 
2406.00, 
2407.00, 
2408.00, 
2409.00, 
2410.00, 
2411.00, 
2412.00, 
2413.00, 
2414.00, 
2415.00, 
2416.00, 
2417.00, 
2418.00, 
2419.00, 
2420.00, 
2421.00, 
2422.00, 
2423.00, 
2424.00, 
2425.00, 
2426.00, 
2427.00, 
2428.00, 
2429.00, 
2430.00, 
2431.00, 
2432.00, 
2433.00, 
2434.00, 
2435.00, 
2436.00, 
2437.00, 
2438.00, 
2439.00, 
2440.00, 
2441.00, 
2442.00, 
2443.00, 
2444.00, 
2445.00, 
2446.00, 
2447.00, 
2448.00, 
2449.00, 
2450.00, 
2451.00, 
2452.00, 
2453.00, 
2454.00, 
2455.00, 
2456.00, 
2457.00, 
2458.00, 
2459.00, 
2460.00, 
2461.00, 
2462.00, 
2463.00, 
2464.00, 
2465.00, 
2466.00, 
2467.00, 
2468.00, 
2469.00, 
2470.00, 
2471.00, 
2472.00, 
2473.00, 
2474.00, 
2475.00, 
2476.00, 
2477.00, 
2478.00, 
2479.00, 
2480.00, 
2481.00, 
2482.00, 
2483.00, 
2484.00, 
2485.00, 
2486.00, 
2487.00, 
2488.00, 
2489.00, 
2490.00, 
2491.00, 
2492.00, 
2493.00, 
2494.00, 
2495.00, 
2496.00, 
2497.00, 
2498.00, 
2499.00, 
2500.00, 
2501.00, 
2502.00, 
2503.00, 
2504.00, 
2505.00, 
2506.00, 
2507.00, 
2508.00, 
2509.00, 
2510.00, 
2511.00, 
2512.00, 
2513.00, 
2514.00, 
2515.00, 
2516.00, 
2517.00, 
2518.00, 
2519.00, 
2520.00, 
2521.00, 
2522.00, 
2523.00, 
2524.00, 
2525.00, 
2526.00, 
2527.00, 
2528.00, 
2529.00, 
2530.00, 
2531.00, 
2532.00, 
2533.00, 
2534.00, 
2535.00, 
2536.00, 
2537.00, 
2538.00, 
2539.00, 
2540.00, 
2541.00, 
2542.00, 
2543.00, 
2544.00, 
2545.00, 
2546.00, 
2547.00, 
2548.00, 
2549.00, 
2550.00, 
2551.00, 
2552.00, 
2553.00, 
2554.00, 
2555.00, 
2556.00, 
2557.00, 
2558.00, 
2559.00, 
2560.00, 
2561.00, 
2562.00, 
2563.00, 
2564.00, 
2565.00, 
2566.00, 
2567.00, 
2568.00, 
2569.00, 
2570.00, 
2571.00, 
2572.00, 
2573.00, 
2574.00, 
2575.00, 
2576.00, 
2577.00, 
2578.00, 
2579.00, 
2580.00, 
2581.00, 
2582.00, 
2583.00, 
2584.00, 
2585.00, 
2586.00, 
2587.00, 
2588.00, 
2589.00, 
2590.00, 
2591.00, 
2592.00, 
2593.00, 
2594.00, 
2595.00, 
2596.00, 
2597.00, 
2598.00, 
2599.00, 
2600.00, 
