"1cP5 - RawData"
"Wavelength nm.","T%"
200.00,0.004
201.00,-0.000
202.00,-0.001
203.00,0.001
204.00,0.001
205.00,0.002
206.00,-0.001
207.00,-0.000
208.00,-0.003
209.00,0.001
210.00,0.002
211.00,0.002
212.00,-0.001
213.00,0.000
214.00,0.000
215.00,-0.001
216.00,0.003
217.00,0.003
218.00,0.000
219.00,0.000
220.00,0.001
221.00,-0.000
222.00,-0.001
223.00,0.003
224.00,0.002
225.00,-0.002
226.00,-0.000
227.00,0.001
228.00,-0.000
229.00,0.003
230.00,0.000
231.00,0.003
232.00,0.001
233.00,0.001
234.00,0.001
235.00,-0.001
236.00,-0.001
237.00,0.002
238.00,0.000
239.00,-0.002
240.00,-0.001
241.00,-0.000
242.00,0.001
243.00,0.001
244.00,0.001
245.00,0.000
246.00,0.001
247.00,0.001
248.00,0.001
249.00,-0.000
250.00,0.003
251.00,0.000
252.00,-0.001
253.00,0.001
254.00,0.001
255.00,0.002
256.00,0.000
257.00,-0.001
258.00,-0.001
259.00,0.000
260.00,0.001
261.00,-0.001
262.00,-0.000
263.00,0.000
264.00,0.002
265.00,-0.002
266.00,-0.000
267.00,0.002
268.00,0.001
269.00,-0.000
270.00,0.000
271.00,0.002
272.00,-0.001
273.00,0.000
274.00,0.001
275.00,0.001
276.00,0.001
277.00,0.001
278.00,0.001
279.00,-0.001
280.00,-0.000
281.00,0.002
282.00,-0.000
283.00,-0.000
284.00,-0.002
285.00,0.000
286.00,0.000
287.00,-0.000
288.00,0.000
289.00,-0.000
290.00,0.001
291.00,-0.001
292.00,-0.001
293.00,0.000
294.00,0.000
295.00,0.000
296.00,-0.000
297.00,0.000
298.00,-0.001
299.00,0.001
300.00,0.001
301.00,0.001
302.00,-0.001
303.00,0.001
304.00,0.001
305.00,0.000
306.00,0.003
307.00,0.002
308.00,0.004
309.00,0.009
310.00,0.013
311.00,0.018
312.00,0.032
313.00,0.049
314.00,0.075
315.00,0.101
316.00,0.150
317.00,0.207
318.00,0.286
319.00,0.378
320.00,0.508
321.00,0.663
322.00,0.834
323.00,1.049
324.00,1.297
325.00,1.525
326.00,1.854
327.00,2.201
328.00,2.532
329.00,2.947
330.00,3.363
331.00,3.778
332.00,4.236
333.00,4.747
334.00,5.208
335.00,5.709
336.00,6.232
337.00,6.739
338.00,7.263
339.00,7.761
340.00,8.262
341.00,8.753
342.00,9.217
343.00,9.643
344.00,10.109
345.00,10.553
346.00,10.918
347.00,11.287
348.00,11.626
349.00,11.986
350.00,12.302
351.00,12.533
352.00,12.838
353.00,13.094
354.00,13.326
355.00,13.575
356.00,13.748
357.00,13.927
358.00,14.120
359.00,14.336
360.00,14.445
361.00,14.518
362.00,14.646
363.00,14.755
364.00,14.802
365.00,14.884
366.00,14.944
367.00,14.972
368.00,15.024
369.00,15.014
370.00,15.024
371.00,15.024
372.00,14.973
373.00,14.994
374.00,14.968
375.00,14.832
376.00,14.811
377.00,14.724
378.00,14.633
379.00,14.554
380.00,14.512
381.00,14.477
382.00,14.457
383.00,14.465
384.00,14.470
385.00,14.498
386.00,14.467
387.00,14.519
388.00,14.582
389.00,14.513
390.00,14.564
391.00,14.541
392.00,14.580
393.00,14.571
394.00,14.586
395.00,14.579
396.00,14.544
397.00,14.588
398.00,14.531
399.00,14.544
400.00,14.526
401.00,14.511
402.00,14.555
403.00,14.529
404.00,14.488
405.00,14.452
406.00,14.454
407.00,14.432
408.00,14.405
409.00,14.356
410.00,14.316
411.00,14.301
412.00,14.246
413.00,14.282
414.00,14.250
415.00,14.272
416.00,14.286
417.00,14.258
418.00,14.288
419.00,14.333
420.00,14.376
421.00,14.336
422.00,14.335
423.00,14.376
424.00,14.399
425.00,14.448
426.00,14.453
427.00,14.494
428.00,14.523
429.00,14.548
430.00,14.595
431.00,14.635
432.00,14.669
433.00,14.715
434.00,14.757
435.00,14.848
436.00,14.887
437.00,14.944
438.00,15.005
439.00,15.044
440.00,15.129
441.00,15.208
442.00,15.300
443.00,15.325
444.00,15.384
445.00,15.474
446.00,15.547
447.00,15.668
448.00,15.767
449.00,15.848
450.00,15.959
451.00,16.047
452.00,16.163
453.00,16.270
454.00,16.369
455.00,16.466
456.00,16.590
457.00,16.696
458.00,16.790
459.00,16.937
460.00,17.044
461.00,17.168
462.00,17.257
463.00,17.425
464.00,17.542
465.00,17.657
466.00,17.800
467.00,17.938
468.00,18.036
469.00,18.152
470.00,18.264
471.00,18.356
472.00,18.500
473.00,18.612
474.00,18.720
475.00,18.833
476.00,18.943
477.00,19.089
478.00,19.230
479.00,19.391
480.00,19.503
481.00,19.638
482.00,19.813
483.00,19.954
484.00,20.122
485.00,20.296
486.00,20.451
487.00,20.621
488.00,20.730
489.00,20.892
490.00,21.014
491.00,21.212
492.00,21.303
493.00,21.569
494.00,21.742
495.00,21.752
496.00,21.882
497.00,21.999
498.00,22.142
499.00,22.327
500.00,22.487
501.00,22.607
502.00,22.754
503.00,22.903
504.00,22.948
505.00,23.099
506.00,23.254
507.00,23.379
508.00,23.502
509.00,23.659
510.00,23.788
511.00,23.877
512.00,24.086
513.00,24.229
514.00,24.327
515.00,24.488
516.00,24.591
517.00,24.702
518.00,24.879
519.00,24.926
520.00,25.014
521.00,25.150
522.00,25.247
523.00,25.321
524.00,25.419
525.00,25.561
526.00,25.670
527.00,25.760
528.00,25.823
529.00,26.061
530.00,26.198
531.00,26.322
532.00,26.342
533.00,26.476
534.00,26.628
535.00,26.700
536.00,26.794
537.00,26.873
538.00,26.939
539.00,27.002
540.00,27.143
541.00,27.192
542.00,27.235
543.00,27.327
544.00,27.418
545.00,27.455
546.00,27.559
547.00,27.658
548.00,27.764
549.00,27.833
550.00,27.906
551.00,28.072
552.00,28.074
553.00,28.147
554.00,28.265
555.00,28.306
556.00,28.344
557.00,28.451
558.00,28.496
559.00,28.592
560.00,28.671
561.00,28.719
562.00,28.827
563.00,28.864
564.00,28.906
565.00,28.949
566.00,28.969
567.00,29.016
568.00,29.085
569.00,29.152
570.00,29.175
571.00,29.251
572.00,29.298
573.00,29.286
574.00,29.340
575.00,29.352
576.00,29.383
577.00,29.445
578.00,29.532
579.00,29.596
580.00,29.608
581.00,29.768
582.00,29.851
583.00,29.838
584.00,29.938
585.00,30.021
586.00,30.039
587.00,30.116
588.00,30.186
589.00,30.108
590.00,30.146
591.00,30.166
592.00,30.195
593.00,30.339
594.00,30.395
595.00,30.496
596.00,30.579
597.00,30.630
598.00,30.725
599.00,30.695
600.00,30.760
601.00,30.808
602.00,30.833
603.00,30.877
604.00,30.879
605.00,30.999
606.00,31.157
607.00,31.165
608.00,31.139
609.00,31.264
610.00,31.422
611.00,31.265
612.00,31.235
613.00,31.400
614.00,31.508
615.00,31.598
616.00,31.702
617.00,31.689
618.00,31.731
619.00,31.830
620.00,31.854
621.00,31.869
622.00,32.032
623.00,32.099
624.00,32.228
625.00,32.244
626.00,32.288
627.00,32.406
628.00,32.410
629.00,32.494
630.00,32.596
631.00,32.628
632.00,32.715
633.00,32.875
634.00,32.956
635.00,33.068
636.00,33.134
637.00,33.180
638.00,33.272
639.00,33.414
640.00,33.509
641.00,33.464
642.00,33.620
643.00,33.696
644.00,33.753
645.00,33.916
646.00,34.117
647.00,34.095
648.00,34.124
649.00,34.256
650.00,34.359
651.00,34.579
652.00,34.672
653.00,34.611
654.00,34.828
655.00,34.991
656.00,35.279
657.00,35.415
658.00,34.993
659.00,35.414
660.00,35.619
661.00,35.579
662.00,35.714
663.00,35.878
664.00,36.103
665.00,36.328
666.00,36.295
667.00,36.381
668.00,36.357
669.00,36.724
670.00,36.991
671.00,36.849
672.00,37.043
673.00,37.187
674.00,37.285
675.00,37.472
676.00,37.678
677.00,37.857
678.00,37.679
679.00,37.999
680.00,38.086
681.00,38.217
682.00,38.351
683.00,38.372
684.00,38.593
685.00,38.766
686.00,38.626
687.00,38.813
688.00,38.987
689.00,38.973
690.00,39.286
691.00,39.653
692.00,39.476
693.00,39.524
694.00,39.790
695.00,39.940
696.00,40.057
697.00,40.086
698.00,40.305
699.00,40.523
700.00,40.664
701.00,40.705
702.00,40.838
703.00,41.085
704.00,41.097
705.00,41.102
706.00,41.240
707.00,41.327
708.00,41.315
709.00,41.763
710.00,42.165
711.00,41.737
712.00,41.834
713.00,42.014
714.00,42.136
715.00,42.187
716.00,42.209
717.00,42.555
718.00,42.701
719.00,42.654
720.00,42.752
721.00,47.042
722.00,47.111
723.00,47.185
724.00,47.191
725.00,47.201
726.00,47.312
727.00,47.373
728.00,47.491
729.00,47.544
730.00,47.590
731.00,47.672
732.00,47.782
733.00,47.806
734.00,47.879
735.00,47.997
736.00,48.073
737.00,48.188
738.00,48.216
739.00,48.255
740.00,48.340
741.00,48.435
742.00,48.476
743.00,48.494
744.00,48.499
745.00,48.568
746.00,48.606
747.00,48.714
748.00,48.689
749.00,48.824
750.00,48.773
751.00,48.816
752.00,48.868
753.00,48.904
754.00,48.946
755.00,48.947
756.00,49.061
757.00,49.023
758.00,49.092
759.00,49.101
760.00,49.139
761.00,49.212
762.00,49.184
763.00,49.315
764.00,49.335
765.00,49.388
766.00,49.415
767.00,49.444
768.00,49.487
769.00,49.464
770.00,49.621
771.00,49.534
772.00,49.656
773.00,49.709
774.00,49.717
775.00,49.790
776.00,49.703
777.00,49.823
778.00,49.737
779.00,49.895
780.00,49.801
781.00,49.848
782.00,49.907
783.00,49.803
784.00,49.933
785.00,49.849
786.00,49.919
787.00,49.911
788.00,49.943
789.00,49.968
790.00,49.871
791.00,49.999
792.00,49.956
793.00,49.979
794.00,50.029
795.00,49.985
796.00,50.031
797.00,49.974
798.00,50.083
799.00,49.999
800.00,49.976
801.00,50.012
802.00,50.081
803.00,50.050
804.00,49.967
805.00,50.065
806.00,50.027
807.00,50.027
808.00,50.096
809.00,50.096
810.00,50.054
811.00,50.109
812.00,50.048
813.00,49.958
814.00,50.045
815.00,50.028
816.00,50.043
817.00,50.002
818.00,49.936
819.00,49.956
820.00,49.914
821.00,49.971
822.00,50.031
823.00,49.994
824.00,49.932
825.00,49.850
826.00,49.882
827.00,50.079
828.00,49.994
829.00,49.947
830.00,49.883
831.00,52.459
832.00,52.427
833.00,52.394
834.00,52.421
835.00,52.380
836.00,52.390
837.00,52.361
838.00,52.323
839.00,52.377
840.00,52.308
841.00,52.306
842.00,52.397
843.00,52.335
844.00,52.336
845.00,52.296
846.00,52.326
847.00,52.282
848.00,52.255
849.00,52.217
850.00,52.261
851.00,52.178
852.00,52.155
853.00,52.255
854.00,52.111
855.00,52.076
856.00,52.089
857.00,52.049
858.00,52.031
859.00,52.031
860.00,52.052
861.00,52.058
862.00,51.982
863.00,52.022
864.00,52.011
865.00,52.016
866.00,52.020
867.00,51.980
868.00,51.969
869.00,51.959
870.00,51.976
871.00,51.955
872.00,51.957
873.00,51.915
874.00,51.981
875.00,51.904
876.00,51.897
877.00,51.916
878.00,51.942
879.00,51.879
880.00,51.881
881.00,51.839
882.00,51.933
883.00,51.862
884.00,51.829
885.00,51.821
886.00,51.811
887.00,51.769
888.00,51.755
889.00,51.748
890.00,51.761
891.00,51.711
892.00,51.704
893.00,51.703
894.00,51.674
895.00,51.618
896.00,51.644
897.00,51.624
898.00,51.552
899.00,51.721
900.00,51.595
901.00,51.587
902.00,51.620
903.00,51.578
904.00,51.559
905.00,51.561
906.00,51.540
907.00,51.509
908.00,51.480
909.00,51.454
910.00,51.456
911.00,51.454
912.00,51.420
913.00,51.448
914.00,51.324
915.00,51.378
916.00,51.345
917.00,51.336
918.00,51.329
919.00,51.303
920.00,51.259
921.00,51.313
922.00,51.217
923.00,51.264
924.00,51.175
925.00,51.230
926.00,51.226
927.00,51.193
928.00,51.170
929.00,51.183
930.00,51.129
931.00,51.108
932.00,51.058
933.00,51.076
934.00,51.075
935.00,51.059
936.00,51.020
937.00,50.998
938.00,51.082
939.00,51.012
940.00,50.967
941.00,50.980
942.00,50.931
943.00,50.932
944.00,50.884
945.00,50.905
946.00,50.800
947.00,50.827
948.00,50.817
949.00,50.826
950.00,50.810
951.00,50.765
952.00,50.774
953.00,50.730
954.00,50.717
955.00,50.675
956.00,50.667
957.00,50.619
958.00,50.644
959.00,50.575
960.00,50.584
961.00,50.569
962.00,50.562
963.00,50.538
964.00,50.532
965.00,50.553
966.00,50.514
967.00,50.511
968.00,50.470
969.00,50.513
970.00,50.483
971.00,50.497
972.00,50.473
973.00,50.527
974.00,50.549
975.00,50.497
976.00,50.503
977.00,50.487
978.00,50.530
979.00,50.492
980.00,50.505
981.00,50.514
982.00,50.465
983.00,50.491
984.00,50.465
985.00,50.490
986.00,50.450
987.00,50.477
988.00,50.454
989.00,50.444
990.00,50.429
991.00,50.415
992.00,50.427
993.00,50.385
994.00,50.374
995.00,50.349
996.00,50.352
997.00,50.329
998.00,50.316
999.00,50.343
1000.00,50.295
1001.00,50.301
1002.00,50.278
1003.00,50.270
1004.00,50.252
1005.00,50.228
1006.00,50.269
1007.00,50.227
1008.00,50.221
1009.00,50.204
1010.00,50.201
1011.00,50.191
1012.00,50.161
1013.00,50.162
1014.00,50.126
1015.00,50.153
1016.00,50.112
1017.00,50.100
1018.00,50.084
1019.00,50.050
1020.00,50.046
1021.00,50.039
1022.00,50.028
1023.00,49.974
1024.00,49.992
1025.00,49.962
1026.00,49.961
1027.00,49.942
1028.00,49.928
1029.00,49.928
1030.00,49.883
1031.00,49.911
1032.00,49.866
1033.00,49.865
1034.00,49.844
1035.00,49.805
1036.00,49.784
1037.00,49.786
1038.00,49.761
1039.00,49.733
1040.00,49.755
1041.00,49.697
1042.00,49.706
1043.00,49.670
1044.00,49.699
1045.00,49.685
1046.00,49.658
1047.00,49.686
1048.00,49.704
1049.00,49.712
1050.00,49.722
1051.00,49.766
1052.00,49.756
1053.00,49.754
1054.00,49.759
1055.00,49.781
1056.00,49.786
1057.00,49.784
1058.00,49.763
1059.00,49.757
1060.00,49.770
1061.00,49.737
1062.00,49.742
1063.00,49.742
1064.00,49.752
1065.00,49.746
1066.00,49.740
1067.00,49.733
1068.00,49.757
1069.00,49.719
1070.00,49.692
1071.00,49.687
1072.00,49.697
1073.00,49.682
1074.00,49.677
1075.00,49.667
1076.00,49.663
1077.00,49.648
1078.00,49.632
1079.00,49.631
1080.00,49.640
1081.00,49.621
1082.00,49.622
1083.00,49.623
1084.00,49.613
1085.00,49.608
1086.00,49.594
1087.00,49.604
1088.00,49.576
1089.00,49.572
1090.00,49.566
1091.00,49.583
1092.00,49.572
1093.00,49.550
1094.00,49.536
1095.00,49.529
1096.00,49.494
1097.00,49.504
1098.00,49.499
1099.00,49.487
1100.00,49.476
1101.00,49.483
1102.00,49.461
1103.00,49.470
1104.00,49.454
1105.00,49.444
1106.00,49.433
1107.00,49.422
1108.00,49.418
1109.00,49.410
1110.00,49.394
1111.00,49.392
1112.00,49.380
1113.00,49.380
1114.00,49.357
1115.00,49.367
1116.00,49.360
1117.00,49.360
1118.00,49.350
1119.00,49.352
1120.00,49.352
1121.00,49.357
1122.00,49.355
1123.00,49.320
1124.00,49.303
1125.00,49.305
1126.00,49.287
1127.00,49.290
1128.00,49.279
1129.00,49.263
1130.00,49.252
1131.00,49.271
1132.00,49.262
1133.00,49.252
1134.00,49.258
1135.00,49.249
1136.00,49.253
1137.00,49.277
1138.00,49.249
1139.00,49.266
1140.00,49.238
1141.00,49.245
1142.00,49.223
1143.00,49.241
1144.00,49.218
1145.00,49.218
1146.00,49.218
1147.00,49.213
1148.00,49.206
1149.00,49.232
1150.00,49.234
1151.00,49.217
1152.00,49.196
1153.00,49.205
1154.00,49.190
1155.00,49.206
1156.00,49.188
1157.00,49.203
1158.00,49.198
1159.00,49.206
1160.00,49.184
1161.00,49.203
1162.00,49.184
1163.00,49.175
1164.00,49.185
1165.00,49.172
1166.00,49.177
1167.00,49.172
1168.00,49.183
1169.00,49.175
1170.00,49.171
1171.00,49.151
1172.00,49.170
1173.00,49.157
1174.00,49.182
1175.00,49.163
1176.00,49.170
1177.00,49.167
1178.00,49.146
1179.00,49.155
1180.00,49.162
1181.00,49.177
1182.00,49.158
1183.00,49.189
1184.00,49.156
1185.00,49.163
1186.00,49.151
1187.00,49.137
1188.00,49.135
1189.00,49.124
1190.00,49.122
1191.00,49.116
1192.00,49.134
1193.00,49.126
1194.00,49.137
1195.00,49.136
1196.00,49.179
1197.00,49.194
1198.00,49.171
1199.00,49.148
1200.00,49.172
1201.00,49.186
1202.00,49.146
1203.00,49.149
1204.00,49.137
1205.00,49.167
1206.00,49.158
1207.00,49.160
1208.00,49.148
1209.00,49.147
1210.00,49.135
1211.00,49.151
1212.00,49.152
1213.00,49.123
1214.00,49.186
1215.00,49.139
1216.00,49.148
1217.00,49.155
1218.00,49.142
1219.00,49.170
1220.00,49.146
1221.00,49.166
1222.00,49.144
1223.00,49.172
1224.00,49.172
1225.00,49.160
1226.00,49.169
1227.00,49.170
1228.00,49.198
1229.00,49.188
1230.00,49.210
1231.00,49.199
1232.00,49.223
1233.00,49.220
1234.00,49.215
1235.00,49.224
1236.00,49.223
1237.00,49.226
1238.00,49.237
1239.00,49.244
1240.00,49.237
1241.00,49.235
1242.00,49.232
1243.00,49.232
1244.00,49.214
1245.00,49.253
1246.00,49.260
1247.00,49.254
1248.00,49.251
1249.00,49.271
1250.00,49.279
1251.00,49.254
1252.00,49.270
1253.00,49.258
1254.00,49.302
1255.00,49.270
1256.00,49.275
1257.00,49.253
1258.00,49.304
1259.00,49.319
1260.00,49.345
1261.00,49.331
1262.00,49.321
1263.00,49.324
1264.00,49.331
1265.00,49.334
1266.00,49.334
1267.00,49.348
1268.00,49.350
1269.00,49.347
1270.00,49.365
1271.00,49.378
1272.00,49.370
1273.00,49.395
1274.00,49.385
1275.00,49.389
1276.00,49.378
1277.00,49.393
1278.00,49.404
1279.00,49.404
1280.00,49.399
1281.00,49.425
1282.00,49.435
1283.00,49.428
1284.00,49.448
1285.00,49.428
1286.00,49.453
1287.00,49.456
1288.00,49.457
1289.00,49.451
1290.00,49.477
1291.00,49.474
1292.00,49.477
1293.00,49.489
1294.00,49.494
1295.00,49.491
1296.00,49.494
1297.00,49.502
1298.00,49.545
1299.00,49.505
1300.00,49.534
1301.00,49.524
1302.00,49.548
1303.00,49.545
1304.00,49.551
1305.00,49.566
1306.00,49.563
1307.00,49.579
1308.00,49.577
1309.00,49.585
1310.00,49.573
1311.00,49.551
1312.00,49.588
1313.00,49.586
1314.00,49.625
1315.00,49.658
1316.00,49.623
1317.00,49.667
1318.00,49.647
1319.00,49.661
1320.00,49.677
1321.00,49.852
1322.00,49.834
1323.00,49.821
1324.00,49.822
1325.00,49.805
1326.00,49.844
1327.00,49.822
1328.00,49.820
1329.00,49.837
1330.00,49.819
1331.00,49.817
1332.00,49.838
1333.00,49.817
1334.00,49.866
1335.00,49.878
1336.00,49.917
1337.00,49.930
1338.00,50.004
1339.00,50.052
1340.00,50.123
1341.00,50.175
1342.00,50.242
1343.00,50.300
1344.00,50.349
1345.00,50.395
1346.00,50.436
1347.00,50.457
1348.00,50.485
1349.00,50.491
1350.00,50.520
1351.00,50.523
1352.00,50.552
1353.00,50.538
1354.00,50.568
1355.00,50.517
1356.00,50.545
1357.00,50.542
1358.00,50.608
1359.00,50.567
1360.00,50.542
1361.00,50.561
1362.00,50.542
1363.00,50.433
1364.00,50.625
1365.00,50.613
1366.00,50.650
1367.00,50.589
1368.00,50.635
1369.00,50.625
1370.00,50.609
1371.00,50.583
1372.00,50.589
1373.00,50.606
1374.00,50.625
1375.00,50.591
1376.00,50.610
1377.00,50.580
1378.00,50.663
1379.00,50.613
1380.00,50.619
1381.00,50.647
1382.00,50.588
1383.00,50.619
1384.00,50.561
1385.00,50.591
1386.00,50.594
1387.00,50.592
1388.00,50.561
1389.00,50.585
1390.00,50.606
1391.00,50.570
1392.00,50.608
1393.00,50.637
1394.00,50.639
1395.00,50.506
1396.00,50.552
1397.00,50.620
1398.00,50.642
1399.00,50.601
1400.00,50.573
1401.00,50.588
1402.00,50.687
1403.00,50.575
1404.00,50.618
1405.00,50.661
1406.00,50.675
1407.00,50.680
1408.00,50.644
1409.00,50.629
1410.00,50.717
1411.00,50.699
1412.00,50.760
1413.00,50.638
1414.00,50.660
1415.00,50.728
1416.00,50.742
1417.00,50.776
1418.00,50.730
1419.00,50.740
1420.00,50.785
1421.00,50.837
1422.00,50.817
1423.00,50.840
1424.00,50.841
1425.00,50.869
1426.00,50.884
1427.00,50.905
1428.00,50.910
1429.00,50.931
1430.00,50.944
1431.00,50.965
1432.00,50.972
1433.00,50.992
1434.00,50.989
1435.00,51.051
1436.00,51.037
1437.00,51.036
1438.00,51.049
1439.00,51.086
1440.00,51.107
1441.00,51.118
1442.00,51.138
1443.00,51.157
1444.00,51.219
1445.00,51.180
1446.00,51.223
1447.00,51.242
1448.00,51.283
1449.00,51.276
1450.00,51.295
1451.00,51.302
1452.00,51.328
1453.00,51.364
1454.00,51.362
1455.00,51.386
1456.00,51.411
1457.00,51.403
1458.00,51.440
1459.00,51.440
1460.00,51.485
1461.00,51.466
1462.00,51.501
1463.00,51.493
1464.00,51.525
1465.00,51.542
1466.00,51.542
1467.00,51.557
1468.00,51.617
1469.00,51.590
1470.00,51.643
1471.00,51.656
1472.00,51.647
1473.00,51.659
1474.00,51.696
1475.00,51.721
1476.00,51.729
1477.00,51.705
1478.00,51.739
1479.00,51.743
1480.00,51.742
1481.00,51.760
1482.00,51.799
1483.00,51.820
1484.00,51.833
1485.00,51.837
1486.00,51.869
1487.00,51.883
1488.00,51.905
1489.00,51.896
1490.00,51.917
1491.00,51.918
1492.00,51.959
1493.00,51.934
1494.00,51.984
1495.00,51.975
1496.00,52.001
1497.00,51.982
1498.00,52.003
1499.00,52.018
1500.00,52.027
1501.00, 
1502.00, 
1503.00, 
1504.00, 
1505.00, 
1506.00, 
1507.00, 
1508.00, 
1509.00, 
1510.00, 
1511.00, 
1512.00, 
1513.00, 
1514.00, 
1515.00, 
1516.00, 
1517.00, 
1518.00, 
1519.00, 
1520.00, 
1521.00, 
1522.00, 
1523.00, 
1524.00, 
1525.00, 
1526.00, 
1527.00, 
1528.00, 
1529.00, 
1530.00, 
1531.00, 
1532.00, 
1533.00, 
1534.00, 
1535.00, 
1536.00, 
1537.00, 
1538.00, 
1539.00, 
1540.00, 
1541.00, 
1542.00, 
1543.00, 
1544.00, 
1545.00, 
1546.00, 
1547.00, 
1548.00, 
1549.00, 
1550.00, 
1551.00, 
1552.00, 
1553.00, 
1554.00, 
1555.00, 
1556.00, 
1557.00, 
1558.00, 
1559.00, 
1560.00, 
1561.00, 
1562.00, 
1563.00, 
1564.00, 
1565.00, 
1566.00, 
1567.00, 
1568.00, 
1569.00, 
1570.00, 
1571.00, 
1572.00, 
1573.00, 
1574.00, 
1575.00, 
1576.00, 
1577.00, 
1578.00, 
1579.00, 
1580.00, 
1581.00, 
1582.00, 
1583.00, 
1584.00, 
1585.00, 
1586.00, 
1587.00, 
1588.00, 
1589.00, 
1590.00, 
1591.00, 
1592.00, 
1593.00, 
1594.00, 
1595.00, 
1596.00, 
1597.00, 
1598.00, 
1599.00, 
1600.00, 
1601.00, 
1602.00, 
1603.00, 
1604.00, 
1605.00, 
1606.00, 
1607.00, 
1608.00, 
1609.00, 
1610.00, 
1611.00, 
1612.00, 
1613.00, 
1614.00, 
1615.00, 
1616.00, 
1617.00, 
1618.00, 
1619.00, 
1620.00, 
1621.00, 
1622.00, 
1623.00, 
1624.00, 
1625.00, 
1626.00, 
1627.00, 
1628.00, 
1629.00, 
1630.00, 
1631.00, 
1632.00, 
1633.00, 
1634.00, 
1635.00, 
1636.00, 
1637.00, 
1638.00, 
1639.00, 
1640.00, 
1641.00, 
1642.00, 
1643.00, 
1644.00, 
1645.00, 
1646.00, 
1647.00, 
1648.00, 
1649.00, 
1650.00, 
1651.00, 
1652.00, 
1653.00, 
1654.00, 
1655.00, 
1656.00, 
1657.00, 
1658.00, 
1659.00, 
1660.00, 
1661.00, 
1662.00, 
1663.00, 
1664.00, 
1665.00, 
1666.00, 
1667.00, 
1668.00, 
1669.00, 
1670.00, 
1671.00, 
1672.00, 
1673.00, 
1674.00, 
1675.00, 
1676.00, 
1677.00, 
1678.00, 
1679.00, 
1680.00, 
1681.00, 
1682.00, 
1683.00, 
1684.00, 
1685.00, 
1686.00, 
1687.00, 
1688.00, 
1689.00, 
1690.00, 
1691.00, 
1692.00, 
1693.00, 
1694.00, 
1695.00, 
1696.00, 
1697.00, 
1698.00, 
1699.00, 
1700.00, 
1701.00, 
1702.00, 
1703.00, 
1704.00, 
1705.00, 
1706.00, 
1707.00, 
1708.00, 
1709.00, 
1710.00, 
1711.00, 
1712.00, 
1713.00, 
1714.00, 
1715.00, 
1716.00, 
1717.00, 
1718.00, 
1719.00, 
1720.00, 
1721.00, 
1722.00, 
1723.00, 
1724.00, 
1725.00, 
1726.00, 
1727.00, 
1728.00, 
1729.00, 
1730.00, 
1731.00, 
1732.00, 
1733.00, 
1734.00, 
1735.00, 
1736.00, 
1737.00, 
1738.00, 
1739.00, 
1740.00, 
1741.00, 
1742.00, 
1743.00, 
1744.00, 
1745.00, 
1746.00, 
1747.00, 
1748.00, 
1749.00, 
1750.00, 
1751.00, 
1752.00, 
1753.00, 
1754.00, 
1755.00, 
1756.00, 
1757.00, 
1758.00, 
1759.00, 
1760.00, 
1761.00, 
1762.00, 
1763.00, 
1764.00, 
1765.00, 
1766.00, 
1767.00, 
1768.00, 
1769.00, 
1770.00, 
1771.00, 
1772.00, 
1773.00, 
1774.00, 
1775.00, 
1776.00, 
1777.00, 
1778.00, 
1779.00, 
1780.00, 
1781.00, 
1782.00, 
1783.00, 
1784.00, 
1785.00, 
1786.00, 
1787.00, 
1788.00, 
1789.00, 
1790.00, 
1791.00, 
1792.00, 
1793.00, 
1794.00, 
1795.00, 
1796.00, 
1797.00, 
1798.00, 
1799.00, 
1800.00, 
1801.00, 
1802.00, 
1803.00, 
1804.00, 
1805.00, 
1806.00, 
1807.00, 
1808.00, 
1809.00, 
1810.00, 
1811.00, 
1812.00, 
1813.00, 
1814.00, 
1815.00, 
1816.00, 
1817.00, 
1818.00, 
1819.00, 
1820.00, 
1821.00, 
1822.00, 
1823.00, 
1824.00, 
1825.00, 
1826.00, 
1827.00, 
1828.00, 
1829.00, 
1830.00, 
1831.00, 
1832.00, 
1833.00, 
1834.00, 
1835.00, 
1836.00, 
1837.00, 
1838.00, 
1839.00, 
1840.00, 
1841.00, 
1842.00, 
1843.00, 
1844.00, 
1845.00, 
1846.00, 
1847.00, 
1848.00, 
1849.00, 
1850.00, 
1851.00, 
1852.00, 
1853.00, 
1854.00, 
1855.00, 
1856.00, 
1857.00, 
1858.00, 
1859.00, 
1860.00, 
1861.00, 
1862.00, 
1863.00, 
1864.00, 
1865.00, 
1866.00, 
1867.00, 
1868.00, 
1869.00, 
1870.00, 
1871.00, 
1872.00, 
1873.00, 
1874.00, 
1875.00, 
1876.00, 
1877.00, 
1878.00, 
1879.00, 
1880.00, 
1881.00, 
1882.00, 
1883.00, 
1884.00, 
1885.00, 
1886.00, 
1887.00, 
1888.00, 
1889.00, 
1890.00, 
1891.00, 
1892.00, 
1893.00, 
1894.00, 
1895.00, 
1896.00, 
1897.00, 
1898.00, 
1899.00, 
1900.00, 
1901.00, 
1902.00, 
1903.00, 
1904.00, 
1905.00, 
1906.00, 
1907.00, 
1908.00, 
1909.00, 
1910.00, 
1911.00, 
1912.00, 
1913.00, 
1914.00, 
1915.00, 
1916.00, 
1917.00, 
1918.00, 
1919.00, 
1920.00, 
1921.00, 
1922.00, 
1923.00, 
1924.00, 
1925.00, 
1926.00, 
1927.00, 
1928.00, 
1929.00, 
1930.00, 
1931.00, 
1932.00, 
1933.00, 
1934.00, 
1935.00, 
1936.00, 
1937.00, 
1938.00, 
1939.00, 
1940.00, 
1941.00, 
1942.00, 
1943.00, 
1944.00, 
1945.00, 
1946.00, 
1947.00, 
1948.00, 
1949.00, 
1950.00, 
1951.00, 
1952.00, 
1953.00, 
1954.00, 
1955.00, 
1956.00, 
1957.00, 
1958.00, 
1959.00, 
1960.00, 
1961.00, 
1962.00, 
1963.00, 
1964.00, 
1965.00, 
1966.00, 
1967.00, 
1968.00, 
1969.00, 
1970.00, 
1971.00, 
1972.00, 
1973.00, 
1974.00, 
1975.00, 
1976.00, 
1977.00, 
1978.00, 
1979.00, 
1980.00, 
1981.00, 
1982.00, 
1983.00, 
1984.00, 
1985.00, 
1986.00, 
1987.00, 
1988.00, 
1989.00, 
1990.00, 
1991.00, 
1992.00, 
1993.00, 
1994.00, 
1995.00, 
1996.00, 
1997.00, 
1998.00, 
1999.00, 
2000.00, 
2001.00, 
2002.00, 
2003.00, 
2004.00, 
2005.00, 
2006.00, 
2007.00, 
2008.00, 
2009.00, 
2010.00, 
2011.00, 
2012.00, 
2013.00, 
2014.00, 
2015.00, 
2016.00, 
2017.00, 
2018.00, 
2019.00, 
2020.00, 
2021.00, 
2022.00, 
2023.00, 
2024.00, 
2025.00, 
2026.00, 
2027.00, 
2028.00, 
2029.00, 
2030.00, 
2031.00, 
2032.00, 
2033.00, 
2034.00, 
2035.00, 
2036.00, 
2037.00, 
2038.00, 
2039.00, 
2040.00, 
2041.00, 
2042.00, 
2043.00, 
2044.00, 
2045.00, 
2046.00, 
2047.00, 
2048.00, 
2049.00, 
2050.00, 
2051.00, 
2052.00, 
2053.00, 
2054.00, 
2055.00, 
2056.00, 
2057.00, 
2058.00, 
2059.00, 
2060.00, 
2061.00, 
2062.00, 
2063.00, 
2064.00, 
2065.00, 
2066.00, 
2067.00, 
2068.00, 
2069.00, 
2070.00, 
2071.00, 
2072.00, 
2073.00, 
2074.00, 
2075.00, 
2076.00, 
2077.00, 
2078.00, 
2079.00, 
2080.00, 
2081.00, 
2082.00, 
2083.00, 
2084.00, 
2085.00, 
2086.00, 
2087.00, 
2088.00, 
2089.00, 
2090.00, 
2091.00, 
2092.00, 
2093.00, 
2094.00, 
2095.00, 
2096.00, 
2097.00, 
2098.00, 
2099.00, 
2100.00, 
2101.00, 
2102.00, 
2103.00, 
2104.00, 
2105.00, 
2106.00, 
2107.00, 
2108.00, 
2109.00, 
2110.00, 
2111.00, 
2112.00, 
2113.00, 
2114.00, 
2115.00, 
2116.00, 
2117.00, 
2118.00, 
2119.00, 
2120.00, 
2121.00, 
2122.00, 
2123.00, 
2124.00, 
2125.00, 
2126.00, 
2127.00, 
2128.00, 
2129.00, 
2130.00, 
2131.00, 
2132.00, 
2133.00, 
2134.00, 
2135.00, 
2136.00, 
2137.00, 
2138.00, 
2139.00, 
2140.00, 
2141.00, 
2142.00, 
2143.00, 
2144.00, 
2145.00, 
2146.00, 
2147.00, 
2148.00, 
2149.00, 
2150.00, 
2151.00, 
2152.00, 
2153.00, 
2154.00, 
2155.00, 
2156.00, 
2157.00, 
2158.00, 
2159.00, 
2160.00, 
2161.00, 
2162.00, 
2163.00, 
2164.00, 
2165.00, 
2166.00, 
2167.00, 
2168.00, 
2169.00, 
2170.00, 
2171.00, 
2172.00, 
2173.00, 
2174.00, 
2175.00, 
2176.00, 
2177.00, 
2178.00, 
2179.00, 
2180.00, 
2181.00, 
2182.00, 
2183.00, 
2184.00, 
2185.00, 
2186.00, 
2187.00, 
2188.00, 
2189.00, 
2190.00, 
2191.00, 
2192.00, 
2193.00, 
2194.00, 
2195.00, 
2196.00, 
2197.00, 
2198.00, 
2199.00, 
2200.00, 
2201.00, 
2202.00, 
2203.00, 
2204.00, 
2205.00, 
2206.00, 
2207.00, 
2208.00, 
2209.00, 
2210.00, 
2211.00, 
2212.00, 
2213.00, 
2214.00, 
2215.00, 
2216.00, 
2217.00, 
2218.00, 
2219.00, 
2220.00, 
2221.00, 
2222.00, 
2223.00, 
2224.00, 
2225.00, 
2226.00, 
2227.00, 
2228.00, 
2229.00, 
2230.00, 
2231.00, 
2232.00, 
2233.00, 
2234.00, 
2235.00, 
2236.00, 
2237.00, 
2238.00, 
2239.00, 
2240.00, 
2241.00, 
2242.00, 
2243.00, 
2244.00, 
2245.00, 
2246.00, 
2247.00, 
2248.00, 
2249.00, 
2250.00, 
2251.00, 
2252.00, 
2253.00, 
2254.00, 
2255.00, 
2256.00, 
2257.00, 
2258.00, 
2259.00, 
2260.00, 
2261.00, 
2262.00, 
2263.00, 
2264.00, 
2265.00, 
2266.00, 
2267.00, 
2268.00, 
2269.00, 
2270.00, 
2271.00, 
2272.00, 
2273.00, 
2274.00, 
2275.00, 
2276.00, 
2277.00, 
2278.00, 
2279.00, 
2280.00, 
2281.00, 
2282.00, 
2283.00, 
2284.00, 
2285.00, 
2286.00, 
2287.00, 
2288.00, 
2289.00, 
2290.00, 
2291.00, 
2292.00, 
2293.00, 
2294.00, 
2295.00, 
2296.00, 
2297.00, 
2298.00, 
2299.00, 
2300.00, 
2301.00, 
2302.00, 
2303.00, 
2304.00, 
2305.00, 
2306.00, 
2307.00, 
2308.00, 
2309.00, 
2310.00, 
2311.00, 
2312.00, 
2313.00, 
2314.00, 
2315.00, 
2316.00, 
2317.00, 
2318.00, 
2319.00, 
2320.00, 
2321.00, 
2322.00, 
2323.00, 
2324.00, 
2325.00, 
2326.00, 
2327.00, 
2328.00, 
2329.00, 
2330.00, 
2331.00, 
2332.00, 
2333.00, 
2334.00, 
2335.00, 
2336.00, 
2337.00, 
2338.00, 
2339.00, 
2340.00, 
2341.00, 
2342.00, 
2343.00, 
2344.00, 
2345.00, 
2346.00, 
2347.00, 
2348.00, 
2349.00, 
2350.00, 
2351.00, 
2352.00, 
2353.00, 
2354.00, 
2355.00, 
2356.00, 
2357.00, 
2358.00, 
2359.00, 
2360.00, 
2361.00, 
2362.00, 
2363.00, 
2364.00, 
2365.00, 
2366.00, 
2367.00, 
2368.00, 
2369.00, 
2370.00, 
2371.00, 
2372.00, 
2373.00, 
2374.00, 
2375.00, 
2376.00, 
2377.00, 
2378.00, 
2379.00, 
2380.00, 
2381.00, 
2382.00, 
2383.00, 
2384.00, 
2385.00, 
2386.00, 
2387.00, 
2388.00, 
2389.00, 
2390.00, 
2391.00, 
2392.00, 
2393.00, 
2394.00, 
2395.00, 
2396.00, 
2397.00, 
2398.00, 
2399.00, 
2400.00, 
2401.00, 
2402.00, 
2403.00, 
2404.00, 
2405.00, 
2406.00, 
2407.00, 
2408.00, 
2409.00, 
2410.00, 
2411.00, 
2412.00, 
2413.00, 
2414.00, 
2415.00, 
2416.00, 
2417.00, 
2418.00, 
2419.00, 
2420.00, 
2421.00, 
2422.00, 
2423.00, 
2424.00, 
2425.00, 
2426.00, 
2427.00, 
2428.00, 
2429.00, 
2430.00, 
2431.00, 
2432.00, 
2433.00, 
2434.00, 
2435.00, 
2436.00, 
2437.00, 
2438.00, 
2439.00, 
2440.00, 
2441.00, 
2442.00, 
2443.00, 
2444.00, 
2445.00, 
2446.00, 
2447.00, 
2448.00, 
2449.00, 
2450.00, 
2451.00, 
2452.00, 
2453.00, 
2454.00, 
2455.00, 
2456.00, 
2457.00, 
2458.00, 
2459.00, 
2460.00, 
2461.00, 
2462.00, 
2463.00, 
2464.00, 
2465.00, 
2466.00, 
2467.00, 
2468.00, 
2469.00, 
2470.00, 
2471.00, 
2472.00, 
2473.00, 
2474.00, 
2475.00, 
2476.00, 
2477.00, 
2478.00, 
2479.00, 
2480.00, 
2481.00, 
2482.00, 
2483.00, 
2484.00, 
2485.00, 
2486.00, 
2487.00, 
2488.00, 
2489.00, 
2490.00, 
2491.00, 
2492.00, 
2493.00, 
2494.00, 
2495.00, 
2496.00, 
2497.00, 
2498.00, 
2499.00, 
2500.00, 
2501.00, 
2502.00, 
2503.00, 
2504.00, 
2505.00, 
2506.00, 
2507.00, 
2508.00, 
2509.00, 
2510.00, 
2511.00, 
2512.00, 
2513.00, 
2514.00, 
2515.00, 
2516.00, 
2517.00, 
2518.00, 
2519.00, 
2520.00, 
2521.00, 
2522.00, 
2523.00, 
2524.00, 
2525.00, 
2526.00, 
2527.00, 
2528.00, 
2529.00, 
2530.00, 
2531.00, 
2532.00, 
2533.00, 
2534.00, 
2535.00, 
2536.00, 
2537.00, 
2538.00, 
2539.00, 
2540.00, 
2541.00, 
2542.00, 
2543.00, 
2544.00, 
2545.00, 
2546.00, 
2547.00, 
2548.00, 
2549.00, 
2550.00, 
2551.00, 
2552.00, 
2553.00, 
2554.00, 
2555.00, 
2556.00, 
2557.00, 
2558.00, 
2559.00, 
2560.00, 
2561.00, 
2562.00, 
2563.00, 
2564.00, 
2565.00, 
2566.00, 
2567.00, 
2568.00, 
2569.00, 
2570.00, 
2571.00, 
2572.00, 
2573.00, 
2574.00, 
2575.00, 
2576.00, 
2577.00, 
2578.00, 
2579.00, 
2580.00, 
2581.00, 
2582.00, 
2583.00, 
2584.00, 
2585.00, 
2586.00, 
2587.00, 
2588.00, 
2589.00, 
2590.00, 
2591.00, 
2592.00, 
2593.00, 
2594.00, 
2595.00, 
2596.00, 
2597.00, 
2598.00, 
2599.00, 
2600.00, 
