"2cP2 - RawData"
"Wavelength nm.","T%"
200.00,0.001
201.00,0.002
202.00,0.003
203.00,0.002
204.00,-0.002
205.00,0.003
206.00,0.002
207.00,0.004
208.00,0.001
209.00,-0.001
210.00,0.002
211.00,0.001
212.00,0.001
213.00,-0.000
214.00,0.001
215.00,0.000
216.00,0.003
217.00,0.001
218.00,0.002
219.00,-0.000
220.00,0.003
221.00,-0.000
222.00,0.000
223.00,0.001
224.00,0.000
225.00,0.001
226.00,0.000
227.00,0.001
228.00,0.001
229.00,0.002
230.00,0.002
231.00,-0.001
232.00,0.000
233.00,0.002
234.00,0.001
235.00,-0.001
236.00,0.001
237.00,-0.000
238.00,0.001
239.00,-0.000
240.00,0.000
241.00,-0.000
242.00,0.001
243.00,0.001
244.00,0.002
245.00,0.001
246.00,0.000
247.00,0.001
248.00,0.001
249.00,-0.000
250.00,0.001
251.00,0.000
252.00,0.002
253.00,-0.002
254.00,0.000
255.00,0.000
256.00,0.000
257.00,0.000
258.00,0.000
259.00,0.002
260.00,-0.001
261.00,0.001
262.00,-0.000
263.00,0.000
264.00,0.002
265.00,0.001
266.00,-0.000
267.00,-0.001
268.00,0.000
269.00,0.001
270.00,0.001
271.00,0.000
272.00,0.000
273.00,-0.000
274.00,0.002
275.00,-0.000
276.00,0.001
277.00,0.001
278.00,-0.000
279.00,-0.001
280.00,0.001
281.00,0.001
282.00,-0.000
283.00,-0.001
284.00,-0.000
285.00,0.001
286.00,0.000
287.00,0.001
288.00,-0.001
289.00,-0.000
290.00,-0.001
291.00,0.001
292.00,0.000
293.00,0.001
294.00,0.000
295.00,-0.000
296.00,0.002
297.00,0.001
298.00,0.001
299.00,0.002
300.00,0.002
301.00,0.003
302.00,0.004
303.00,0.009
304.00,0.012
305.00,0.020
306.00,0.031
307.00,0.045
308.00,0.072
309.00,0.110
310.00,0.157
311.00,0.207
312.00,0.285
313.00,0.382
314.00,0.508
315.00,0.666
316.00,0.860
317.00,1.059
318.00,1.331
319.00,1.630
320.00,1.976
321.00,2.375
322.00,2.802
323.00,3.319
324.00,3.843
325.00,4.384
326.00,4.947
327.00,5.603
328.00,6.239
329.00,6.907
330.00,7.608
331.00,8.313
332.00,9.062
333.00,9.879
334.00,10.587
335.00,11.355
336.00,12.088
337.00,12.867
338.00,13.586
339.00,14.250
340.00,14.962
341.00,15.655
342.00,16.294
343.00,16.921
344.00,17.552
345.00,18.093
346.00,18.648
347.00,19.169
348.00,19.615
349.00,20.139
350.00,20.558
351.00,20.947
352.00,21.356
353.00,21.702
354.00,22.023
355.00,22.372
356.00,22.700
357.00,22.984
358.00,23.244
359.00,23.589
360.00,23.684
361.00,23.844
362.00,24.087
363.00,24.200
364.00,24.419
365.00,24.503
366.00,24.649
367.00,24.750
368.00,24.858
369.00,24.924
370.00,24.969
371.00,24.988
372.00,24.996
373.00,25.016
374.00,25.013
375.00,24.995
376.00,24.970
377.00,24.878
378.00,24.815
379.00,24.767
380.00,24.729
381.00,24.707
382.00,24.711
383.00,24.693
384.00,24.765
385.00,24.775
386.00,24.762
387.00,24.844
388.00,24.877
389.00,24.864
390.00,24.915
391.00,24.936
392.00,24.954
393.00,24.915
394.00,24.937
395.00,24.970
396.00,24.951
397.00,24.958
398.00,24.921
399.00,24.943
400.00,24.951
401.00,24.920
402.00,24.924
403.00,24.918
404.00,24.929
405.00,24.917
406.00,24.901
407.00,24.847
408.00,24.798
409.00,24.725
410.00,24.690
411.00,24.671
412.00,24.604
413.00,24.646
414.00,24.601
415.00,24.597
416.00,24.599
417.00,24.627
418.00,24.644
419.00,24.604
420.00,24.642
421.00,24.667
422.00,24.624
423.00,24.671
424.00,24.663
425.00,24.669
426.00,24.700
427.00,24.719
428.00,24.763
429.00,24.790
430.00,24.815
431.00,24.847
432.00,24.904
433.00,24.915
434.00,24.968
435.00,25.032
436.00,25.054
437.00,25.117
438.00,25.161
439.00,25.205
440.00,25.271
441.00,25.347
442.00,25.439
443.00,25.460
444.00,25.545
445.00,25.631
446.00,25.699
447.00,25.770
448.00,25.859
449.00,25.919
450.00,26.023
451.00,26.108
452.00,26.099
453.00,26.304
454.00,26.411
455.00,26.509
456.00,26.607
457.00,26.706
458.00,26.773
459.00,26.887
460.00,26.983
461.00,27.105
462.00,27.198
463.00,27.334
464.00,27.368
465.00,27.514
466.00,27.658
467.00,27.770
468.00,27.881
469.00,28.025
470.00,28.100
471.00,28.162
472.00,28.293
473.00,28.350
474.00,28.429
475.00,28.559
476.00,28.656
477.00,28.754
478.00,28.910
479.00,29.022
480.00,29.142
481.00,29.283
482.00,29.381
483.00,29.567
484.00,29.702
485.00,29.867
486.00,30.005
487.00,30.168
488.00,30.267
489.00,30.406
490.00,30.554
491.00,30.690
492.00,30.815
493.00,30.955
494.00,31.056
495.00,31.098
496.00,31.255
497.00,31.341
498.00,31.507
499.00,31.638
500.00,31.722
501.00,31.833
502.00,31.988
503.00,32.116
504.00,32.204
505.00,32.350
506.00,32.442
507.00,32.570
508.00,32.697
509.00,32.789
510.00,32.925
511.00,33.008
512.00,33.165
513.00,33.266
514.00,33.401
515.00,33.520
516.00,33.614
517.00,33.683
518.00,33.893
519.00,33.915
520.00,34.033
521.00,34.117
522.00,34.211
523.00,34.290
524.00,34.343
525.00,34.426
526.00,34.542
527.00,34.621
528.00,34.711
529.00,34.833
530.00,34.933
531.00,35.101
532.00,35.136
533.00,35.253
534.00,35.340
535.00,35.423
536.00,35.532
537.00,35.555
538.00,35.698
539.00,35.744
540.00,35.822
541.00,35.937
542.00,35.903
543.00,36.035
544.00,36.096
545.00,36.157
546.00,36.169
547.00,36.321
548.00,36.405
549.00,36.486
550.00,36.478
551.00,36.663
552.00,36.636
553.00,36.647
554.00,36.902
555.00,36.957
556.00,36.957
557.00,37.045
558.00,37.085
559.00,37.188
560.00,37.252
561.00,37.277
562.00,37.321
563.00,37.363
564.00,37.447
565.00,37.390
566.00,37.419
567.00,37.516
568.00,37.421
569.00,37.622
570.00,37.656
571.00,37.726
572.00,37.830
573.00,37.879
574.00,37.921
575.00,37.930
576.00,37.944
577.00,38.024
578.00,38.100
579.00,38.138
580.00,38.226
581.00,38.293
582.00,38.410
583.00,38.431
584.00,38.561
585.00,38.615
586.00,38.639
587.00,38.737
588.00,38.765
589.00,38.761
590.00,38.841
591.00,38.860
592.00,38.925
593.00,38.965
594.00,39.023
595.00,39.050
596.00,39.111
597.00,39.124
598.00,39.272
599.00,39.203
600.00,39.395
601.00,39.375
602.00,39.463
603.00,39.447
604.00,39.371
605.00,39.437
606.00,39.710
607.00,39.682
608.00,39.626
609.00,39.771
610.00,39.803
611.00,39.825
612.00,39.848
613.00,39.840
614.00,39.894
615.00,40.008
616.00,40.046
617.00,40.031
618.00,40.161
619.00,40.192
620.00,40.096
621.00,40.040
622.00,40.167
623.00,40.342
624.00,40.484
625.00,40.549
626.00,40.539
627.00,40.630
628.00,40.646
629.00,40.724
630.00,40.778
631.00,40.812
632.00,40.934
633.00,40.982
634.00,41.021
635.00,41.159
636.00,41.218
637.00,41.260
638.00,41.315
639.00,41.342
640.00,41.436
641.00,41.416
642.00,41.510
643.00,41.572
644.00,41.652
645.00,41.706
646.00,41.816
647.00,41.856
648.00,41.943
649.00,42.045
650.00,42.075
651.00,42.168
652.00,42.258
653.00,42.272
654.00,42.386
655.00,42.390
656.00,42.558
657.00,42.628
658.00,42.719
659.00,42.818
660.00,42.911
661.00,42.780
662.00,43.022
663.00,43.077
664.00,43.256
665.00,43.250
666.00,43.322
667.00,43.472
668.00,43.579
669.00,43.610
670.00,43.676
671.00,43.673
672.00,43.773
673.00,43.917
674.00,44.020
675.00,44.069
676.00,44.175
677.00,44.207
678.00,44.188
679.00,44.284
680.00,44.462
681.00,44.478
682.00,44.623
683.00,44.672
684.00,44.837
685.00,44.885
686.00,44.781
687.00,44.959
688.00,45.092
689.00,44.997
690.00,45.207
691.00,45.284
692.00,45.274
693.00,45.350
694.00,45.449
695.00,45.578
696.00,45.657
697.00,45.676
698.00,45.923
699.00,45.911
700.00,45.933
701.00,45.997
702.00,46.093
703.00,46.239
704.00,46.243
705.00,46.229
706.00,46.420
707.00,46.463
708.00,46.444
709.00,46.629
710.00,46.763
711.00,46.720
712.00,46.731
713.00,46.826
714.00,46.861
715.00,46.870
716.00,46.928
717.00,47.050
718.00,47.108
719.00,47.128
720.00,47.174
721.00,51.417
722.00,51.351
723.00,51.323
724.00,51.343
725.00,51.278
726.00,51.331
727.00,51.379
728.00,51.358
729.00,51.364
730.00,51.388
731.00,51.425
732.00,51.483
733.00,51.446
734.00,51.537
735.00,51.545
736.00,51.632
737.00,51.605
738.00,51.579
739.00,51.613
740.00,51.653
741.00,51.796
742.00,51.687
743.00,51.721
744.00,51.674
745.00,51.704
746.00,51.734
747.00,51.701
748.00,51.712
749.00,51.698
750.00,51.602
751.00,51.614
752.00,51.687
753.00,51.685
754.00,51.627
755.00,51.648
756.00,51.676
757.00,51.703
758.00,51.698
759.00,51.681
760.00,51.651
761.00,51.747
762.00,51.650
763.00,51.729
764.00,51.759
765.00,51.748
766.00,51.745
767.00,51.700
768.00,51.716
769.00,51.732
770.00,51.817
771.00,51.745
772.00,51.842
773.00,51.754
774.00,51.758
775.00,51.859
776.00,51.748
777.00,51.814
778.00,51.742
779.00,51.771
780.00,51.790
781.00,51.747
782.00,51.802
783.00,51.698
784.00,51.730
785.00,51.771
786.00,51.755
787.00,51.732
788.00,51.753
789.00,51.775
790.00,51.653
791.00,51.656
792.00,51.642
793.00,51.628
794.00,51.637
795.00,51.588
796.00,51.609
797.00,51.529
798.00,51.570
799.00,51.586
800.00,51.522
801.00,51.570
802.00,51.577
803.00,51.515
804.00,51.428
805.00,51.484
806.00,51.476
807.00,51.360
808.00,51.458
809.00,51.449
810.00,51.403
811.00,51.361
812.00,51.387
813.00,51.275
814.00,51.316
815.00,51.320
816.00,51.247
817.00,51.399
818.00,51.223
819.00,51.275
820.00,51.192
821.00,51.201
822.00,51.263
823.00,51.151
824.00,51.144
825.00,51.144
826.00,51.060
827.00,51.222
828.00,51.099
829.00,51.107
830.00,51.087
831.00,53.638
832.00,53.607
833.00,53.546
834.00,53.586
835.00,53.552
836.00,53.558
837.00,53.491
838.00,53.461
839.00,53.476
840.00,53.388
841.00,53.432
842.00,53.390
843.00,53.379
844.00,53.393
845.00,53.332
846.00,53.370
847.00,53.273
848.00,53.304
849.00,53.247
850.00,53.236
851.00,53.184
852.00,53.184
853.00,53.103
854.00,53.070
855.00,53.022
856.00,53.042
857.00,53.006
858.00,52.963
859.00,52.961
860.00,52.995
861.00,52.930
862.00,52.911
863.00,52.930
864.00,52.800
865.00,52.877
866.00,52.843
867.00,52.835
868.00,52.813
869.00,52.766
870.00,52.829
871.00,52.771
872.00,52.767
873.00,52.742
874.00,52.775
875.00,52.764
876.00,52.726
877.00,52.728
878.00,52.744
879.00,52.682
880.00,52.688
881.00,52.617
882.00,52.641
883.00,52.619
884.00,52.558
885.00,52.552
886.00,52.550
887.00,52.536
888.00,52.508
889.00,52.479
890.00,52.487
891.00,52.450
892.00,52.431
893.00,52.401
894.00,52.380
895.00,52.341
896.00,52.334
897.00,52.336
898.00,52.291
899.00,52.310
900.00,52.268
901.00,52.235
902.00,52.240
903.00,52.229
904.00,52.221
905.00,52.182
906.00,52.187
907.00,52.175
908.00,52.138
909.00,52.114
910.00,52.098
911.00,52.100
912.00,52.047
913.00,52.071
914.00,51.934
915.00,51.989
916.00,51.978
917.00,51.946
918.00,51.940
919.00,51.915
920.00,51.877
921.00,51.879
922.00,51.834
923.00,51.820
924.00,51.762
925.00,51.788
926.00,51.766
927.00,51.760
928.00,51.735
929.00,51.771
930.00,51.715
931.00,51.698
932.00,51.646
933.00,51.665
934.00,51.643
935.00,51.606
936.00,51.594
937.00,51.585
938.00,51.547
939.00,51.555
940.00,51.608
941.00,51.519
942.00,51.465
943.00,51.476
944.00,51.426
945.00,51.422
946.00,51.333
947.00,51.386
948.00,51.360
949.00,51.345
950.00,51.327
951.00,51.284
952.00,51.294
953.00,51.239
954.00,51.230
955.00,51.194
956.00,51.183
957.00,51.147
958.00,51.170
959.00,51.094
960.00,51.095
961.00,51.064
962.00,51.065
963.00,51.041
964.00,51.009
965.00,51.015
966.00,51.004
967.00,50.987
968.00,50.973
969.00,51.014
970.00,50.954
971.00,50.988
972.00,50.952
973.00,50.968
974.00,51.004
975.00,50.956
976.00,51.001
977.00,50.969
978.00,50.996
979.00,50.975
980.00,50.985
981.00,50.983
982.00,50.957
983.00,50.958
984.00,50.932
985.00,50.945
986.00,50.904
987.00,50.967
988.00,50.910
989.00,50.874
990.00,50.888
991.00,50.853
992.00,50.876
993.00,50.850
994.00,50.821
995.00,50.808
996.00,50.809
997.00,50.799
998.00,50.771
999.00,50.796
1000.00,50.744
1001.00,50.765
1002.00,50.755
1003.00,50.724
1004.00,50.736
1005.00,50.703
1006.00,50.713
1007.00,50.683
1008.00,50.652
1009.00,50.639
1010.00,50.625
1011.00,50.610
1012.00,50.576
1013.00,50.592
1014.00,50.547
1015.00,50.577
1016.00,50.536
1017.00,50.519
1018.00,50.518
1019.00,50.476
1020.00,50.467
1021.00,50.461
1022.00,50.440
1023.00,50.411
1024.00,50.431
1025.00,50.402
1026.00,50.399
1027.00,50.364
1028.00,50.351
1029.00,50.366
1030.00,50.311
1031.00,50.324
1032.00,50.293
1033.00,50.278
1034.00,50.249
1035.00,50.220
1036.00,50.197
1037.00,50.180
1038.00,50.166
1039.00,50.122
1040.00,50.146
1041.00,50.090
1042.00,50.092
1043.00,50.070
1044.00,50.079
1045.00,50.079
1046.00,50.059
1047.00,50.070
1048.00,50.090
1049.00,50.095
1050.00,50.084
1051.00,50.129
1052.00,50.123
1053.00,50.130
1054.00,50.129
1055.00,50.142
1056.00,50.170
1057.00,50.161
1058.00,50.140
1059.00,50.153
1060.00,50.140
1061.00,50.127
1062.00,50.134
1063.00,50.123
1064.00,50.115
1065.00,50.114
1066.00,50.101
1067.00,50.090
1068.00,50.104
1069.00,50.052
1070.00,50.050
1071.00,50.029
1072.00,50.036
1073.00,50.026
1074.00,50.005
1075.00,49.993
1076.00,49.973
1077.00,49.963
1078.00,49.969
1079.00,49.949
1080.00,49.951
1081.00,49.944
1082.00,49.942
1083.00,49.933
1084.00,49.937
1085.00,49.915
1086.00,49.911
1087.00,49.915
1088.00,49.885
1089.00,49.881
1090.00,49.861
1091.00,49.859
1092.00,49.860
1093.00,49.825
1094.00,49.815
1095.00,49.818
1096.00,49.805
1097.00,49.797
1098.00,49.807
1099.00,49.781
1100.00,49.776
1101.00,49.760
1102.00,49.743
1103.00,49.742
1104.00,49.724
1105.00,49.709
1106.00,49.713
1107.00,49.686
1108.00,49.687
1109.00,49.678
1110.00,49.674
1111.00,49.665
1112.00,49.653
1113.00,49.637
1114.00,49.637
1115.00,49.633
1116.00,49.617
1117.00,49.620
1118.00,49.600
1119.00,49.594
1120.00,49.598
1121.00,49.574
1122.00,49.575
1123.00,49.570
1124.00,49.551
1125.00,49.554
1126.00,49.532
1127.00,49.529
1128.00,49.531
1129.00,49.507
1130.00,49.500
1131.00,49.514
1132.00,49.494
1133.00,49.501
1134.00,49.505
1135.00,49.464
1136.00,49.480
1137.00,49.472
1138.00,49.465
1139.00,49.486
1140.00,49.446
1141.00,49.446
1142.00,49.434
1143.00,49.439
1144.00,49.424
1145.00,49.431
1146.00,49.427
1147.00,49.423
1148.00,49.416
1149.00,49.422
1150.00,49.423
1151.00,49.401
1152.00,49.398
1153.00,49.395
1154.00,49.374
1155.00,49.395
1156.00,49.379
1157.00,49.376
1158.00,49.381
1159.00,49.369
1160.00,49.352
1161.00,49.372
1162.00,49.352
1163.00,49.355
1164.00,49.357
1165.00,49.332
1166.00,49.351
1167.00,49.353
1168.00,49.342
1169.00,49.351
1170.00,49.335
1171.00,49.304
1172.00,49.341
1173.00,49.320
1174.00,49.327
1175.00,49.325
1176.00,49.313
1177.00,49.321
1178.00,49.316
1179.00,49.320
1180.00,49.311
1181.00,49.326
1182.00,49.310
1183.00,49.314
1184.00,49.285
1185.00,49.302
1186.00,49.292
1187.00,49.290
1188.00,49.292
1189.00,49.280
1190.00,49.281
1191.00,49.290
1192.00,49.291
1193.00,49.270
1194.00,49.297
1195.00,49.258
1196.00,49.276
1197.00,49.291
1198.00,49.257
1199.00,49.269
1200.00,49.291
1201.00,49.274
1202.00,49.275
1203.00,49.270
1204.00,49.250
1205.00,49.277
1206.00,49.255
1207.00,49.266
1208.00,49.247
1209.00,49.240
1210.00,49.266
1211.00,49.251
1212.00,49.255
1213.00,49.228
1214.00,49.257
1215.00,49.247
1216.00,49.248
1217.00,49.248
1218.00,49.233
1219.00,49.247
1220.00,49.216
1221.00,49.235
1222.00,49.225
1223.00,49.236
1224.00,49.246
1225.00,49.221
1226.00,49.226
1227.00,49.231
1228.00,49.234
1229.00,49.229
1230.00,49.276
1231.00,49.257
1232.00,49.276
1233.00,49.266
1234.00,49.260
1235.00,49.270
1236.00,49.256
1237.00,49.241
1238.00,49.263
1239.00,49.268
1240.00,49.274
1241.00,49.282
1242.00,49.274
1243.00,49.297
1244.00,49.273
1245.00,49.279
1246.00,49.298
1247.00,49.282
1248.00,49.279
1249.00,49.299
1250.00,49.287
1251.00,49.286
1252.00,49.308
1253.00,49.292
1254.00,49.323
1255.00,49.314
1256.00,49.303
1257.00,49.292
1258.00,49.322
1259.00,49.311
1260.00,49.364
1261.00,49.346
1262.00,49.325
1263.00,49.325
1264.00,49.325
1265.00,49.334
1266.00,49.331
1267.00,49.331
1268.00,49.369
1269.00,49.339
1270.00,49.348
1271.00,49.374
1272.00,49.357
1273.00,49.368
1274.00,49.375
1275.00,49.368
1276.00,49.380
1277.00,49.379
1278.00,49.391
1279.00,49.394
1280.00,49.393
1281.00,49.400
1282.00,49.426
1283.00,49.389
1284.00,49.405
1285.00,49.397
1286.00,49.393
1287.00,49.396
1288.00,49.395
1289.00,49.391
1290.00,49.415
1291.00,49.411
1292.00,49.418
1293.00,49.432
1294.00,49.432
1295.00,49.436
1296.00,49.443
1297.00,49.437
1298.00,49.464
1299.00,49.444
1300.00,49.460
1301.00,49.478
1302.00,49.456
1303.00,49.480
1304.00,49.469
1305.00,49.480
1306.00,49.488
1307.00,49.507
1308.00,49.492
1309.00,49.506
1310.00,49.508
1311.00,49.489
1312.00,49.501
1313.00,49.490
1314.00,49.505
1315.00,49.531
1316.00,49.505
1317.00,49.534
1318.00,49.521
1319.00,49.521
1320.00,49.569
1321.00,49.702
1322.00,49.712
1323.00,49.709
1324.00,49.723
1325.00,49.692
1326.00,49.749
1327.00,49.717
1328.00,49.694
1329.00,49.741
1330.00,49.712
1331.00,49.710
1332.00,49.723
1333.00,49.720
1334.00,49.758
1335.00,49.762
1336.00,49.774
1337.00,49.809
1338.00,49.871
1339.00,49.915
1340.00,49.986
1341.00,50.021
1342.00,50.099
1343.00,50.164
1344.00,50.196
1345.00,50.253
1346.00,50.287
1347.00,50.297
1348.00,50.331
1349.00,50.343
1350.00,50.368
1351.00,50.389
1352.00,50.379
1353.00,50.393
1354.00,50.398
1355.00,50.331
1356.00,50.387
1357.00,50.398
1358.00,50.397
1359.00,50.440
1360.00,50.430
1361.00,50.389
1362.00,50.380
1363.00,50.466
1364.00,50.437
1365.00,50.450
1366.00,50.529
1367.00,50.407
1368.00,50.393
1369.00,50.403
1370.00,50.401
1371.00,50.344
1372.00,50.373
1373.00,50.383
1374.00,50.392
1375.00,50.374
1376.00,50.383
1377.00,50.339
1378.00,50.422
1379.00,50.373
1380.00,50.383
1381.00,50.465
1382.00,50.340
1383.00,50.363
1384.00,50.322
1385.00,50.347
1386.00,50.355
1387.00,50.336
1388.00,50.305
1389.00,50.411
1390.00,50.401
1391.00,50.326
1392.00,50.386
1393.00,50.425
1394.00,50.520
1395.00,50.365
1396.00,50.310
1397.00,50.403
1398.00,50.403
1399.00,50.317
1400.00,50.295
1401.00,50.365
1402.00,50.425
1403.00,50.306
1404.00,50.352
1405.00,50.380
1406.00,50.391
1407.00,50.397
1408.00,50.358
1409.00,50.395
1410.00,50.413
1411.00,50.476
1412.00,50.503
1413.00,50.359
1414.00,50.416
1415.00,50.465
1416.00,50.472
1417.00,50.496
1418.00,50.465
1419.00,50.472
1420.00,50.525
1421.00,50.525
1422.00,50.531
1423.00,50.530
1424.00,50.542
1425.00,50.553
1426.00,50.582
1427.00,50.595
1428.00,50.599
1429.00,50.614
1430.00,50.631
1431.00,50.649
1432.00,50.644
1433.00,50.677
1434.00,50.677
1435.00,50.707
1436.00,50.728
1437.00,50.714
1438.00,50.719
1439.00,50.771
1440.00,50.765
1441.00,50.781
1442.00,50.794
1443.00,50.825
1444.00,50.858
1445.00,50.836
1446.00,50.850
1447.00,50.892
1448.00,50.898
1449.00,50.900
1450.00,50.919
1451.00,50.925
1452.00,50.939
1453.00,50.971
1454.00,50.951
1455.00,51.000
1456.00,51.011
1457.00,50.999
1458.00,51.043
1459.00,51.040
1460.00,51.061
1461.00,51.080
1462.00,51.094
1463.00,51.109
1464.00,51.122
1465.00,51.120
1466.00,51.131
1467.00,51.152
1468.00,51.185
1469.00,51.188
1470.00,51.186
1471.00,51.201
1472.00,51.230
1473.00,51.219
1474.00,51.259
1475.00,51.267
1476.00,51.268
1477.00,51.275
1478.00,51.279
1479.00,51.285
1480.00,51.311
1481.00,51.312
1482.00,51.337
1483.00,51.362
1484.00,51.354
1485.00,51.379
1486.00,51.384
1487.00,51.382
1488.00,51.413
1489.00,51.404
1490.00,51.420
1491.00,51.428
1492.00,51.427
1493.00,51.420
1494.00,51.459
1495.00,51.468
1496.00,51.461
1497.00,51.493
1498.00,51.495
1499.00,51.526
1500.00,51.544
1501.00, 
1502.00, 
1503.00, 
1504.00, 
1505.00, 
1506.00, 
1507.00, 
1508.00, 
1509.00, 
1510.00, 
1511.00, 
1512.00, 
1513.00, 
1514.00, 
1515.00, 
1516.00, 
1517.00, 
1518.00, 
1519.00, 
1520.00, 
1521.00, 
1522.00, 
1523.00, 
1524.00, 
1525.00, 
1526.00, 
1527.00, 
1528.00, 
1529.00, 
1530.00, 
1531.00, 
1532.00, 
1533.00, 
1534.00, 
1535.00, 
1536.00, 
1537.00, 
1538.00, 
1539.00, 
1540.00, 
1541.00, 
1542.00, 
1543.00, 
1544.00, 
1545.00, 
1546.00, 
1547.00, 
1548.00, 
1549.00, 
1550.00, 
1551.00, 
1552.00, 
1553.00, 
1554.00, 
1555.00, 
1556.00, 
1557.00, 
1558.00, 
1559.00, 
1560.00, 
1561.00, 
1562.00, 
1563.00, 
1564.00, 
1565.00, 
1566.00, 
1567.00, 
1568.00, 
1569.00, 
1570.00, 
1571.00, 
1572.00, 
1573.00, 
1574.00, 
1575.00, 
1576.00, 
1577.00, 
1578.00, 
1579.00, 
1580.00, 
1581.00, 
1582.00, 
1583.00, 
1584.00, 
1585.00, 
1586.00, 
1587.00, 
1588.00, 
1589.00, 
1590.00, 
1591.00, 
1592.00, 
1593.00, 
1594.00, 
1595.00, 
1596.00, 
1597.00, 
1598.00, 
1599.00, 
1600.00, 
1601.00, 
1602.00, 
1603.00, 
1604.00, 
1605.00, 
1606.00, 
1607.00, 
1608.00, 
1609.00, 
1610.00, 
1611.00, 
1612.00, 
1613.00, 
1614.00, 
1615.00, 
1616.00, 
1617.00, 
1618.00, 
1619.00, 
1620.00, 
1621.00, 
1622.00, 
1623.00, 
1624.00, 
1625.00, 
1626.00, 
1627.00, 
1628.00, 
1629.00, 
1630.00, 
1631.00, 
1632.00, 
1633.00, 
1634.00, 
1635.00, 
1636.00, 
1637.00, 
1638.00, 
1639.00, 
1640.00, 
1641.00, 
1642.00, 
1643.00, 
1644.00, 
1645.00, 
1646.00, 
1647.00, 
1648.00, 
1649.00, 
1650.00, 
1651.00, 
1652.00, 
1653.00, 
1654.00, 
1655.00, 
1656.00, 
1657.00, 
1658.00, 
1659.00, 
1660.00, 
1661.00, 
1662.00, 
1663.00, 
1664.00, 
1665.00, 
1666.00, 
1667.00, 
1668.00, 
1669.00, 
1670.00, 
1671.00, 
1672.00, 
1673.00, 
1674.00, 
1675.00, 
1676.00, 
1677.00, 
1678.00, 
1679.00, 
1680.00, 
1681.00, 
1682.00, 
1683.00, 
1684.00, 
1685.00, 
1686.00, 
1687.00, 
1688.00, 
1689.00, 
1690.00, 
1691.00, 
1692.00, 
1693.00, 
1694.00, 
1695.00, 
1696.00, 
1697.00, 
1698.00, 
1699.00, 
1700.00, 
1701.00, 
1702.00, 
1703.00, 
1704.00, 
1705.00, 
1706.00, 
1707.00, 
1708.00, 
1709.00, 
1710.00, 
1711.00, 
1712.00, 
1713.00, 
1714.00, 
1715.00, 
1716.00, 
1717.00, 
1718.00, 
1719.00, 
1720.00, 
1721.00, 
1722.00, 
1723.00, 
1724.00, 
1725.00, 
1726.00, 
1727.00, 
1728.00, 
1729.00, 
1730.00, 
1731.00, 
1732.00, 
1733.00, 
1734.00, 
1735.00, 
1736.00, 
1737.00, 
1738.00, 
1739.00, 
1740.00, 
1741.00, 
1742.00, 
1743.00, 
1744.00, 
1745.00, 
1746.00, 
1747.00, 
1748.00, 
1749.00, 
1750.00, 
1751.00, 
1752.00, 
1753.00, 
1754.00, 
1755.00, 
1756.00, 
1757.00, 
1758.00, 
1759.00, 
1760.00, 
1761.00, 
1762.00, 
1763.00, 
1764.00, 
1765.00, 
1766.00, 
1767.00, 
1768.00, 
1769.00, 
1770.00, 
1771.00, 
1772.00, 
1773.00, 
1774.00, 
1775.00, 
1776.00, 
1777.00, 
1778.00, 
1779.00, 
1780.00, 
1781.00, 
1782.00, 
1783.00, 
1784.00, 
1785.00, 
1786.00, 
1787.00, 
1788.00, 
1789.00, 
1790.00, 
1791.00, 
1792.00, 
1793.00, 
1794.00, 
1795.00, 
1796.00, 
1797.00, 
1798.00, 
1799.00, 
1800.00, 
1801.00, 
1802.00, 
1803.00, 
1804.00, 
1805.00, 
1806.00, 
1807.00, 
1808.00, 
1809.00, 
1810.00, 
1811.00, 
1812.00, 
1813.00, 
1814.00, 
1815.00, 
1816.00, 
1817.00, 
1818.00, 
1819.00, 
1820.00, 
1821.00, 
1822.00, 
1823.00, 
1824.00, 
1825.00, 
1826.00, 
1827.00, 
1828.00, 
1829.00, 
1830.00, 
1831.00, 
1832.00, 
1833.00, 
1834.00, 
1835.00, 
1836.00, 
1837.00, 
1838.00, 
1839.00, 
1840.00, 
1841.00, 
1842.00, 
1843.00, 
1844.00, 
1845.00, 
1846.00, 
1847.00, 
1848.00, 
1849.00, 
1850.00, 
1851.00, 
1852.00, 
1853.00, 
1854.00, 
1855.00, 
1856.00, 
1857.00, 
1858.00, 
1859.00, 
1860.00, 
1861.00, 
1862.00, 
1863.00, 
1864.00, 
1865.00, 
1866.00, 
1867.00, 
1868.00, 
1869.00, 
1870.00, 
1871.00, 
1872.00, 
1873.00, 
1874.00, 
1875.00, 
1876.00, 
1877.00, 
1878.00, 
1879.00, 
1880.00, 
1881.00, 
1882.00, 
1883.00, 
1884.00, 
1885.00, 
1886.00, 
1887.00, 
1888.00, 
1889.00, 
1890.00, 
1891.00, 
1892.00, 
1893.00, 
1894.00, 
1895.00, 
1896.00, 
1897.00, 
1898.00, 
1899.00, 
1900.00, 
1901.00, 
1902.00, 
1903.00, 
1904.00, 
1905.00, 
1906.00, 
1907.00, 
1908.00, 
1909.00, 
1910.00, 
1911.00, 
1912.00, 
1913.00, 
1914.00, 
1915.00, 
1916.00, 
1917.00, 
1918.00, 
1919.00, 
1920.00, 
1921.00, 
1922.00, 
1923.00, 
1924.00, 
1925.00, 
1926.00, 
1927.00, 
1928.00, 
1929.00, 
1930.00, 
1931.00, 
1932.00, 
1933.00, 
1934.00, 
1935.00, 
1936.00, 
1937.00, 
1938.00, 
1939.00, 
1940.00, 
1941.00, 
1942.00, 
1943.00, 
1944.00, 
1945.00, 
1946.00, 
1947.00, 
1948.00, 
1949.00, 
1950.00, 
1951.00, 
1952.00, 
1953.00, 
1954.00, 
1955.00, 
1956.00, 
1957.00, 
1958.00, 
1959.00, 
1960.00, 
1961.00, 
1962.00, 
1963.00, 
1964.00, 
1965.00, 
1966.00, 
1967.00, 
1968.00, 
1969.00, 
1970.00, 
1971.00, 
1972.00, 
1973.00, 
1974.00, 
1975.00, 
1976.00, 
1977.00, 
1978.00, 
1979.00, 
1980.00, 
1981.00, 
1982.00, 
1983.00, 
1984.00, 
1985.00, 
1986.00, 
1987.00, 
1988.00, 
1989.00, 
1990.00, 
1991.00, 
1992.00, 
1993.00, 
1994.00, 
1995.00, 
1996.00, 
1997.00, 
1998.00, 
1999.00, 
2000.00, 
2001.00, 
2002.00, 
2003.00, 
2004.00, 
2005.00, 
2006.00, 
2007.00, 
2008.00, 
2009.00, 
2010.00, 
2011.00, 
2012.00, 
2013.00, 
2014.00, 
2015.00, 
2016.00, 
2017.00, 
2018.00, 
2019.00, 
2020.00, 
2021.00, 
2022.00, 
2023.00, 
2024.00, 
2025.00, 
2026.00, 
2027.00, 
2028.00, 
2029.00, 
2030.00, 
2031.00, 
2032.00, 
2033.00, 
2034.00, 
2035.00, 
2036.00, 
2037.00, 
2038.00, 
2039.00, 
2040.00, 
2041.00, 
2042.00, 
2043.00, 
2044.00, 
2045.00, 
2046.00, 
2047.00, 
2048.00, 
2049.00, 
2050.00, 
2051.00, 
2052.00, 
2053.00, 
2054.00, 
2055.00, 
2056.00, 
2057.00, 
2058.00, 
2059.00, 
2060.00, 
2061.00, 
2062.00, 
2063.00, 
2064.00, 
2065.00, 
2066.00, 
2067.00, 
2068.00, 
2069.00, 
2070.00, 
2071.00, 
2072.00, 
2073.00, 
2074.00, 
2075.00, 
2076.00, 
2077.00, 
2078.00, 
2079.00, 
2080.00, 
2081.00, 
2082.00, 
2083.00, 
2084.00, 
2085.00, 
2086.00, 
2087.00, 
2088.00, 
2089.00, 
2090.00, 
2091.00, 
2092.00, 
2093.00, 
2094.00, 
2095.00, 
2096.00, 
2097.00, 
2098.00, 
2099.00, 
2100.00, 
2101.00, 
2102.00, 
2103.00, 
2104.00, 
2105.00, 
2106.00, 
2107.00, 
2108.00, 
2109.00, 
2110.00, 
2111.00, 
2112.00, 
2113.00, 
2114.00, 
2115.00, 
2116.00, 
2117.00, 
2118.00, 
2119.00, 
2120.00, 
2121.00, 
2122.00, 
2123.00, 
2124.00, 
2125.00, 
2126.00, 
2127.00, 
2128.00, 
2129.00, 
2130.00, 
2131.00, 
2132.00, 
2133.00, 
2134.00, 
2135.00, 
2136.00, 
2137.00, 
2138.00, 
2139.00, 
2140.00, 
2141.00, 
2142.00, 
2143.00, 
2144.00, 
2145.00, 
2146.00, 
2147.00, 
2148.00, 
2149.00, 
2150.00, 
2151.00, 
2152.00, 
2153.00, 
2154.00, 
2155.00, 
2156.00, 
2157.00, 
2158.00, 
2159.00, 
2160.00, 
2161.00, 
2162.00, 
2163.00, 
2164.00, 
2165.00, 
2166.00, 
2167.00, 
2168.00, 
2169.00, 
2170.00, 
2171.00, 
2172.00, 
2173.00, 
2174.00, 
2175.00, 
2176.00, 
2177.00, 
2178.00, 
2179.00, 
2180.00, 
2181.00, 
2182.00, 
2183.00, 
2184.00, 
2185.00, 
2186.00, 
2187.00, 
2188.00, 
2189.00, 
2190.00, 
2191.00, 
2192.00, 
2193.00, 
2194.00, 
2195.00, 
2196.00, 
2197.00, 
2198.00, 
2199.00, 
2200.00, 
2201.00, 
2202.00, 
2203.00, 
2204.00, 
2205.00, 
2206.00, 
2207.00, 
2208.00, 
2209.00, 
2210.00, 
2211.00, 
2212.00, 
2213.00, 
2214.00, 
2215.00, 
2216.00, 
2217.00, 
2218.00, 
2219.00, 
2220.00, 
2221.00, 
2222.00, 
2223.00, 
2224.00, 
2225.00, 
2226.00, 
2227.00, 
2228.00, 
2229.00, 
2230.00, 
2231.00, 
2232.00, 
2233.00, 
2234.00, 
2235.00, 
2236.00, 
2237.00, 
2238.00, 
2239.00, 
2240.00, 
2241.00, 
2242.00, 
2243.00, 
2244.00, 
2245.00, 
2246.00, 
2247.00, 
2248.00, 
2249.00, 
2250.00, 
2251.00, 
2252.00, 
2253.00, 
2254.00, 
2255.00, 
2256.00, 
2257.00, 
2258.00, 
2259.00, 
2260.00, 
2261.00, 
2262.00, 
2263.00, 
2264.00, 
2265.00, 
2266.00, 
2267.00, 
2268.00, 
2269.00, 
2270.00, 
2271.00, 
2272.00, 
2273.00, 
2274.00, 
2275.00, 
2276.00, 
2277.00, 
2278.00, 
2279.00, 
2280.00, 
2281.00, 
2282.00, 
2283.00, 
2284.00, 
2285.00, 
2286.00, 
2287.00, 
2288.00, 
2289.00, 
2290.00, 
2291.00, 
2292.00, 
2293.00, 
2294.00, 
2295.00, 
2296.00, 
2297.00, 
2298.00, 
2299.00, 
2300.00, 
2301.00, 
2302.00, 
2303.00, 
2304.00, 
2305.00, 
2306.00, 
2307.00, 
2308.00, 
2309.00, 
2310.00, 
2311.00, 
2312.00, 
2313.00, 
2314.00, 
2315.00, 
2316.00, 
2317.00, 
2318.00, 
2319.00, 
2320.00, 
2321.00, 
2322.00, 
2323.00, 
2324.00, 
2325.00, 
2326.00, 
2327.00, 
2328.00, 
2329.00, 
2330.00, 
2331.00, 
2332.00, 
2333.00, 
2334.00, 
2335.00, 
2336.00, 
2337.00, 
2338.00, 
2339.00, 
2340.00, 
2341.00, 
2342.00, 
2343.00, 
2344.00, 
2345.00, 
2346.00, 
2347.00, 
2348.00, 
2349.00, 
2350.00, 
2351.00, 
2352.00, 
2353.00, 
2354.00, 
2355.00, 
2356.00, 
2357.00, 
2358.00, 
2359.00, 
2360.00, 
2361.00, 
2362.00, 
2363.00, 
2364.00, 
2365.00, 
2366.00, 
2367.00, 
2368.00, 
2369.00, 
2370.00, 
2371.00, 
2372.00, 
2373.00, 
2374.00, 
2375.00, 
2376.00, 
2377.00, 
2378.00, 
2379.00, 
2380.00, 
2381.00, 
2382.00, 
2383.00, 
2384.00, 
2385.00, 
2386.00, 
2387.00, 
2388.00, 
2389.00, 
2390.00, 
2391.00, 
2392.00, 
2393.00, 
2394.00, 
2395.00, 
2396.00, 
2397.00, 
2398.00, 
2399.00, 
2400.00, 
2401.00, 
2402.00, 
2403.00, 
2404.00, 
2405.00, 
2406.00, 
2407.00, 
2408.00, 
2409.00, 
2410.00, 
2411.00, 
2412.00, 
2413.00, 
2414.00, 
2415.00, 
2416.00, 
2417.00, 
2418.00, 
2419.00, 
2420.00, 
2421.00, 
2422.00, 
2423.00, 
2424.00, 
2425.00, 
2426.00, 
2427.00, 
2428.00, 
2429.00, 
2430.00, 
2431.00, 
2432.00, 
2433.00, 
2434.00, 
2435.00, 
2436.00, 
2437.00, 
2438.00, 
2439.00, 
2440.00, 
2441.00, 
2442.00, 
2443.00, 
2444.00, 
2445.00, 
2446.00, 
2447.00, 
2448.00, 
2449.00, 
2450.00, 
2451.00, 
2452.00, 
2453.00, 
2454.00, 
2455.00, 
2456.00, 
2457.00, 
2458.00, 
2459.00, 
2460.00, 
2461.00, 
2462.00, 
2463.00, 
2464.00, 
2465.00, 
2466.00, 
2467.00, 
2468.00, 
2469.00, 
2470.00, 
2471.00, 
2472.00, 
2473.00, 
2474.00, 
2475.00, 
2476.00, 
2477.00, 
2478.00, 
2479.00, 
2480.00, 
2481.00, 
2482.00, 
2483.00, 
2484.00, 
2485.00, 
2486.00, 
2487.00, 
2488.00, 
2489.00, 
2490.00, 
2491.00, 
2492.00, 
2493.00, 
2494.00, 
2495.00, 
2496.00, 
2497.00, 
2498.00, 
2499.00, 
2500.00, 
2501.00, 
2502.00, 
2503.00, 
2504.00, 
2505.00, 
2506.00, 
2507.00, 
2508.00, 
2509.00, 
2510.00, 
2511.00, 
2512.00, 
2513.00, 
2514.00, 
2515.00, 
2516.00, 
2517.00, 
2518.00, 
2519.00, 
2520.00, 
2521.00, 
2522.00, 
2523.00, 
2524.00, 
2525.00, 
2526.00, 
2527.00, 
2528.00, 
2529.00, 
2530.00, 
2531.00, 
2532.00, 
2533.00, 
2534.00, 
2535.00, 
2536.00, 
2537.00, 
2538.00, 
2539.00, 
2540.00, 
2541.00, 
2542.00, 
2543.00, 
2544.00, 
2545.00, 
2546.00, 
2547.00, 
2548.00, 
2549.00, 
2550.00, 
2551.00, 
2552.00, 
2553.00, 
2554.00, 
2555.00, 
2556.00, 
2557.00, 
2558.00, 
2559.00, 
2560.00, 
2561.00, 
2562.00, 
2563.00, 
2564.00, 
2565.00, 
2566.00, 
2567.00, 
2568.00, 
2569.00, 
2570.00, 
2571.00, 
2572.00, 
2573.00, 
2574.00, 
2575.00, 
2576.00, 
2577.00, 
2578.00, 
2579.00, 
2580.00, 
2581.00, 
2582.00, 
2583.00, 
2584.00, 
2585.00, 
2586.00, 
2587.00, 
2588.00, 
2589.00, 
2590.00, 
2591.00, 
2592.00, 
2593.00, 
2594.00, 
2595.00, 
2596.00, 
2597.00, 
2598.00, 
2599.00, 
2600.00, 
