"1bP2 - RawData"
"Wavelength nm.","T%"
200.00,-0.001
201.00,-0.004
202.00,0.000
203.00,0.003
204.00,0.002
205.00,0.003
206.00,0.000
207.00,0.001
208.00,0.000
209.00,0.001
210.00,0.000
211.00,0.003
212.00,-0.001
213.00,0.000
214.00,-0.000
215.00,0.001
216.00,0.003
217.00,-0.002
218.00,0.000
219.00,0.002
220.00,0.001
221.00,-0.002
222.00,-0.001
223.00,0.002
224.00,0.001
225.00,0.000
226.00,-0.000
227.00,-0.001
228.00,0.000
229.00,-0.000
230.00,0.001
231.00,0.001
232.00,0.002
233.00,-0.001
234.00,-0.000
235.00,-0.002
236.00,0.001
237.00,-0.000
238.00,0.001
239.00,-0.001
240.00,-0.001
241.00,0.001
242.00,0.001
243.00,0.001
244.00,0.002
245.00,-0.001
246.00,-0.000
247.00,0.001
248.00,-0.000
249.00,-0.000
250.00,-0.001
251.00,0.001
252.00,-0.001
253.00,-0.000
254.00,-0.001
255.00,0.001
256.00,0.003
257.00,0.001
258.00,-0.001
259.00,0.000
260.00,0.001
261.00,0.002
262.00,0.000
263.00,0.001
264.00,0.001
265.00,-0.000
266.00,-0.002
267.00,-0.001
268.00,0.000
269.00,-0.001
270.00,0.001
271.00,-0.000
272.00,-0.001
273.00,0.001
274.00,0.001
275.00,-0.001
276.00,0.000
277.00,0.000
278.00,0.000
279.00,-0.001
280.00,-0.002
281.00,0.001
282.00,-0.001
283.00,0.000
284.00,0.000
285.00,0.001
286.00,0.001
287.00,0.001
288.00,-0.001
289.00,0.001
290.00,-0.001
291.00,-0.000
292.00,0.000
293.00,-0.002
294.00,-0.001
295.00,-0.001
296.00,0.001
297.00,0.001
298.00,0.002
299.00,0.002
300.00,0.004
301.00,0.004
302.00,0.008
303.00,0.013
304.00,0.017
305.00,0.027
306.00,0.042
307.00,0.065
308.00,0.098
309.00,0.148
310.00,0.204
311.00,0.272
312.00,0.351
313.00,0.487
314.00,0.634
315.00,0.826
316.00,1.049
317.00,1.289
318.00,1.586
319.00,1.931
320.00,2.317
321.00,2.740
322.00,3.221
323.00,3.753
324.00,4.305
325.00,4.874
326.00,5.446
327.00,6.097
328.00,6.739
329.00,7.397
330.00,8.057
331.00,8.740
332.00,9.420
333.00,10.102
334.00,10.817
335.00,11.520
336.00,12.150
337.00,12.815
338.00,13.444
339.00,14.098
340.00,14.662
341.00,15.277
342.00,15.783
343.00,16.305
344.00,16.854
345.00,17.308
346.00,17.712
347.00,18.072
348.00,18.475
349.00,18.861
350.00,19.148
351.00,19.452
352.00,19.738
353.00,20.044
354.00,20.277
355.00,20.519
356.00,20.721
357.00,20.871
358.00,21.061
359.00,21.207
360.00,21.443
361.00,21.491
362.00,21.620
363.00,21.754
364.00,21.803
365.00,21.884
366.00,21.929
367.00,21.996
368.00,22.023
369.00,22.022
370.00,22.094
371.00,22.077
372.00,22.030
373.00,22.053
374.00,22.037
375.00,21.917
376.00,21.872
377.00,21.795
378.00,21.732
379.00,21.671
380.00,21.632
381.00,21.611
382.00,21.555
383.00,21.561
384.00,21.588
385.00,21.566
386.00,21.572
387.00,21.594
388.00,21.648
389.00,21.595
390.00,21.617
391.00,21.616
392.00,21.631
393.00,21.612
394.00,21.634
395.00,21.641
396.00,21.573
397.00,21.614
398.00,21.604
399.00,21.572
400.00,21.583
401.00,21.552
402.00,21.622
403.00,21.589
404.00,21.542
405.00,21.532
406.00,21.514
407.00,21.468
408.00,21.472
409.00,21.381
410.00,21.332
411.00,21.363
412.00,21.299
413.00,21.312
414.00,21.288
415.00,21.293
416.00,21.340
417.00,21.324
418.00,21.307
419.00,21.430
420.00,21.421
421.00,21.375
422.00,21.404
423.00,21.425
424.00,21.439
425.00,21.480
426.00,21.490
427.00,21.575
428.00,21.568
429.00,21.623
430.00,21.662
431.00,21.760
432.00,21.749
433.00,21.864
434.00,21.870
435.00,21.949
436.00,22.004
437.00,22.057
438.00,22.136
439.00,22.187
440.00,22.230
441.00,22.311
442.00,22.423
443.00,22.449
444.00,22.528
445.00,22.664
446.00,22.736
447.00,22.807
448.00,22.912
449.00,23.039
450.00,23.123
451.00,23.184
452.00,23.315
453.00,23.432
454.00,23.508
455.00,23.600
456.00,23.721
457.00,23.825
458.00,23.871
459.00,24.037
460.00,24.138
461.00,24.312
462.00,24.425
463.00,24.555
464.00,24.705
465.00,24.810
466.00,24.911
467.00,25.065
468.00,25.178
469.00,25.271
470.00,25.370
471.00,25.506
472.00,25.614
473.00,25.688
474.00,25.857
475.00,25.954
476.00,26.067
477.00,26.189
478.00,26.312
479.00,26.487
480.00,26.612
481.00,26.809
482.00,26.907
483.00,27.106
484.00,27.134
485.00,27.363
486.00,27.484
487.00,27.685
488.00,27.828
489.00,27.964
490.00,28.111
491.00,28.262
492.00,28.407
493.00,28.628
494.00,28.782
495.00,28.759
496.00,28.878
497.00,29.011
498.00,29.170
499.00,29.284
500.00,29.426
501.00,29.465
502.00,29.666
503.00,29.826
504.00,29.832
505.00,30.008
506.00,30.158
507.00,30.225
508.00,30.314
509.00,30.507
510.00,30.652
511.00,30.680
512.00,30.842
513.00,31.055
514.00,31.100
515.00,31.184
516.00,31.370
517.00,31.390
518.00,31.611
519.00,31.720
520.00,31.757
521.00,31.847
522.00,31.973
523.00,32.019
524.00,32.085
525.00,32.276
526.00,32.362
527.00,32.422
528.00,32.525
529.00,32.692
530.00,32.834
531.00,32.909
532.00,32.964
533.00,33.082
534.00,33.175
535.00,33.290
536.00,33.342
537.00,33.417
538.00,33.506
539.00,33.531
540.00,33.649
541.00,33.663
542.00,33.750
543.00,33.760
544.00,33.813
545.00,33.927
546.00,33.906
547.00,34.097
548.00,34.163
549.00,34.186
550.00,34.277
551.00,34.360
552.00,34.435
553.00,34.492
554.00,34.551
555.00,34.629
556.00,34.681
557.00,34.705
558.00,34.739
559.00,34.838
560.00,34.931
561.00,34.972
562.00,35.064
563.00,35.095
564.00,35.109
565.00,35.170
566.00,35.147
567.00,35.146
568.00,35.245
569.00,35.276
570.00,35.268
571.00,35.362
572.00,35.344
573.00,35.284
574.00,35.344
575.00,35.450
576.00,35.462
577.00,35.550
578.00,35.652
579.00,35.706
580.00,35.729
581.00,35.930
582.00,35.975
583.00,36.000
584.00,36.125
585.00,36.177
586.00,36.199
587.00,36.270
588.00,36.278
589.00,36.223
590.00,36.325
591.00,36.323
592.00,36.327
593.00,36.360
594.00,36.440
595.00,36.540
596.00,36.608
597.00,36.656
598.00,36.663
599.00,36.717
600.00,36.735
601.00,36.764
602.00,36.822
603.00,36.926
604.00,36.821
605.00,36.928
606.00,37.137
607.00,37.082
608.00,37.086
609.00,37.199
610.00,37.391
611.00,37.229
612.00,37.214
613.00,37.294
614.00,37.309
615.00,37.434
616.00,37.541
617.00,37.550
618.00,37.504
619.00,37.640
620.00,37.702
621.00,37.704
622.00,37.750
623.00,37.818
624.00,37.870
625.00,37.950
626.00,37.988
627.00,38.064
628.00,37.967
629.00,38.141
630.00,38.276
631.00,38.243
632.00,38.389
633.00,38.483
634.00,38.576
635.00,38.680
636.00,38.758
637.00,38.815
638.00,38.871
639.00,38.987
640.00,39.020
641.00,39.007
642.00,39.102
643.00,39.211
644.00,39.303
645.00,39.358
646.00,39.551
647.00,39.558
648.00,39.609
649.00,39.677
650.00,39.656
651.00,39.834
652.00,39.930
653.00,39.989
654.00,40.048
655.00,40.192
656.00,40.424
657.00,40.394
658.00,40.432
659.00,40.443
660.00,40.570
661.00,40.638
662.00,40.889
663.00,40.837
664.00,41.074
665.00,41.223
666.00,41.202
667.00,41.276
668.00,41.362
669.00,41.723
670.00,41.811
671.00,41.759
672.00,41.796
673.00,41.946
674.00,41.972
675.00,42.162
676.00,42.360
677.00,42.404
678.00,42.218
679.00,42.438
680.00,42.393
681.00,42.568
682.00,42.714
683.00,42.711
684.00,42.835
685.00,42.851
686.00,42.718
687.00,42.968
688.00,43.407
689.00,43.429
690.00,43.583
691.00,43.770
692.00,43.615
693.00,43.652
694.00,43.695
695.00,43.887
696.00,44.034
697.00,44.119
698.00,44.105
699.00,44.423
700.00,44.450
701.00,44.485
702.00,44.631
703.00,44.797
704.00,44.962
705.00,44.881
706.00,44.873
707.00,44.979
708.00,44.868
709.00,45.179
710.00,45.443
711.00,45.247
712.00,45.318
713.00,45.373
714.00,45.507
715.00,45.737
716.00,45.624
717.00,45.705
718.00,45.898
719.00,45.926
720.00,45.989
721.00,50.443
722.00,50.448
723.00,50.581
724.00,50.500
725.00,50.580
726.00,50.658
727.00,50.658
728.00,50.702
729.00,50.741
730.00,50.781
731.00,50.768
732.00,50.787
733.00,50.884
734.00,50.912
735.00,50.968
736.00,51.002
737.00,51.099
738.00,51.077
739.00,51.138
740.00,51.189
741.00,51.285
742.00,51.285
743.00,51.287
744.00,51.282
745.00,51.389
746.00,51.412
747.00,51.307
748.00,51.344
749.00,51.352
750.00,51.378
751.00,51.388
752.00,51.436
753.00,51.431
754.00,51.399
755.00,51.448
756.00,51.425
757.00,51.438
758.00,51.521
759.00,51.589
760.00,51.505
761.00,51.606
762.00,51.563
763.00,51.559
764.00,51.618
765.00,51.678
766.00,51.638
767.00,51.685
768.00,51.708
769.00,51.639
770.00,51.750
771.00,51.706
772.00,51.794
773.00,51.721
774.00,51.820
775.00,51.777
776.00,51.778
777.00,51.824
778.00,51.796
779.00,51.890
780.00,51.832
781.00,51.863
782.00,51.868
783.00,51.800
784.00,51.899
785.00,51.816
786.00,51.909
787.00,51.860
788.00,51.919
789.00,51.887
790.00,51.803
791.00,51.925
792.00,51.831
793.00,51.879
794.00,51.839
795.00,51.818
796.00,51.837
797.00,51.695
798.00,51.836
799.00,51.795
800.00,51.818
801.00,51.736
802.00,51.767
803.00,51.783
804.00,51.699
805.00,51.815
806.00,51.713
807.00,51.784
808.00,51.739
809.00,51.717
810.00,51.743
811.00,51.742
812.00,51.712
813.00,51.581
814.00,51.737
815.00,51.641
816.00,51.667
817.00,51.732
818.00,51.553
819.00,51.667
820.00,51.580
821.00,51.636
822.00,51.563
823.00,51.550
824.00,51.535
825.00,51.466
826.00,51.537
827.00,51.634
828.00,51.613
829.00,51.555
830.00,51.563
831.00,54.237
832.00,54.279
833.00,54.209
834.00,54.268
835.00,54.239
836.00,54.237
837.00,54.190
838.00,54.144
839.00,54.302
840.00,54.123
841.00,54.147
842.00,54.105
843.00,54.127
844.00,54.149
845.00,54.080
846.00,54.114
847.00,54.092
848.00,54.129
849.00,53.962
850.00,54.069
851.00,53.935
852.00,54.012
853.00,53.922
854.00,53.920
855.00,53.869
856.00,53.871
857.00,53.848
858.00,53.812
859.00,53.815
860.00,53.829
861.00,53.836
862.00,53.756
863.00,53.789
864.00,53.737
865.00,53.755
866.00,53.741
867.00,53.748
868.00,53.766
869.00,53.717
870.00,53.764
871.00,53.724
872.00,53.749
873.00,53.706
874.00,53.755
875.00,53.663
876.00,53.736
877.00,53.667
878.00,53.689
879.00,53.619
880.00,53.668
881.00,53.605
882.00,53.706
883.00,53.599
884.00,53.577
885.00,53.595
886.00,53.611
887.00,53.563
888.00,53.548
889.00,53.517
890.00,53.527
891.00,53.512
892.00,53.490
893.00,53.467
894.00,53.478
895.00,53.422
896.00,53.403
897.00,53.379
898.00,53.379
899.00,53.377
900.00,53.327
901.00,53.343
902.00,53.391
903.00,53.343
904.00,53.331
905.00,53.326
906.00,53.311
907.00,53.319
908.00,53.218
909.00,53.248
910.00,53.206
911.00,53.202
912.00,53.190
913.00,53.135
914.00,53.230
915.00,53.090
916.00,53.124
917.00,53.123
918.00,53.120
919.00,53.108
920.00,53.028
921.00,53.036
922.00,53.017
923.00,52.990
924.00,52.943
925.00,52.976
926.00,52.948
927.00,52.946
928.00,52.881
929.00,52.940
930.00,52.896
931.00,52.876
932.00,52.822
933.00,52.900
934.00,52.827
935.00,52.755
936.00,52.891
937.00,52.785
938.00,52.774
939.00,52.793
940.00,52.743
941.00,52.761
942.00,52.730
943.00,52.714
944.00,52.670
945.00,52.678
946.00,52.653
947.00,52.604
948.00,52.620
949.00,52.583
950.00,52.533
951.00,52.596
952.00,52.534
953.00,52.473
954.00,52.456
955.00,52.416
956.00,52.424
957.00,52.383
958.00,52.408
959.00,52.331
960.00,52.345
961.00,52.331
962.00,52.316
963.00,52.310
964.00,52.283
965.00,52.396
966.00,52.269
967.00,52.277
968.00,52.250
969.00,52.298
970.00,52.247
971.00,52.277
972.00,52.232
973.00,52.271
974.00,52.314
975.00,52.259
976.00,52.285
977.00,52.273
978.00,52.330
979.00,52.274
980.00,52.309
981.00,52.339
982.00,52.255
983.00,52.305
984.00,52.270
985.00,52.307
986.00,52.234
987.00,52.261
988.00,52.251
989.00,52.211
990.00,52.217
991.00,52.256
992.00,52.240
993.00,52.185
994.00,52.178
995.00,52.177
996.00,52.156
997.00,52.167
998.00,52.136
999.00,52.169
1000.00,52.095
1001.00,52.093
1002.00,52.103
1003.00,52.076
1004.00,52.067
1005.00,52.012
1006.00,52.089
1007.00,52.036
1008.00,52.031
1009.00,52.020
1010.00,52.009
1011.00,51.994
1012.00,51.998
1013.00,51.986
1014.00,51.940
1015.00,51.965
1016.00,51.923
1017.00,51.915
1018.00,51.933
1019.00,51.883
1020.00,51.895
1021.00,51.875
1022.00,51.871
1023.00,51.817
1024.00,51.825
1025.00,51.814
1026.00,51.804
1027.00,51.766
1028.00,51.755
1029.00,51.758
1030.00,51.697
1031.00,51.720
1032.00,51.689
1033.00,51.678
1034.00,51.651
1035.00,51.612
1036.00,51.603
1037.00,51.590
1038.00,51.579
1039.00,51.542
1040.00,51.540
1041.00,51.496
1042.00,51.498
1043.00,51.486
1044.00,51.502
1045.00,51.492
1046.00,51.495
1047.00,51.521
1048.00,51.531
1049.00,51.541
1050.00,51.536
1051.00,51.586
1052.00,51.586
1053.00,51.584
1054.00,51.590
1055.00,51.618
1056.00,51.612
1057.00,51.611
1058.00,51.623
1059.00,51.588
1060.00,51.620
1061.00,51.586
1062.00,51.568
1063.00,51.562
1064.00,51.571
1065.00,51.546
1066.00,51.541
1067.00,51.537
1068.00,51.571
1069.00,51.539
1070.00,51.529
1071.00,51.509
1072.00,51.575
1073.00,51.563
1074.00,51.522
1075.00,51.508
1076.00,51.524
1077.00,51.493
1078.00,51.481
1079.00,51.499
1080.00,51.482
1081.00,51.465
1082.00,51.461
1083.00,51.456
1084.00,51.464
1085.00,51.465
1086.00,51.439
1087.00,51.449
1088.00,51.427
1089.00,51.424
1090.00,51.425
1091.00,51.419
1092.00,51.396
1093.00,51.388
1094.00,51.361
1095.00,51.378
1096.00,51.356
1097.00,51.355
1098.00,51.348
1099.00,51.327
1100.00,51.315
1101.00,51.323
1102.00,51.299
1103.00,51.322
1104.00,51.300
1105.00,51.296
1106.00,51.277
1107.00,51.278
1108.00,51.268
1109.00,51.281
1110.00,51.266
1111.00,51.252
1112.00,51.232
1113.00,51.228
1114.00,51.214
1115.00,51.229
1116.00,51.214
1117.00,51.205
1118.00,51.190
1119.00,51.187
1120.00,51.175
1121.00,51.174
1122.00,51.163
1123.00,51.164
1124.00,51.150
1125.00,51.165
1126.00,51.147
1127.00,51.163
1128.00,51.151
1129.00,51.135
1130.00,51.104
1131.00,51.112
1132.00,51.083
1133.00,51.104
1134.00,51.124
1135.00,51.093
1136.00,51.090
1137.00,51.092
1138.00,51.096
1139.00,51.101
1140.00,51.077
1141.00,51.081
1142.00,51.063
1143.00,51.074
1144.00,51.057
1145.00,51.057
1146.00,51.068
1147.00,51.055
1148.00,51.055
1149.00,51.102
1150.00,51.078
1151.00,51.075
1152.00,51.061
1153.00,51.066
1154.00,51.046
1155.00,51.062
1156.00,51.057
1157.00,51.054
1158.00,51.040
1159.00,51.056
1160.00,51.049
1161.00,51.075
1162.00,51.044
1163.00,51.051
1164.00,51.063
1165.00,51.022
1166.00,51.038
1167.00,51.029
1168.00,51.047
1169.00,51.034
1170.00,51.041
1171.00,51.022
1172.00,51.023
1173.00,51.019
1174.00,51.023
1175.00,51.015
1176.00,51.012
1177.00,51.008
1178.00,51.009
1179.00,51.034
1180.00,51.023
1181.00,51.034
1182.00,51.023
1183.00,51.025
1184.00,51.007
1185.00,51.014
1186.00,51.010
1187.00,51.004
1188.00,51.008
1189.00,51.026
1190.00,50.994
1191.00,50.985
1192.00,51.048
1193.00,51.025
1194.00,51.018
1195.00,50.979
1196.00,51.008
1197.00,51.023
1198.00,51.003
1199.00,51.004
1200.00,51.020
1201.00,51.027
1202.00,51.004
1203.00,51.003
1204.00,50.995
1205.00,51.011
1206.00,51.001
1207.00,50.994
1208.00,50.991
1209.00,50.999
1210.00,51.011
1211.00,51.016
1212.00,51.041
1213.00,51.001
1214.00,51.026
1215.00,51.003
1216.00,51.017
1217.00,51.015
1218.00,51.004
1219.00,51.025
1220.00,50.990
1221.00,51.024
1222.00,51.017
1223.00,51.030
1224.00,51.002
1225.00,50.995
1226.00,51.002
1227.00,50.996
1228.00,51.010
1229.00,50.998
1230.00,51.051
1231.00,51.026
1232.00,51.044
1233.00,51.059
1234.00,51.051
1235.00,51.059
1236.00,51.057
1237.00,51.063
1238.00,51.051
1239.00,51.064
1240.00,51.039
1241.00,51.056
1242.00,51.034
1243.00,51.058
1244.00,51.049
1245.00,51.073
1246.00,51.086
1247.00,51.078
1248.00,51.072
1249.00,51.083
1250.00,51.079
1251.00,51.070
1252.00,51.103
1253.00,51.070
1254.00,51.104
1255.00,51.090
1256.00,51.065
1257.00,51.068
1258.00,51.123
1259.00,51.108
1260.00,51.132
1261.00,51.127
1262.00,51.116
1263.00,51.108
1264.00,51.107
1265.00,51.124
1266.00,51.116
1267.00,51.128
1268.00,51.134
1269.00,51.138
1270.00,51.175
1271.00,51.177
1272.00,51.169
1273.00,51.187
1274.00,51.186
1275.00,51.181
1276.00,51.177
1277.00,51.185
1278.00,51.192
1279.00,51.201
1280.00,51.181
1281.00,51.214
1282.00,51.226
1283.00,51.217
1284.00,51.224
1285.00,51.243
1286.00,51.239
1287.00,51.236
1288.00,51.251
1289.00,51.230
1290.00,51.268
1291.00,51.262
1292.00,51.261
1293.00,51.278
1294.00,51.290
1295.00,51.292
1296.00,51.312
1297.00,51.298
1298.00,51.335
1299.00,51.319
1300.00,51.312
1301.00,51.318
1302.00,51.343
1303.00,51.318
1304.00,51.309
1305.00,51.312
1306.00,51.315
1307.00,51.339
1308.00,51.333
1309.00,51.354
1310.00,51.351
1311.00,51.338
1312.00,51.343
1313.00,51.349
1314.00,51.365
1315.00,51.383
1316.00,51.366
1317.00,51.403
1318.00,51.410
1319.00,51.398
1320.00,51.409
1321.00,51.596
1322.00,51.583
1323.00,51.560
1324.00,51.548
1325.00,51.525
1326.00,51.554
1327.00,51.538
1328.00,51.535
1329.00,51.520
1330.00,51.537
1331.00,51.556
1332.00,51.547
1333.00,51.560
1334.00,51.585
1335.00,51.603
1336.00,51.645
1337.00,51.673
1338.00,51.730
1339.00,51.786
1340.00,51.833
1341.00,51.905
1342.00,51.966
1343.00,52.004
1344.00,52.067
1345.00,52.130
1346.00,52.124
1347.00,52.147
1348.00,52.199
1349.00,52.185
1350.00,52.214
1351.00,52.208
1352.00,52.221
1353.00,52.256
1354.00,52.232
1355.00,52.183
1356.00,52.244
1357.00,52.264
1358.00,52.257
1359.00,52.263
1360.00,52.501
1361.00,52.330
1362.00,52.253
1363.00,52.259
1364.00,52.390
1365.00,52.263
1366.00,52.297
1367.00,52.288
1368.00,52.251
1369.00,52.278
1370.00,52.257
1371.00,52.212
1372.00,52.236
1373.00,52.254
1374.00,52.280
1375.00,52.253
1376.00,52.223
1377.00,52.190
1378.00,52.282
1379.00,52.219
1380.00,52.243
1381.00,52.245
1382.00,52.187
1383.00,52.255
1384.00,52.185
1385.00,52.205
1386.00,52.223
1387.00,52.234
1388.00,52.184
1389.00,52.189
1390.00,52.187
1391.00,52.247
1392.00,52.218
1393.00,52.125
1394.00,52.234
1395.00,52.217
1396.00,52.161
1397.00,52.168
1398.00,52.240
1399.00,52.179
1400.00,52.217
1401.00,52.191
1402.00,52.176
1403.00,52.234
1404.00,52.255
1405.00,52.247
1406.00,52.270
1407.00,52.237
1408.00,52.291
1409.00,52.251
1410.00,52.268
1411.00,52.235
1412.00,52.331
1413.00,52.339
1414.00,52.288
1415.00,52.293
1416.00,52.327
1417.00,52.331
1418.00,52.311
1419.00,52.344
1420.00,52.344
1421.00,52.380
1422.00,52.373
1423.00,52.415
1424.00,52.410
1425.00,52.445
1426.00,52.419
1427.00,52.442
1428.00,52.442
1429.00,52.442
1430.00,52.444
1431.00,52.494
1432.00,52.495
1433.00,52.523
1434.00,52.490
1435.00,52.550
1436.00,52.547
1437.00,52.563
1438.00,52.587
1439.00,52.606
1440.00,52.615
1441.00,52.626
1442.00,52.646
1443.00,52.638
1444.00,52.736
1445.00,52.692
1446.00,52.696
1447.00,52.715
1448.00,52.747
1449.00,52.751
1450.00,52.748
1451.00,52.757
1452.00,52.778
1453.00,52.758
1454.00,52.802
1455.00,52.820
1456.00,52.815
1457.00,52.820
1458.00,52.857
1459.00,52.864
1460.00,52.888
1461.00,52.875
1462.00,52.932
1463.00,52.906
1464.00,52.929
1465.00,52.962
1466.00,52.953
1467.00,52.969
1468.00,53.024
1469.00,52.997
1470.00,52.997
1471.00,53.017
1472.00,53.031
1473.00,53.032
1474.00,53.105
1475.00,53.101
1476.00,53.114
1477.00,53.091
1478.00,53.109
1479.00,53.129
1480.00,53.109
1481.00,53.119
1482.00,53.165
1483.00,53.146
1484.00,53.161
1485.00,53.181
1486.00,53.172
1487.00,53.206
1488.00,53.227
1489.00,53.199
1490.00,53.239
1491.00,53.239
1492.00,53.263
1493.00,53.234
1494.00,53.277
1495.00,53.253
1496.00,53.286
1497.00,53.260
1498.00,53.277
1499.00,53.297
1500.00,53.300
1501.00, 
1502.00, 
1503.00, 
1504.00, 
1505.00, 
1506.00, 
1507.00, 
1508.00, 
1509.00, 
1510.00, 
1511.00, 
1512.00, 
1513.00, 
1514.00, 
1515.00, 
1516.00, 
1517.00, 
1518.00, 
1519.00, 
1520.00, 
1521.00, 
1522.00, 
1523.00, 
1524.00, 
1525.00, 
1526.00, 
1527.00, 
1528.00, 
1529.00, 
1530.00, 
1531.00, 
1532.00, 
1533.00, 
1534.00, 
1535.00, 
1536.00, 
1537.00, 
1538.00, 
1539.00, 
1540.00, 
1541.00, 
1542.00, 
1543.00, 
1544.00, 
1545.00, 
1546.00, 
1547.00, 
1548.00, 
1549.00, 
1550.00, 
1551.00, 
1552.00, 
1553.00, 
1554.00, 
1555.00, 
1556.00, 
1557.00, 
1558.00, 
1559.00, 
1560.00, 
1561.00, 
1562.00, 
1563.00, 
1564.00, 
1565.00, 
1566.00, 
1567.00, 
1568.00, 
1569.00, 
1570.00, 
1571.00, 
1572.00, 
1573.00, 
1574.00, 
1575.00, 
1576.00, 
1577.00, 
1578.00, 
1579.00, 
1580.00, 
1581.00, 
1582.00, 
1583.00, 
1584.00, 
1585.00, 
1586.00, 
1587.00, 
1588.00, 
1589.00, 
1590.00, 
1591.00, 
1592.00, 
1593.00, 
1594.00, 
1595.00, 
1596.00, 
1597.00, 
1598.00, 
1599.00, 
1600.00, 
1601.00, 
1602.00, 
1603.00, 
1604.00, 
1605.00, 
1606.00, 
1607.00, 
1608.00, 
1609.00, 
1610.00, 
1611.00, 
1612.00, 
1613.00, 
1614.00, 
1615.00, 
1616.00, 
1617.00, 
1618.00, 
1619.00, 
1620.00, 
1621.00, 
1622.00, 
1623.00, 
1624.00, 
1625.00, 
1626.00, 
1627.00, 
1628.00, 
1629.00, 
1630.00, 
1631.00, 
1632.00, 
1633.00, 
1634.00, 
1635.00, 
1636.00, 
1637.00, 
1638.00, 
1639.00, 
1640.00, 
1641.00, 
1642.00, 
1643.00, 
1644.00, 
1645.00, 
1646.00, 
1647.00, 
1648.00, 
1649.00, 
1650.00, 
1651.00, 
1652.00, 
1653.00, 
1654.00, 
1655.00, 
1656.00, 
1657.00, 
1658.00, 
1659.00, 
1660.00, 
1661.00, 
1662.00, 
1663.00, 
1664.00, 
1665.00, 
1666.00, 
1667.00, 
1668.00, 
1669.00, 
1670.00, 
1671.00, 
1672.00, 
1673.00, 
1674.00, 
1675.00, 
1676.00, 
1677.00, 
1678.00, 
1679.00, 
1680.00, 
1681.00, 
1682.00, 
1683.00, 
1684.00, 
1685.00, 
1686.00, 
1687.00, 
1688.00, 
1689.00, 
1690.00, 
1691.00, 
1692.00, 
1693.00, 
1694.00, 
1695.00, 
1696.00, 
1697.00, 
1698.00, 
1699.00, 
1700.00, 
1701.00, 
1702.00, 
1703.00, 
1704.00, 
1705.00, 
1706.00, 
1707.00, 
1708.00, 
1709.00, 
1710.00, 
1711.00, 
1712.00, 
1713.00, 
1714.00, 
1715.00, 
1716.00, 
1717.00, 
1718.00, 
1719.00, 
1720.00, 
1721.00, 
1722.00, 
1723.00, 
1724.00, 
1725.00, 
1726.00, 
1727.00, 
1728.00, 
1729.00, 
1730.00, 
1731.00, 
1732.00, 
1733.00, 
1734.00, 
1735.00, 
1736.00, 
1737.00, 
1738.00, 
1739.00, 
1740.00, 
1741.00, 
1742.00, 
1743.00, 
1744.00, 
1745.00, 
1746.00, 
1747.00, 
1748.00, 
1749.00, 
1750.00, 
1751.00, 
1752.00, 
1753.00, 
1754.00, 
1755.00, 
1756.00, 
1757.00, 
1758.00, 
1759.00, 
1760.00, 
1761.00, 
1762.00, 
1763.00, 
1764.00, 
1765.00, 
1766.00, 
1767.00, 
1768.00, 
1769.00, 
1770.00, 
1771.00, 
1772.00, 
1773.00, 
1774.00, 
1775.00, 
1776.00, 
1777.00, 
1778.00, 
1779.00, 
1780.00, 
1781.00, 
1782.00, 
1783.00, 
1784.00, 
1785.00, 
1786.00, 
1787.00, 
1788.00, 
1789.00, 
1790.00, 
1791.00, 
1792.00, 
1793.00, 
1794.00, 
1795.00, 
1796.00, 
1797.00, 
1798.00, 
1799.00, 
1800.00, 
1801.00, 
1802.00, 
1803.00, 
1804.00, 
1805.00, 
1806.00, 
1807.00, 
1808.00, 
1809.00, 
1810.00, 
1811.00, 
1812.00, 
1813.00, 
1814.00, 
1815.00, 
1816.00, 
1817.00, 
1818.00, 
1819.00, 
1820.00, 
1821.00, 
1822.00, 
1823.00, 
1824.00, 
1825.00, 
1826.00, 
1827.00, 
1828.00, 
1829.00, 
1830.00, 
1831.00, 
1832.00, 
1833.00, 
1834.00, 
1835.00, 
1836.00, 
1837.00, 
1838.00, 
1839.00, 
1840.00, 
1841.00, 
1842.00, 
1843.00, 
1844.00, 
1845.00, 
1846.00, 
1847.00, 
1848.00, 
1849.00, 
1850.00, 
1851.00, 
1852.00, 
1853.00, 
1854.00, 
1855.00, 
1856.00, 
1857.00, 
1858.00, 
1859.00, 
1860.00, 
1861.00, 
1862.00, 
1863.00, 
1864.00, 
1865.00, 
1866.00, 
1867.00, 
1868.00, 
1869.00, 
1870.00, 
1871.00, 
1872.00, 
1873.00, 
1874.00, 
1875.00, 
1876.00, 
1877.00, 
1878.00, 
1879.00, 
1880.00, 
1881.00, 
1882.00, 
1883.00, 
1884.00, 
1885.00, 
1886.00, 
1887.00, 
1888.00, 
1889.00, 
1890.00, 
1891.00, 
1892.00, 
1893.00, 
1894.00, 
1895.00, 
1896.00, 
1897.00, 
1898.00, 
1899.00, 
1900.00, 
1901.00, 
1902.00, 
1903.00, 
1904.00, 
1905.00, 
1906.00, 
1907.00, 
1908.00, 
1909.00, 
1910.00, 
1911.00, 
1912.00, 
1913.00, 
1914.00, 
1915.00, 
1916.00, 
1917.00, 
1918.00, 
1919.00, 
1920.00, 
1921.00, 
1922.00, 
1923.00, 
1924.00, 
1925.00, 
1926.00, 
1927.00, 
1928.00, 
1929.00, 
1930.00, 
1931.00, 
1932.00, 
1933.00, 
1934.00, 
1935.00, 
1936.00, 
1937.00, 
1938.00, 
1939.00, 
1940.00, 
1941.00, 
1942.00, 
1943.00, 
1944.00, 
1945.00, 
1946.00, 
1947.00, 
1948.00, 
1949.00, 
1950.00, 
1951.00, 
1952.00, 
1953.00, 
1954.00, 
1955.00, 
1956.00, 
1957.00, 
1958.00, 
1959.00, 
1960.00, 
1961.00, 
1962.00, 
1963.00, 
1964.00, 
1965.00, 
1966.00, 
1967.00, 
1968.00, 
1969.00, 
1970.00, 
1971.00, 
1972.00, 
1973.00, 
1974.00, 
1975.00, 
1976.00, 
1977.00, 
1978.00, 
1979.00, 
1980.00, 
1981.00, 
1982.00, 
1983.00, 
1984.00, 
1985.00, 
1986.00, 
1987.00, 
1988.00, 
1989.00, 
1990.00, 
1991.00, 
1992.00, 
1993.00, 
1994.00, 
1995.00, 
1996.00, 
1997.00, 
1998.00, 
1999.00, 
2000.00, 
2001.00, 
2002.00, 
2003.00, 
2004.00, 
2005.00, 
2006.00, 
2007.00, 
2008.00, 
2009.00, 
2010.00, 
2011.00, 
2012.00, 
2013.00, 
2014.00, 
2015.00, 
2016.00, 
2017.00, 
2018.00, 
2019.00, 
2020.00, 
2021.00, 
2022.00, 
2023.00, 
2024.00, 
2025.00, 
2026.00, 
2027.00, 
2028.00, 
2029.00, 
2030.00, 
2031.00, 
2032.00, 
2033.00, 
2034.00, 
2035.00, 
2036.00, 
2037.00, 
2038.00, 
2039.00, 
2040.00, 
2041.00, 
2042.00, 
2043.00, 
2044.00, 
2045.00, 
2046.00, 
2047.00, 
2048.00, 
2049.00, 
2050.00, 
2051.00, 
2052.00, 
2053.00, 
2054.00, 
2055.00, 
2056.00, 
2057.00, 
2058.00, 
2059.00, 
2060.00, 
2061.00, 
2062.00, 
2063.00, 
2064.00, 
2065.00, 
2066.00, 
2067.00, 
2068.00, 
2069.00, 
2070.00, 
2071.00, 
2072.00, 
2073.00, 
2074.00, 
2075.00, 
2076.00, 
2077.00, 
2078.00, 
2079.00, 
2080.00, 
2081.00, 
2082.00, 
2083.00, 
2084.00, 
2085.00, 
2086.00, 
2087.00, 
2088.00, 
2089.00, 
2090.00, 
2091.00, 
2092.00, 
2093.00, 
2094.00, 
2095.00, 
2096.00, 
2097.00, 
2098.00, 
2099.00, 
2100.00, 
2101.00, 
2102.00, 
2103.00, 
2104.00, 
2105.00, 
2106.00, 
2107.00, 
2108.00, 
2109.00, 
2110.00, 
2111.00, 
2112.00, 
2113.00, 
2114.00, 
2115.00, 
2116.00, 
2117.00, 
2118.00, 
2119.00, 
2120.00, 
2121.00, 
2122.00, 
2123.00, 
2124.00, 
2125.00, 
2126.00, 
2127.00, 
2128.00, 
2129.00, 
2130.00, 
2131.00, 
2132.00, 
2133.00, 
2134.00, 
2135.00, 
2136.00, 
2137.00, 
2138.00, 
2139.00, 
2140.00, 
2141.00, 
2142.00, 
2143.00, 
2144.00, 
2145.00, 
2146.00, 
2147.00, 
2148.00, 
2149.00, 
2150.00, 
2151.00, 
2152.00, 
2153.00, 
2154.00, 
2155.00, 
2156.00, 
2157.00, 
2158.00, 
2159.00, 
2160.00, 
2161.00, 
2162.00, 
2163.00, 
2164.00, 
2165.00, 
2166.00, 
2167.00, 
2168.00, 
2169.00, 
2170.00, 
2171.00, 
2172.00, 
2173.00, 
2174.00, 
2175.00, 
2176.00, 
2177.00, 
2178.00, 
2179.00, 
2180.00, 
2181.00, 
2182.00, 
2183.00, 
2184.00, 
2185.00, 
2186.00, 
2187.00, 
2188.00, 
2189.00, 
2190.00, 
2191.00, 
2192.00, 
2193.00, 
2194.00, 
2195.00, 
2196.00, 
2197.00, 
2198.00, 
2199.00, 
2200.00, 
2201.00, 
2202.00, 
2203.00, 
2204.00, 
2205.00, 
2206.00, 
2207.00, 
2208.00, 
2209.00, 
2210.00, 
2211.00, 
2212.00, 
2213.00, 
2214.00, 
2215.00, 
2216.00, 
2217.00, 
2218.00, 
2219.00, 
2220.00, 
2221.00, 
2222.00, 
2223.00, 
2224.00, 
2225.00, 
2226.00, 
2227.00, 
2228.00, 
2229.00, 
2230.00, 
2231.00, 
2232.00, 
2233.00, 
2234.00, 
2235.00, 
2236.00, 
2237.00, 
2238.00, 
2239.00, 
2240.00, 
2241.00, 
2242.00, 
2243.00, 
2244.00, 
2245.00, 
2246.00, 
2247.00, 
2248.00, 
2249.00, 
2250.00, 
2251.00, 
2252.00, 
2253.00, 
2254.00, 
2255.00, 
2256.00, 
2257.00, 
2258.00, 
2259.00, 
2260.00, 
2261.00, 
2262.00, 
2263.00, 
2264.00, 
2265.00, 
2266.00, 
2267.00, 
2268.00, 
2269.00, 
2270.00, 
2271.00, 
2272.00, 
2273.00, 
2274.00, 
2275.00, 
2276.00, 
2277.00, 
2278.00, 
2279.00, 
2280.00, 
2281.00, 
2282.00, 
2283.00, 
2284.00, 
2285.00, 
2286.00, 
2287.00, 
2288.00, 
2289.00, 
2290.00, 
2291.00, 
2292.00, 
2293.00, 
2294.00, 
2295.00, 
2296.00, 
2297.00, 
2298.00, 
2299.00, 
2300.00, 
2301.00, 
2302.00, 
2303.00, 
2304.00, 
2305.00, 
2306.00, 
2307.00, 
2308.00, 
2309.00, 
2310.00, 
2311.00, 
2312.00, 
2313.00, 
2314.00, 
2315.00, 
2316.00, 
2317.00, 
2318.00, 
2319.00, 
2320.00, 
2321.00, 
2322.00, 
2323.00, 
2324.00, 
2325.00, 
2326.00, 
2327.00, 
2328.00, 
2329.00, 
2330.00, 
2331.00, 
2332.00, 
2333.00, 
2334.00, 
2335.00, 
2336.00, 
2337.00, 
2338.00, 
2339.00, 
2340.00, 
2341.00, 
2342.00, 
2343.00, 
2344.00, 
2345.00, 
2346.00, 
2347.00, 
2348.00, 
2349.00, 
2350.00, 
2351.00, 
2352.00, 
2353.00, 
2354.00, 
2355.00, 
2356.00, 
2357.00, 
2358.00, 
2359.00, 
2360.00, 
2361.00, 
2362.00, 
2363.00, 
2364.00, 
2365.00, 
2366.00, 
2367.00, 
2368.00, 
2369.00, 
2370.00, 
2371.00, 
2372.00, 
2373.00, 
2374.00, 
2375.00, 
2376.00, 
2377.00, 
2378.00, 
2379.00, 
2380.00, 
2381.00, 
2382.00, 
2383.00, 
2384.00, 
2385.00, 
2386.00, 
2387.00, 
2388.00, 
2389.00, 
2390.00, 
2391.00, 
2392.00, 
2393.00, 
2394.00, 
2395.00, 
2396.00, 
2397.00, 
2398.00, 
2399.00, 
2400.00, 
2401.00, 
2402.00, 
2403.00, 
2404.00, 
2405.00, 
2406.00, 
2407.00, 
2408.00, 
2409.00, 
2410.00, 
2411.00, 
2412.00, 
2413.00, 
2414.00, 
2415.00, 
2416.00, 
2417.00, 
2418.00, 
2419.00, 
2420.00, 
2421.00, 
2422.00, 
2423.00, 
2424.00, 
2425.00, 
2426.00, 
2427.00, 
2428.00, 
2429.00, 
2430.00, 
2431.00, 
2432.00, 
2433.00, 
2434.00, 
2435.00, 
2436.00, 
2437.00, 
2438.00, 
2439.00, 
2440.00, 
2441.00, 
2442.00, 
2443.00, 
2444.00, 
2445.00, 
2446.00, 
2447.00, 
2448.00, 
2449.00, 
2450.00, 
2451.00, 
2452.00, 
2453.00, 
2454.00, 
2455.00, 
2456.00, 
2457.00, 
2458.00, 
2459.00, 
2460.00, 
2461.00, 
2462.00, 
2463.00, 
2464.00, 
2465.00, 
2466.00, 
2467.00, 
2468.00, 
2469.00, 
2470.00, 
2471.00, 
2472.00, 
2473.00, 
2474.00, 
2475.00, 
2476.00, 
2477.00, 
2478.00, 
2479.00, 
2480.00, 
2481.00, 
2482.00, 
2483.00, 
2484.00, 
2485.00, 
2486.00, 
2487.00, 
2488.00, 
2489.00, 
2490.00, 
2491.00, 
2492.00, 
2493.00, 
2494.00, 
2495.00, 
2496.00, 
2497.00, 
2498.00, 
2499.00, 
2500.00, 
2501.00, 
2502.00, 
2503.00, 
2504.00, 
2505.00, 
2506.00, 
2507.00, 
2508.00, 
2509.00, 
2510.00, 
2511.00, 
2512.00, 
2513.00, 
2514.00, 
2515.00, 
2516.00, 
2517.00, 
2518.00, 
2519.00, 
2520.00, 
2521.00, 
2522.00, 
2523.00, 
2524.00, 
2525.00, 
2526.00, 
2527.00, 
2528.00, 
2529.00, 
2530.00, 
2531.00, 
2532.00, 
2533.00, 
2534.00, 
2535.00, 
2536.00, 
2537.00, 
2538.00, 
2539.00, 
2540.00, 
2541.00, 
2542.00, 
2543.00, 
2544.00, 
2545.00, 
2546.00, 
2547.00, 
2548.00, 
2549.00, 
2550.00, 
2551.00, 
2552.00, 
2553.00, 
2554.00, 
2555.00, 
2556.00, 
2557.00, 
2558.00, 
2559.00, 
2560.00, 
2561.00, 
2562.00, 
2563.00, 
2564.00, 
2565.00, 
2566.00, 
2567.00, 
2568.00, 
2569.00, 
2570.00, 
2571.00, 
2572.00, 
2573.00, 
2574.00, 
2575.00, 
2576.00, 
2577.00, 
2578.00, 
2579.00, 
2580.00, 
2581.00, 
2582.00, 
2583.00, 
2584.00, 
2585.00, 
2586.00, 
2587.00, 
2588.00, 
2589.00, 
2590.00, 
2591.00, 
2592.00, 
2593.00, 
2594.00, 
2595.00, 
2596.00, 
2597.00, 
2598.00, 
2599.00, 
2600.00, 
