"1cP2 - RawData"
"Wavelength nm.","T%"
200.00,-0.000
201.00,0.005
202.00,0.003
203.00,0.003
204.00,-0.001
205.00,0.001
206.00,0.001
207.00,0.002
208.00,0.001
209.00,0.003
210.00,0.002
211.00,0.002
212.00,-0.003
213.00,-0.002
214.00,0.001
215.00,0.000
216.00,-0.001
217.00,0.001
218.00,0.002
219.00,0.001
220.00,-0.001
221.00,-0.000
222.00,-0.000
223.00,0.001
224.00,0.000
225.00,-0.000
226.00,0.000
227.00,0.000
228.00,0.001
229.00,0.000
230.00,0.000
231.00,0.001
232.00,0.001
233.00,0.000
234.00,-0.001
235.00,0.002
236.00,-0.002
237.00,-0.000
238.00,0.001
239.00,0.001
240.00,0.000
241.00,0.002
242.00,-0.000
243.00,0.001
244.00,-0.000
245.00,0.000
246.00,-0.002
247.00,0.000
248.00,0.001
249.00,-0.000
250.00,-0.000
251.00,0.002
252.00,-0.002
253.00,-0.000
254.00,0.000
255.00,0.003
256.00,0.002
257.00,0.001
258.00,0.001
259.00,-0.001
260.00,0.002
261.00,-0.003
262.00,0.002
263.00,0.003
264.00,0.000
265.00,0.002
266.00,0.001
267.00,-0.002
268.00,0.001
269.00,-0.001
270.00,-0.002
271.00,-0.001
272.00,0.000
273.00,0.000
274.00,-0.001
275.00,-0.001
276.00,0.001
277.00,-0.001
278.00,-0.000
279.00,-0.001
280.00,0.001
281.00,0.001
282.00,-0.001
283.00,-0.000
284.00,0.000
285.00,0.001
286.00,0.001
287.00,0.001
288.00,-0.001
289.00,-0.000
290.00,0.002
291.00,0.001
292.00,0.000
293.00,0.001
294.00,0.001
295.00,-0.000
296.00,-0.002
297.00,0.000
298.00,-0.001
299.00,-0.000
300.00,0.001
301.00,0.001
302.00,-0.001
303.00,-0.001
304.00,0.000
305.00,0.002
306.00,0.003
307.00,0.004
308.00,0.006
309.00,0.011
310.00,0.018
311.00,0.026
312.00,0.042
313.00,0.067
314.00,0.098
315.00,0.148
316.00,0.217
317.00,0.296
318.00,0.413
319.00,0.553
320.00,0.728
321.00,0.952
322.00,1.206
323.00,1.527
324.00,1.896
325.00,2.288
326.00,2.719
327.00,3.239
328.00,3.765
329.00,4.346
330.00,4.984
331.00,5.642
332.00,6.336
333.00,7.006
334.00,7.805
335.00,8.614
336.00,9.372
337.00,10.201
338.00,10.971
339.00,11.721
340.00,12.478
341.00,13.326
342.00,13.957
343.00,14.723
344.00,15.433
345.00,16.085
346.00,16.705
347.00,17.238
348.00,17.878
349.00,18.417
350.00,18.911
351.00,19.344
352.00,19.776
353.00,20.202
354.00,20.636
355.00,21.000
356.00,21.357
357.00,21.606
358.00,21.938
359.00,22.318
360.00,22.593
361.00,22.624
362.00,22.933
363.00,23.174
364.00,23.235
365.00,23.407
366.00,23.599
367.00,23.524
368.00,23.755
369.00,23.790
370.00,23.886
371.00,23.876
372.00,23.850
373.00,23.921
374.00,23.910
375.00,23.746
376.00,23.671
377.00,23.575
378.00,23.468
379.00,23.399
380.00,23.370
381.00,23.353
382.00,23.357
383.00,23.385
384.00,23.433
385.00,23.471
386.00,23.488
387.00,23.598
388.00,23.691
389.00,23.667
390.00,23.715
391.00,23.774
392.00,23.774
393.00,23.769
394.00,23.824
395.00,23.861
396.00,23.803
397.00,23.872
398.00,23.836
399.00,23.833
400.00,23.858
401.00,23.782
402.00,23.884
403.00,23.854
404.00,23.768
405.00,23.735
406.00,23.704
407.00,23.657
408.00,23.648
409.00,23.555
410.00,23.492
411.00,23.490
412.00,23.357
413.00,23.421
414.00,23.335
415.00,23.352
416.00,23.386
417.00,23.344
418.00,23.345
419.00,23.423
420.00,23.456
421.00,23.347
422.00,23.391
423.00,23.408
424.00,23.413
425.00,23.404
426.00,23.421
427.00,23.462
428.00,23.515
429.00,23.508
430.00,23.527
431.00,23.574
432.00,23.522
433.00,23.612
434.00,23.653
435.00,23.714
436.00,23.747
437.00,23.792
438.00,23.843
439.00,23.889
440.00,23.943
441.00,24.033
442.00,24.077
443.00,24.123
444.00,24.204
445.00,24.313
446.00,24.391
447.00,24.451
448.00,24.552
449.00,24.649
450.00,24.735
451.00,24.786
452.00,24.881
453.00,25.015
454.00,25.055
455.00,25.154
456.00,25.289
457.00,25.357
458.00,25.438
459.00,25.591
460.00,25.721
461.00,25.830
462.00,25.931
463.00,26.040
464.00,26.163
465.00,26.273
466.00,26.365
467.00,26.513
468.00,26.562
469.00,26.682
470.00,26.732
471.00,26.845
472.00,26.990
473.00,27.041
474.00,27.192
475.00,27.291
476.00,27.330
477.00,27.462
478.00,27.582
479.00,27.780
480.00,27.912
481.00,28.040
482.00,28.205
483.00,28.394
484.00,28.455
485.00,28.614
486.00,28.709
487.00,28.869
488.00,28.996
489.00,29.132
490.00,29.305
491.00,29.409
492.00,29.583
493.00,29.789
494.00,29.952
495.00,29.919
496.00,30.000
497.00,30.087
498.00,30.235
499.00,30.368
500.00,30.558
501.00,30.647
502.00,30.732
503.00,30.822
504.00,30.908
505.00,31.094
506.00,31.242
507.00,31.330
508.00,31.407
509.00,31.629
510.00,31.725
511.00,31.781
512.00,31.976
513.00,32.108
514.00,32.187
515.00,32.321
516.00,32.464
517.00,32.536
518.00,32.692
519.00,32.764
520.00,32.797
521.00,32.916
522.00,33.002
523.00,33.045
524.00,33.161
525.00,33.286
526.00,33.400
527.00,33.458
528.00,33.541
529.00,33.756
530.00,33.899
531.00,33.916
532.00,34.042
533.00,34.105
534.00,34.283
535.00,34.322
536.00,34.416
537.00,34.511
538.00,34.581
539.00,34.595
540.00,34.721
541.00,34.761
542.00,34.809
543.00,34.903
544.00,34.967
545.00,35.064
546.00,35.040
547.00,35.221
548.00,35.319
549.00,35.334
550.00,35.420
551.00,35.550
552.00,35.604
553.00,35.655
554.00,35.779
555.00,35.819
556.00,35.830
557.00,35.901
558.00,35.963
559.00,36.100
560.00,36.170
561.00,36.204
562.00,36.286
563.00,36.358
564.00,36.355
565.00,36.397
566.00,36.371
567.00,36.382
568.00,36.512
569.00,36.612
570.00,36.586
571.00,36.603
572.00,36.667
573.00,36.593
574.00,36.684
575.00,36.710
576.00,36.702
577.00,36.669
578.00,36.936
579.00,36.976
580.00,37.023
581.00,37.201
582.00,37.242
583.00,37.254
584.00,37.362
585.00,37.411
586.00,37.473
587.00,37.537
588.00,37.537
589.00,37.501
590.00,37.609
591.00,37.631
592.00,37.477
593.00,37.617
594.00,37.785
595.00,37.818
596.00,37.881
597.00,38.008
598.00,38.002
599.00,37.965
600.00,38.012
601.00,38.053
602.00,37.978
603.00,38.249
604.00,38.368
605.00,38.330
606.00,38.375
607.00,38.332
608.00,38.363
609.00,38.510
610.00,38.701
611.00,38.543
612.00,38.462
613.00,38.574
614.00,38.572
615.00,38.700
616.00,38.811
617.00,38.652
618.00,38.647
619.00,38.735
620.00,39.006
621.00,39.180
622.00,39.030
623.00,39.085
624.00,39.135
625.00,39.247
626.00,39.278
627.00,39.370
628.00,39.325
629.00,39.407
630.00,39.411
631.00,39.484
632.00,39.549
633.00,39.566
634.00,39.638
635.00,39.837
636.00,39.880
637.00,39.953
638.00,39.994
639.00,40.103
640.00,40.137
641.00,40.135
642.00,40.175
643.00,40.288
644.00,40.358
645.00,40.401
646.00,40.599
647.00,40.647
648.00,40.607
649.00,40.628
650.00,40.720
651.00,40.912
652.00,40.958
653.00,40.970
654.00,40.998
655.00,41.141
656.00,41.508
657.00,41.295
658.00,41.332
659.00,41.450
660.00,41.602
661.00,41.620
662.00,41.691
663.00,41.752
664.00,42.058
665.00,42.154
666.00,42.043
667.00,42.168
668.00,42.049
669.00,42.511
670.00,42.651
671.00,42.615
672.00,42.568
673.00,42.612
674.00,42.763
675.00,42.860
676.00,43.073
677.00,43.224
678.00,42.969
679.00,43.146
680.00,43.213
681.00,43.345
682.00,43.403
683.00,43.435
684.00,43.708
685.00,43.837
686.00,43.523
687.00,43.598
688.00,43.793
689.00,43.740
690.00,44.096
691.00,44.272
692.00,44.142
693.00,44.122
694.00,44.273
695.00,44.412
696.00,44.474
697.00,44.456
698.00,44.505
699.00,44.851
700.00,44.876
701.00,44.882
702.00,45.010
703.00,45.156
704.00,45.323
705.00,45.182
706.00,45.212
707.00,45.240
708.00,45.177
709.00,45.519
710.00,45.963
711.00,45.452
712.00,45.454
713.00,45.656
714.00,45.773
715.00,45.695
716.00,45.688
717.00,45.918
718.00,45.979
719.00,45.952
720.00,45.992
721.00,50.625
722.00,50.605
723.00,50.681
724.00,50.679
725.00,50.719
726.00,50.691
727.00,50.660
728.00,50.760
729.00,50.812
730.00,50.807
731.00,50.821
732.00,50.759
733.00,50.860
734.00,50.857
735.00,50.928
736.00,50.927
737.00,51.003
738.00,51.007
739.00,51.018
740.00,51.022
741.00,51.112
742.00,51.156
743.00,51.104
744.00,51.084
745.00,51.164
746.00,51.139
747.00,51.041
748.00,51.097
749.00,51.079
750.00,51.081
751.00,51.055
752.00,51.128
753.00,51.160
754.00,51.134
755.00,51.142
756.00,51.116
757.00,51.149
758.00,51.077
759.00,51.189
760.00,51.065
761.00,51.123
762.00,51.159
763.00,51.128
764.00,51.186
765.00,51.213
766.00,51.164
767.00,51.171
768.00,51.186
769.00,51.138
770.00,51.254
771.00,51.241
772.00,51.241
773.00,51.214
774.00,51.296
775.00,51.221
776.00,51.101
777.00,51.246
778.00,51.210
779.00,51.303
780.00,51.171
781.00,51.201
782.00,51.253
783.00,51.167
784.00,51.267
785.00,51.183
786.00,51.176
787.00,51.159
788.00,51.203
789.00,51.196
790.00,51.110
791.00,51.213
792.00,51.047
793.00,51.152
794.00,51.043
795.00,51.053
796.00,51.038
797.00,50.942
798.00,51.083
799.00,51.002
800.00,51.039
801.00,50.921
802.00,50.891
803.00,50.949
804.00,50.891
805.00,50.999
806.00,50.837
807.00,50.879
808.00,50.851
809.00,50.813
810.00,50.833
811.00,50.769
812.00,50.878
813.00,50.742
814.00,50.769
815.00,50.699
816.00,50.661
817.00,50.738
818.00,50.639
819.00,50.685
820.00,50.542
821.00,50.679
822.00,50.575
823.00,50.554
824.00,50.630
825.00,50.570
826.00,50.540
827.00,50.617
828.00,50.612
829.00,50.498
830.00,50.536
831.00,53.000
832.00,52.996
833.00,52.945
834.00,52.975
835.00,52.882
836.00,52.900
837.00,52.855
838.00,52.843
839.00,52.860
840.00,52.778
841.00,52.796
842.00,52.755
843.00,52.772
844.00,52.784
845.00,52.682
846.00,52.743
847.00,52.680
848.00,52.722
849.00,52.586
850.00,52.623
851.00,52.528
852.00,52.578
853.00,52.473
854.00,52.478
855.00,52.397
856.00,52.438
857.00,52.367
858.00,52.354
859.00,52.355
860.00,52.360
861.00,52.327
862.00,52.288
863.00,52.288
864.00,52.138
865.00,52.246
866.00,52.224
867.00,52.225
868.00,52.226
869.00,52.166
870.00,52.201
871.00,52.163
872.00,52.172
873.00,52.130
874.00,52.185
875.00,52.126
876.00,52.153
877.00,52.106
878.00,52.109
879.00,52.038
880.00,52.066
881.00,52.028
882.00,52.069
883.00,52.009
884.00,51.949
885.00,51.965
886.00,51.984
887.00,51.926
888.00,51.904
889.00,51.894
890.00,51.884
891.00,51.843
892.00,51.804
893.00,51.812
894.00,51.793
895.00,51.753
896.00,51.737
897.00,51.734
898.00,51.700
899.00,51.682
900.00,51.679
901.00,51.673
902.00,51.686
903.00,51.652
904.00,51.627
905.00,51.616
906.00,51.589
907.00,51.564
908.00,51.495
909.00,51.517
910.00,51.475
911.00,51.475
912.00,51.467
913.00,51.410
914.00,51.499
915.00,51.356
916.00,51.378
917.00,51.365
918.00,51.376
919.00,51.339
920.00,51.259
921.00,51.281
922.00,51.267
923.00,51.235
924.00,51.181
925.00,51.202
926.00,51.185
927.00,51.177
928.00,51.127
929.00,51.146
930.00,51.108
931.00,51.094
932.00,51.022
933.00,51.059
934.00,51.031
935.00,51.000
936.00,50.967
937.00,50.939
938.00,50.968
939.00,50.946
940.00,50.879
941.00,50.904
942.00,51.026
943.00,50.892
944.00,50.835
945.00,50.832
946.00,50.818
947.00,50.758
948.00,50.772
949.00,50.741
950.00,50.729
951.00,50.702
952.00,50.692
953.00,50.642
954.00,50.633
955.00,50.560
956.00,50.569
957.00,50.606
958.00,50.555
959.00,50.478
960.00,50.484
961.00,50.470
962.00,50.473
963.00,50.421
964.00,50.413
965.00,50.444
966.00,50.409
967.00,50.400
968.00,50.371
969.00,50.446
970.00,50.432
971.00,50.391
972.00,50.345
973.00,50.390
974.00,50.414
975.00,50.360
976.00,50.406
977.00,50.373
978.00,50.425
979.00,50.378
980.00,50.399
981.00,50.399
982.00,50.356
983.00,50.385
984.00,50.359
985.00,50.389
986.00,50.321
987.00,50.352
988.00,50.306
989.00,50.290
990.00,50.313
991.00,50.280
992.00,50.302
993.00,50.251
994.00,50.234
995.00,50.241
996.00,50.210
997.00,50.204
998.00,50.178
999.00,50.201
1000.00,50.124
1001.00,50.123
1002.00,50.141
1003.00,50.107
1004.00,50.098
1005.00,50.053
1006.00,50.117
1007.00,50.069
1008.00,50.051
1009.00,50.050
1010.00,50.042
1011.00,50.015
1012.00,49.990
1013.00,50.004
1014.00,49.972
1015.00,49.993
1016.00,49.943
1017.00,49.956
1018.00,49.998
1019.00,49.884
1020.00,49.895
1021.00,49.859
1022.00,49.850
1023.00,49.818
1024.00,49.820
1025.00,49.808
1026.00,49.790
1027.00,49.758
1028.00,49.770
1029.00,49.758
1030.00,49.704
1031.00,49.744
1032.00,49.682
1033.00,49.674
1034.00,49.656
1035.00,49.626
1036.00,49.593
1037.00,49.586
1038.00,49.575
1039.00,49.545
1040.00,49.537
1041.00,49.489
1042.00,49.508
1043.00,49.484
1044.00,49.504
1045.00,49.480
1046.00,49.481
1047.00,49.509
1048.00,49.513
1049.00,49.531
1050.00,49.538
1051.00,49.582
1052.00,49.559
1053.00,49.562
1054.00,49.548
1055.00,49.562
1056.00,49.585
1057.00,49.576
1058.00,49.558
1059.00,49.561
1060.00,49.579
1061.00,49.565
1062.00,49.541
1063.00,49.575
1064.00,49.618
1065.00,49.556
1066.00,49.538
1067.00,49.536
1068.00,49.560
1069.00,49.505
1070.00,49.507
1071.00,49.494
1072.00,49.521
1073.00,49.496
1074.00,49.484
1075.00,49.474
1076.00,49.482
1077.00,49.449
1078.00,49.457
1079.00,49.469
1080.00,49.442
1081.00,49.423
1082.00,49.424
1083.00,49.421
1084.00,49.421
1085.00,49.415
1086.00,49.399
1087.00,49.395
1088.00,49.376
1089.00,49.383
1090.00,49.369
1091.00,49.370
1092.00,49.349
1093.00,49.322
1094.00,49.308
1095.00,49.300
1096.00,49.275
1097.00,49.291
1098.00,49.280
1099.00,49.256
1100.00,49.253
1101.00,49.259
1102.00,49.233
1103.00,49.239
1104.00,49.202
1105.00,49.211
1106.00,49.194
1107.00,49.196
1108.00,49.200
1109.00,49.198
1110.00,49.178
1111.00,49.175
1112.00,49.157
1113.00,49.154
1114.00,49.144
1115.00,49.141
1116.00,49.131
1117.00,49.120
1118.00,49.093
1119.00,49.106
1120.00,49.094
1121.00,49.092
1122.00,49.091
1123.00,49.079
1124.00,49.073
1125.00,49.075
1126.00,49.050
1127.00,49.063
1128.00,49.055
1129.00,49.033
1130.00,49.011
1131.00,49.019
1132.00,48.987
1133.00,49.002
1134.00,48.992
1135.00,48.980
1136.00,48.989
1137.00,48.991
1138.00,49.004
1139.00,49.019
1140.00,49.018
1141.00,48.999
1142.00,48.975
1143.00,48.981
1144.00,48.973
1145.00,48.978
1146.00,48.970
1147.00,48.969
1148.00,48.947
1149.00,48.977
1150.00,48.976
1151.00,48.963
1152.00,48.981
1153.00,48.962
1154.00,48.947
1155.00,48.977
1156.00,48.942
1157.00,48.958
1158.00,48.937
1159.00,48.934
1160.00,48.946
1161.00,48.954
1162.00,48.934
1163.00,48.941
1164.00,48.947
1165.00,48.932
1166.00,48.942
1167.00,48.930
1168.00,48.941
1169.00,48.929
1170.00,48.926
1171.00,48.913
1172.00,48.913
1173.00,48.904
1174.00,48.925
1175.00,48.918
1176.00,48.900
1177.00,48.893
1178.00,48.905
1179.00,48.912
1180.00,48.905
1181.00,48.914
1182.00,48.897
1183.00,48.907
1184.00,48.879
1185.00,48.919
1186.00,48.897
1187.00,48.883
1188.00,48.895
1189.00,48.898
1190.00,48.899
1191.00,48.883
1192.00,48.923
1193.00,48.915
1194.00,48.925
1195.00,48.897
1196.00,48.920
1197.00,48.914
1198.00,48.889
1199.00,48.892
1200.00,48.902
1201.00,48.918
1202.00,48.904
1203.00,48.903
1204.00,48.902
1205.00,48.917
1206.00,48.896
1207.00,48.910
1208.00,48.903
1209.00,48.894
1210.00,48.891
1211.00,48.884
1212.00,48.894
1213.00,48.867
1214.00,48.876
1215.00,48.865
1216.00,48.901
1217.00,48.889
1218.00,48.887
1219.00,48.899
1220.00,48.854
1221.00,48.896
1222.00,48.885
1223.00,48.916
1224.00,48.908
1225.00,48.882
1226.00,48.907
1227.00,48.901
1228.00,48.909
1229.00,48.920
1230.00,48.965
1231.00,48.943
1232.00,48.963
1233.00,48.959
1234.00,48.961
1235.00,48.965
1236.00,48.955
1237.00,48.968
1238.00,48.955
1239.00,48.947
1240.00,48.944
1241.00,48.957
1242.00,48.943
1243.00,48.967
1244.00,48.948
1245.00,48.984
1246.00,49.000
1247.00,48.979
1248.00,48.992
1249.00,48.995
1250.00,48.994
1251.00,49.000
1252.00,49.024
1253.00,49.004
1254.00,49.034
1255.00,49.013
1256.00,48.994
1257.00,49.000
1258.00,49.049
1259.00,49.037
1260.00,49.069
1261.00,49.063
1262.00,49.070
1263.00,49.066
1264.00,49.057
1265.00,49.087
1266.00,49.072
1267.00,49.083
1268.00,49.083
1269.00,49.065
1270.00,49.089
1271.00,49.089
1272.00,49.088
1273.00,49.108
1274.00,49.110
1275.00,49.108
1276.00,49.110
1277.00,49.122
1278.00,49.139
1279.00,49.154
1280.00,49.142
1281.00,49.167
1282.00,49.173
1283.00,49.162
1284.00,49.188
1285.00,49.179
1286.00,49.173
1287.00,49.176
1288.00,49.179
1289.00,49.168
1290.00,49.227
1291.00,49.208
1292.00,49.206
1293.00,49.206
1294.00,49.218
1295.00,49.246
1296.00,49.227
1297.00,49.233
1298.00,49.292
1299.00,49.237
1300.00,49.271
1301.00,49.262
1302.00,49.282
1303.00,49.291
1304.00,49.285
1305.00,49.305
1306.00,49.313
1307.00,49.325
1308.00,49.307
1309.00,49.343
1310.00,49.340
1311.00,49.322
1312.00,49.333
1313.00,49.336
1314.00,49.360
1315.00,49.372
1316.00,49.366
1317.00,49.416
1318.00,49.399
1319.00,49.399
1320.00,49.419
1321.00,49.562
1322.00,49.552
1323.00,49.540
1324.00,49.530
1325.00,49.528
1326.00,49.565
1327.00,49.513
1328.00,49.530
1329.00,49.525
1330.00,49.537
1331.00,49.562
1332.00,49.549
1333.00,49.566
1334.00,49.615
1335.00,49.625
1336.00,49.664
1337.00,49.702
1338.00,49.747
1339.00,49.803
1340.00,49.847
1341.00,49.904
1342.00,49.985
1343.00,50.052
1344.00,50.068
1345.00,50.136
1346.00,50.140
1347.00,50.179
1348.00,50.230
1349.00,50.221
1350.00,50.249
1351.00,50.231
1352.00,50.245
1353.00,50.274
1354.00,50.254
1355.00,50.253
1356.00,50.291
1357.00,50.292
1358.00,50.285
1359.00,50.334
1360.00,50.321
1361.00,50.357
1362.00,50.313
1363.00,50.340
1364.00,50.433
1365.00,50.327
1366.00,50.350
1367.00,50.344
1368.00,50.317
1369.00,50.339
1370.00,50.331
1371.00,50.299
1372.00,50.313
1373.00,50.310
1374.00,50.317
1375.00,50.304
1376.00,50.292
1377.00,50.268
1378.00,50.342
1379.00,50.293
1380.00,50.334
1381.00,50.345
1382.00,50.277
1383.00,50.341
1384.00,50.269
1385.00,50.303
1386.00,50.322
1387.00,50.297
1388.00,50.285
1389.00,50.295
1390.00,50.317
1391.00,50.326
1392.00,50.309
1393.00,50.272
1394.00,50.329
1395.00,50.323
1396.00,50.276
1397.00,50.315
1398.00,50.305
1399.00,50.302
1400.00,50.309
1401.00,50.277
1402.00,50.319
1403.00,50.344
1404.00,50.354
1405.00,50.361
1406.00,50.389
1407.00,50.373
1408.00,50.421
1409.00,50.388
1410.00,50.416
1411.00,50.395
1412.00,50.451
1413.00,50.436
1414.00,50.453
1415.00,50.434
1416.00,50.475
1417.00,50.479
1418.00,50.476
1419.00,50.497
1420.00,50.490
1421.00,50.537
1422.00,50.541
1423.00,50.576
1424.00,50.572
1425.00,50.609
1426.00,50.586
1427.00,50.644
1428.00,50.628
1429.00,50.641
1430.00,50.654
1431.00,50.689
1432.00,50.696
1433.00,50.723
1434.00,50.704
1435.00,50.764
1436.00,50.778
1437.00,50.785
1438.00,50.803
1439.00,50.815
1440.00,50.818
1441.00,50.850
1442.00,50.857
1443.00,50.870
1444.00,50.930
1445.00,50.879
1446.00,50.932
1447.00,50.962
1448.00,50.985
1449.00,50.998
1450.00,51.009
1451.00,51.025
1452.00,51.059
1453.00,51.034
1454.00,51.072
1455.00,51.105
1456.00,51.097
1457.00,51.108
1458.00,51.159
1459.00,51.157
1460.00,51.204
1461.00,51.183
1462.00,51.230
1463.00,51.242
1464.00,51.231
1465.00,51.253
1466.00,51.256
1467.00,51.268
1468.00,51.346
1469.00,51.307
1470.00,51.328
1471.00,51.358
1472.00,51.359
1473.00,51.371
1474.00,51.419
1475.00,51.424
1476.00,51.427
1477.00,51.423
1478.00,51.454
1479.00,51.472
1480.00,51.461
1481.00,51.473
1482.00,51.525
1483.00,51.510
1484.00,51.533
1485.00,51.562
1486.00,51.557
1487.00,51.590
1488.00,51.634
1489.00,51.594
1490.00,51.637
1491.00,51.647
1492.00,51.671
1493.00,51.659
1494.00,51.694
1495.00,51.678
1496.00,51.716
1497.00,51.688
1498.00,51.717
1499.00,51.744
1500.00,51.735
1501.00, 
1502.00, 
1503.00, 
1504.00, 
1505.00, 
1506.00, 
1507.00, 
1508.00, 
1509.00, 
1510.00, 
1511.00, 
1512.00, 
1513.00, 
1514.00, 
1515.00, 
1516.00, 
1517.00, 
1518.00, 
1519.00, 
1520.00, 
1521.00, 
1522.00, 
1523.00, 
1524.00, 
1525.00, 
1526.00, 
1527.00, 
1528.00, 
1529.00, 
1530.00, 
1531.00, 
1532.00, 
1533.00, 
1534.00, 
1535.00, 
1536.00, 
1537.00, 
1538.00, 
1539.00, 
1540.00, 
1541.00, 
1542.00, 
1543.00, 
1544.00, 
1545.00, 
1546.00, 
1547.00, 
1548.00, 
1549.00, 
1550.00, 
1551.00, 
1552.00, 
1553.00, 
1554.00, 
1555.00, 
1556.00, 
1557.00, 
1558.00, 
1559.00, 
1560.00, 
1561.00, 
1562.00, 
1563.00, 
1564.00, 
1565.00, 
1566.00, 
1567.00, 
1568.00, 
1569.00, 
1570.00, 
1571.00, 
1572.00, 
1573.00, 
1574.00, 
1575.00, 
1576.00, 
1577.00, 
1578.00, 
1579.00, 
1580.00, 
1581.00, 
1582.00, 
1583.00, 
1584.00, 
1585.00, 
1586.00, 
1587.00, 
1588.00, 
1589.00, 
1590.00, 
1591.00, 
1592.00, 
1593.00, 
1594.00, 
1595.00, 
1596.00, 
1597.00, 
1598.00, 
1599.00, 
1600.00, 
1601.00, 
1602.00, 
1603.00, 
1604.00, 
1605.00, 
1606.00, 
1607.00, 
1608.00, 
1609.00, 
1610.00, 
1611.00, 
1612.00, 
1613.00, 
1614.00, 
1615.00, 
1616.00, 
1617.00, 
1618.00, 
1619.00, 
1620.00, 
1621.00, 
1622.00, 
1623.00, 
1624.00, 
1625.00, 
1626.00, 
1627.00, 
1628.00, 
1629.00, 
1630.00, 
1631.00, 
1632.00, 
1633.00, 
1634.00, 
1635.00, 
1636.00, 
1637.00, 
1638.00, 
1639.00, 
1640.00, 
1641.00, 
1642.00, 
1643.00, 
1644.00, 
1645.00, 
1646.00, 
1647.00, 
1648.00, 
1649.00, 
1650.00, 
1651.00, 
1652.00, 
1653.00, 
1654.00, 
1655.00, 
1656.00, 
1657.00, 
1658.00, 
1659.00, 
1660.00, 
1661.00, 
1662.00, 
1663.00, 
1664.00, 
1665.00, 
1666.00, 
1667.00, 
1668.00, 
1669.00, 
1670.00, 
1671.00, 
1672.00, 
1673.00, 
1674.00, 
1675.00, 
1676.00, 
1677.00, 
1678.00, 
1679.00, 
1680.00, 
1681.00, 
1682.00, 
1683.00, 
1684.00, 
1685.00, 
1686.00, 
1687.00, 
1688.00, 
1689.00, 
1690.00, 
1691.00, 
1692.00, 
1693.00, 
1694.00, 
1695.00, 
1696.00, 
1697.00, 
1698.00, 
1699.00, 
1700.00, 
1701.00, 
1702.00, 
1703.00, 
1704.00, 
1705.00, 
1706.00, 
1707.00, 
1708.00, 
1709.00, 
1710.00, 
1711.00, 
1712.00, 
1713.00, 
1714.00, 
1715.00, 
1716.00, 
1717.00, 
1718.00, 
1719.00, 
1720.00, 
1721.00, 
1722.00, 
1723.00, 
1724.00, 
1725.00, 
1726.00, 
1727.00, 
1728.00, 
1729.00, 
1730.00, 
1731.00, 
1732.00, 
1733.00, 
1734.00, 
1735.00, 
1736.00, 
1737.00, 
1738.00, 
1739.00, 
1740.00, 
1741.00, 
1742.00, 
1743.00, 
1744.00, 
1745.00, 
1746.00, 
1747.00, 
1748.00, 
1749.00, 
1750.00, 
1751.00, 
1752.00, 
1753.00, 
1754.00, 
1755.00, 
1756.00, 
1757.00, 
1758.00, 
1759.00, 
1760.00, 
1761.00, 
1762.00, 
1763.00, 
1764.00, 
1765.00, 
1766.00, 
1767.00, 
1768.00, 
1769.00, 
1770.00, 
1771.00, 
1772.00, 
1773.00, 
1774.00, 
1775.00, 
1776.00, 
1777.00, 
1778.00, 
1779.00, 
1780.00, 
1781.00, 
1782.00, 
1783.00, 
1784.00, 
1785.00, 
1786.00, 
1787.00, 
1788.00, 
1789.00, 
1790.00, 
1791.00, 
1792.00, 
1793.00, 
1794.00, 
1795.00, 
1796.00, 
1797.00, 
1798.00, 
1799.00, 
1800.00, 
1801.00, 
1802.00, 
1803.00, 
1804.00, 
1805.00, 
1806.00, 
1807.00, 
1808.00, 
1809.00, 
1810.00, 
1811.00, 
1812.00, 
1813.00, 
1814.00, 
1815.00, 
1816.00, 
1817.00, 
1818.00, 
1819.00, 
1820.00, 
1821.00, 
1822.00, 
1823.00, 
1824.00, 
1825.00, 
1826.00, 
1827.00, 
1828.00, 
1829.00, 
1830.00, 
1831.00, 
1832.00, 
1833.00, 
1834.00, 
1835.00, 
1836.00, 
1837.00, 
1838.00, 
1839.00, 
1840.00, 
1841.00, 
1842.00, 
1843.00, 
1844.00, 
1845.00, 
1846.00, 
1847.00, 
1848.00, 
1849.00, 
1850.00, 
1851.00, 
1852.00, 
1853.00, 
1854.00, 
1855.00, 
1856.00, 
1857.00, 
1858.00, 
1859.00, 
1860.00, 
1861.00, 
1862.00, 
1863.00, 
1864.00, 
1865.00, 
1866.00, 
1867.00, 
1868.00, 
1869.00, 
1870.00, 
1871.00, 
1872.00, 
1873.00, 
1874.00, 
1875.00, 
1876.00, 
1877.00, 
1878.00, 
1879.00, 
1880.00, 
1881.00, 
1882.00, 
1883.00, 
1884.00, 
1885.00, 
1886.00, 
1887.00, 
1888.00, 
1889.00, 
1890.00, 
1891.00, 
1892.00, 
1893.00, 
1894.00, 
1895.00, 
1896.00, 
1897.00, 
1898.00, 
1899.00, 
1900.00, 
1901.00, 
1902.00, 
1903.00, 
1904.00, 
1905.00, 
1906.00, 
1907.00, 
1908.00, 
1909.00, 
1910.00, 
1911.00, 
1912.00, 
1913.00, 
1914.00, 
1915.00, 
1916.00, 
1917.00, 
1918.00, 
1919.00, 
1920.00, 
1921.00, 
1922.00, 
1923.00, 
1924.00, 
1925.00, 
1926.00, 
1927.00, 
1928.00, 
1929.00, 
1930.00, 
1931.00, 
1932.00, 
1933.00, 
1934.00, 
1935.00, 
1936.00, 
1937.00, 
1938.00, 
1939.00, 
1940.00, 
1941.00, 
1942.00, 
1943.00, 
1944.00, 
1945.00, 
1946.00, 
1947.00, 
1948.00, 
1949.00, 
1950.00, 
1951.00, 
1952.00, 
1953.00, 
1954.00, 
1955.00, 
1956.00, 
1957.00, 
1958.00, 
1959.00, 
1960.00, 
1961.00, 
1962.00, 
1963.00, 
1964.00, 
1965.00, 
1966.00, 
1967.00, 
1968.00, 
1969.00, 
1970.00, 
1971.00, 
1972.00, 
1973.00, 
1974.00, 
1975.00, 
1976.00, 
1977.00, 
1978.00, 
1979.00, 
1980.00, 
1981.00, 
1982.00, 
1983.00, 
1984.00, 
1985.00, 
1986.00, 
1987.00, 
1988.00, 
1989.00, 
1990.00, 
1991.00, 
1992.00, 
1993.00, 
1994.00, 
1995.00, 
1996.00, 
1997.00, 
1998.00, 
1999.00, 
2000.00, 
2001.00, 
2002.00, 
2003.00, 
2004.00, 
2005.00, 
2006.00, 
2007.00, 
2008.00, 
2009.00, 
2010.00, 
2011.00, 
2012.00, 
2013.00, 
2014.00, 
2015.00, 
2016.00, 
2017.00, 
2018.00, 
2019.00, 
2020.00, 
2021.00, 
2022.00, 
2023.00, 
2024.00, 
2025.00, 
2026.00, 
2027.00, 
2028.00, 
2029.00, 
2030.00, 
2031.00, 
2032.00, 
2033.00, 
2034.00, 
2035.00, 
2036.00, 
2037.00, 
2038.00, 
2039.00, 
2040.00, 
2041.00, 
2042.00, 
2043.00, 
2044.00, 
2045.00, 
2046.00, 
2047.00, 
2048.00, 
2049.00, 
2050.00, 
2051.00, 
2052.00, 
2053.00, 
2054.00, 
2055.00, 
2056.00, 
2057.00, 
2058.00, 
2059.00, 
2060.00, 
2061.00, 
2062.00, 
2063.00, 
2064.00, 
2065.00, 
2066.00, 
2067.00, 
2068.00, 
2069.00, 
2070.00, 
2071.00, 
2072.00, 
2073.00, 
2074.00, 
2075.00, 
2076.00, 
2077.00, 
2078.00, 
2079.00, 
2080.00, 
2081.00, 
2082.00, 
2083.00, 
2084.00, 
2085.00, 
2086.00, 
2087.00, 
2088.00, 
2089.00, 
2090.00, 
2091.00, 
2092.00, 
2093.00, 
2094.00, 
2095.00, 
2096.00, 
2097.00, 
2098.00, 
2099.00, 
2100.00, 
2101.00, 
2102.00, 
2103.00, 
2104.00, 
2105.00, 
2106.00, 
2107.00, 
2108.00, 
2109.00, 
2110.00, 
2111.00, 
2112.00, 
2113.00, 
2114.00, 
2115.00, 
2116.00, 
2117.00, 
2118.00, 
2119.00, 
2120.00, 
2121.00, 
2122.00, 
2123.00, 
2124.00, 
2125.00, 
2126.00, 
2127.00, 
2128.00, 
2129.00, 
2130.00, 
2131.00, 
2132.00, 
2133.00, 
2134.00, 
2135.00, 
2136.00, 
2137.00, 
2138.00, 
2139.00, 
2140.00, 
2141.00, 
2142.00, 
2143.00, 
2144.00, 
2145.00, 
2146.00, 
2147.00, 
2148.00, 
2149.00, 
2150.00, 
2151.00, 
2152.00, 
2153.00, 
2154.00, 
2155.00, 
2156.00, 
2157.00, 
2158.00, 
2159.00, 
2160.00, 
2161.00, 
2162.00, 
2163.00, 
2164.00, 
2165.00, 
2166.00, 
2167.00, 
2168.00, 
2169.00, 
2170.00, 
2171.00, 
2172.00, 
2173.00, 
2174.00, 
2175.00, 
2176.00, 
2177.00, 
2178.00, 
2179.00, 
2180.00, 
2181.00, 
2182.00, 
2183.00, 
2184.00, 
2185.00, 
2186.00, 
2187.00, 
2188.00, 
2189.00, 
2190.00, 
2191.00, 
2192.00, 
2193.00, 
2194.00, 
2195.00, 
2196.00, 
2197.00, 
2198.00, 
2199.00, 
2200.00, 
2201.00, 
2202.00, 
2203.00, 
2204.00, 
2205.00, 
2206.00, 
2207.00, 
2208.00, 
2209.00, 
2210.00, 
2211.00, 
2212.00, 
2213.00, 
2214.00, 
2215.00, 
2216.00, 
2217.00, 
2218.00, 
2219.00, 
2220.00, 
2221.00, 
2222.00, 
2223.00, 
2224.00, 
2225.00, 
2226.00, 
2227.00, 
2228.00, 
2229.00, 
2230.00, 
2231.00, 
2232.00, 
2233.00, 
2234.00, 
2235.00, 
2236.00, 
2237.00, 
2238.00, 
2239.00, 
2240.00, 
2241.00, 
2242.00, 
2243.00, 
2244.00, 
2245.00, 
2246.00, 
2247.00, 
2248.00, 
2249.00, 
2250.00, 
2251.00, 
2252.00, 
2253.00, 
2254.00, 
2255.00, 
2256.00, 
2257.00, 
2258.00, 
2259.00, 
2260.00, 
2261.00, 
2262.00, 
2263.00, 
2264.00, 
2265.00, 
2266.00, 
2267.00, 
2268.00, 
2269.00, 
2270.00, 
2271.00, 
2272.00, 
2273.00, 
2274.00, 
2275.00, 
2276.00, 
2277.00, 
2278.00, 
2279.00, 
2280.00, 
2281.00, 
2282.00, 
2283.00, 
2284.00, 
2285.00, 
2286.00, 
2287.00, 
2288.00, 
2289.00, 
2290.00, 
2291.00, 
2292.00, 
2293.00, 
2294.00, 
2295.00, 
2296.00, 
2297.00, 
2298.00, 
2299.00, 
2300.00, 
2301.00, 
2302.00, 
2303.00, 
2304.00, 
2305.00, 
2306.00, 
2307.00, 
2308.00, 
2309.00, 
2310.00, 
2311.00, 
2312.00, 
2313.00, 
2314.00, 
2315.00, 
2316.00, 
2317.00, 
2318.00, 
2319.00, 
2320.00, 
2321.00, 
2322.00, 
2323.00, 
2324.00, 
2325.00, 
2326.00, 
2327.00, 
2328.00, 
2329.00, 
2330.00, 
2331.00, 
2332.00, 
2333.00, 
2334.00, 
2335.00, 
2336.00, 
2337.00, 
2338.00, 
2339.00, 
2340.00, 
2341.00, 
2342.00, 
2343.00, 
2344.00, 
2345.00, 
2346.00, 
2347.00, 
2348.00, 
2349.00, 
2350.00, 
2351.00, 
2352.00, 
2353.00, 
2354.00, 
2355.00, 
2356.00, 
2357.00, 
2358.00, 
2359.00, 
2360.00, 
2361.00, 
2362.00, 
2363.00, 
2364.00, 
2365.00, 
2366.00, 
2367.00, 
2368.00, 
2369.00, 
2370.00, 
2371.00, 
2372.00, 
2373.00, 
2374.00, 
2375.00, 
2376.00, 
2377.00, 
2378.00, 
2379.00, 
2380.00, 
2381.00, 
2382.00, 
2383.00, 
2384.00, 
2385.00, 
2386.00, 
2387.00, 
2388.00, 
2389.00, 
2390.00, 
2391.00, 
2392.00, 
2393.00, 
2394.00, 
2395.00, 
2396.00, 
2397.00, 
2398.00, 
2399.00, 
2400.00, 
2401.00, 
2402.00, 
2403.00, 
2404.00, 
2405.00, 
2406.00, 
2407.00, 
2408.00, 
2409.00, 
2410.00, 
2411.00, 
2412.00, 
2413.00, 
2414.00, 
2415.00, 
2416.00, 
2417.00, 
2418.00, 
2419.00, 
2420.00, 
2421.00, 
2422.00, 
2423.00, 
2424.00, 
2425.00, 
2426.00, 
2427.00, 
2428.00, 
2429.00, 
2430.00, 
2431.00, 
2432.00, 
2433.00, 
2434.00, 
2435.00, 
2436.00, 
2437.00, 
2438.00, 
2439.00, 
2440.00, 
2441.00, 
2442.00, 
2443.00, 
2444.00, 
2445.00, 
2446.00, 
2447.00, 
2448.00, 
2449.00, 
2450.00, 
2451.00, 
2452.00, 
2453.00, 
2454.00, 
2455.00, 
2456.00, 
2457.00, 
2458.00, 
2459.00, 
2460.00, 
2461.00, 
2462.00, 
2463.00, 
2464.00, 
2465.00, 
2466.00, 
2467.00, 
2468.00, 
2469.00, 
2470.00, 
2471.00, 
2472.00, 
2473.00, 
2474.00, 
2475.00, 
2476.00, 
2477.00, 
2478.00, 
2479.00, 
2480.00, 
2481.00, 
2482.00, 
2483.00, 
2484.00, 
2485.00, 
2486.00, 
2487.00, 
2488.00, 
2489.00, 
2490.00, 
2491.00, 
2492.00, 
2493.00, 
2494.00, 
2495.00, 
2496.00, 
2497.00, 
2498.00, 
2499.00, 
2500.00, 
2501.00, 
2502.00, 
2503.00, 
2504.00, 
2505.00, 
2506.00, 
2507.00, 
2508.00, 
2509.00, 
2510.00, 
2511.00, 
2512.00, 
2513.00, 
2514.00, 
2515.00, 
2516.00, 
2517.00, 
2518.00, 
2519.00, 
2520.00, 
2521.00, 
2522.00, 
2523.00, 
2524.00, 
2525.00, 
2526.00, 
2527.00, 
2528.00, 
2529.00, 
2530.00, 
2531.00, 
2532.00, 
2533.00, 
2534.00, 
2535.00, 
2536.00, 
2537.00, 
2538.00, 
2539.00, 
2540.00, 
2541.00, 
2542.00, 
2543.00, 
2544.00, 
2545.00, 
2546.00, 
2547.00, 
2548.00, 
2549.00, 
2550.00, 
2551.00, 
2552.00, 
2553.00, 
2554.00, 
2555.00, 
2556.00, 
2557.00, 
2558.00, 
2559.00, 
2560.00, 
2561.00, 
2562.00, 
2563.00, 
2564.00, 
2565.00, 
2566.00, 
2567.00, 
2568.00, 
2569.00, 
2570.00, 
2571.00, 
2572.00, 
2573.00, 
2574.00, 
2575.00, 
2576.00, 
2577.00, 
2578.00, 
2579.00, 
2580.00, 
2581.00, 
2582.00, 
2583.00, 
2584.00, 
2585.00, 
2586.00, 
2587.00, 
2588.00, 
2589.00, 
2590.00, 
2591.00, 
2592.00, 
2593.00, 
2594.00, 
2595.00, 
2596.00, 
2597.00, 
2598.00, 
2599.00, 
2600.00, 
