"1cP4 - RawData"
"Wavelength nm.","T%"
200.00,0.002
201.00,0.003
202.00,0.001
203.00,-0.002
204.00,0.001
205.00,0.002
206.00,-0.001
207.00,0.002
208.00,0.002
209.00,0.002
210.00,0.002
211.00,0.000
212.00,-0.001
213.00,0.002
214.00,0.001
215.00,0.001
216.00,0.000
217.00,0.000
218.00,0.003
219.00,0.006
220.00,0.001
221.00,0.002
222.00,0.001
223.00,-0.001
224.00,-0.002
225.00,0.000
226.00,-0.000
227.00,0.001
228.00,0.000
229.00,-0.001
230.00,0.001
231.00,0.002
232.00,0.002
233.00,0.001
234.00,0.002
235.00,0.002
236.00,0.001
237.00,0.003
238.00,0.000
239.00,-0.000
240.00,0.002
241.00,0.000
242.00,-0.001
243.00,0.003
244.00,0.000
245.00,0.001
246.00,-0.001
247.00,-0.001
248.00,-0.000
249.00,-0.000
250.00,0.000
251.00,-0.000
252.00,0.000
253.00,0.001
254.00,0.000
255.00,-0.001
256.00,0.001
257.00,-0.000
258.00,0.001
259.00,-0.000
260.00,-0.000
261.00,-0.001
262.00,-0.000
263.00,0.003
264.00,0.002
265.00,0.002
266.00,0.001
267.00,0.002
268.00,-0.001
269.00,-0.000
270.00,-0.000
271.00,0.000
272.00,0.001
273.00,0.002
274.00,0.000
275.00,-0.000
276.00,0.000
277.00,-0.000
278.00,-0.000
279.00,0.001
280.00,0.001
281.00,-0.000
282.00,-0.000
283.00,0.001
284.00,0.001
285.00,0.001
286.00,0.001
287.00,0.001
288.00,-0.001
289.00,-0.001
290.00,0.001
291.00,-0.001
292.00,-0.000
293.00,0.001
294.00,0.002
295.00,-0.001
296.00,0.001
297.00,0.001
298.00,0.002
299.00,0.000
300.00,0.001
301.00,-0.000
302.00,0.001
303.00,0.002
304.00,0.002
305.00,0.001
306.00,0.002
307.00,0.002
308.00,0.005
309.00,0.010
310.00,0.017
311.00,0.025
312.00,0.040
313.00,0.065
314.00,0.101
315.00,0.144
316.00,0.204
317.00,0.297
318.00,0.403
319.00,0.542
320.00,0.721
321.00,0.938
322.00,1.190
323.00,1.500
324.00,1.871
325.00,2.244
326.00,2.650
327.00,3.170
328.00,3.708
329.00,4.270
330.00,4.875
331.00,5.496
332.00,6.218
333.00,6.939
334.00,7.613
335.00,8.388
336.00,9.096
337.00,9.911
338.00,10.679
339.00,11.389
340.00,12.153
341.00,12.877
342.00,13.571
343.00,14.288
344.00,14.888
345.00,15.610
346.00,16.158
347.00,16.741
348.00,17.312
349.00,17.791
350.00,18.310
351.00,18.745
352.00,19.165
353.00,19.607
354.00,19.885
355.00,20.296
356.00,20.663
357.00,20.948
358.00,21.247
359.00,21.574
360.00,21.844
361.00,21.998
362.00,22.224
363.00,22.429
364.00,22.508
365.00,22.648
366.00,22.787
367.00,22.924
368.00,22.945
369.00,23.045
370.00,23.093
371.00,23.099
372.00,23.122
373.00,23.027
374.00,23.091
375.00,23.056
376.00,22.955
377.00,22.904
378.00,22.802
379.00,22.674
380.00,22.729
381.00,22.712
382.00,22.652
383.00,22.713
384.00,22.708
385.00,22.868
386.00,22.879
387.00,23.009
388.00,23.081
389.00,23.120
390.00,23.191
391.00,23.234
392.00,23.282
393.00,23.315
394.00,23.333
395.00,23.390
396.00,23.388
397.00,23.373
398.00,23.408
399.00,23.437
400.00,23.457
401.00,23.459
402.00,23.449
403.00,23.411
404.00,23.403
405.00,23.402
406.00,23.379
407.00,23.335
408.00,23.370
409.00,23.304
410.00,23.209
411.00,23.262
412.00,23.203
413.00,23.246
414.00,23.203
415.00,23.222
416.00,23.228
417.00,23.203
418.00,23.262
419.00,23.348
420.00,23.386
421.00,23.382
422.00,23.423
423.00,23.432
424.00,23.516
425.00,23.537
426.00,23.504
427.00,23.625
428.00,23.574
429.00,23.661
430.00,23.737
431.00,23.804
432.00,23.842
433.00,23.857
434.00,23.920
435.00,24.008
436.00,24.102
437.00,24.136
438.00,24.157
439.00,24.190
440.00,24.313
441.00,24.357
442.00,24.518
443.00,24.586
444.00,24.669
445.00,24.768
446.00,24.886
447.00,24.953
448.00,25.083
449.00,25.172
450.00,25.282
451.00,25.383
452.00,25.507
453.00,25.587
454.00,25.685
455.00,25.801
456.00,25.970
457.00,26.037
458.00,26.153
459.00,26.298
460.00,26.468
461.00,26.572
462.00,26.672
463.00,26.811
464.00,26.948
465.00,27.092
466.00,27.215
467.00,27.324
468.00,27.433
469.00,27.543
470.00,27.634
471.00,27.726
472.00,27.888
473.00,27.955
474.00,28.083
475.00,28.198
476.00,28.281
477.00,28.396
478.00,28.542
479.00,28.731
480.00,28.828
481.00,28.972
482.00,29.127
483.00,29.263
484.00,29.435
485.00,29.560
486.00,29.728
487.00,29.797
488.00,29.939
489.00,30.081
490.00,30.288
491.00,30.420
492.00,30.667
493.00,30.779
494.00,30.782
495.00,30.940
496.00,31.080
497.00,31.170
498.00,31.357
499.00,31.504
500.00,31.606
501.00,31.687
502.00,31.842
503.00,31.981
504.00,32.040
505.00,32.185
506.00,32.346
507.00,32.398
508.00,32.528
509.00,32.708
510.00,32.814
511.00,32.869
512.00,33.027
513.00,33.213
514.00,33.302
515.00,33.415
516.00,33.537
517.00,33.582
518.00,33.743
519.00,33.738
520.00,33.834
521.00,33.949
522.00,34.036
523.00,34.047
524.00,34.198
525.00,34.293
526.00,34.430
527.00,34.433
528.00,34.534
529.00,34.702
530.00,34.830
531.00,34.991
532.00,35.016
533.00,35.110
534.00,35.235
535.00,35.289
536.00,35.358
537.00,35.449
538.00,35.492
539.00,35.548
540.00,35.624
541.00,35.690
542.00,35.725
543.00,35.795
544.00,35.898
545.00,35.958
546.00,35.988
547.00,36.082
548.00,36.204
549.00,36.293
550.00,36.321
551.00,36.450
552.00,36.449
553.00,36.480
554.00,36.621
555.00,36.626
556.00,36.690
557.00,36.723
558.00,36.815
559.00,36.884
560.00,36.937
561.00,37.011
562.00,37.098
563.00,37.090
564.00,37.140
565.00,37.188
566.00,37.191
567.00,37.206
568.00,37.279
569.00,37.301
570.00,37.344
571.00,37.387
572.00,37.438
573.00,37.396
574.00,37.458
575.00,37.428
576.00,37.453
577.00,37.512
578.00,37.555
579.00,37.654
580.00,37.698
581.00,37.754
582.00,37.821
583.00,37.867
584.00,37.859
585.00,38.052
586.00,38.134
587.00,38.070
588.00,38.042
589.00,38.103
590.00,38.269
591.00,38.302
592.00,38.234
593.00,38.278
594.00,38.403
595.00,38.476
596.00,38.568
597.00,38.637
598.00,38.654
599.00,38.648
600.00,38.678
601.00,38.686
602.00,38.696
603.00,38.743
604.00,38.810
605.00,38.908
606.00,38.949
607.00,38.961
608.00,39.075
609.00,39.181
610.00,39.030
611.00,39.070
612.00,39.160
613.00,39.220
614.00,39.263
615.00,39.337
616.00,39.418
617.00,39.425
618.00,39.423
619.00,39.515
620.00,39.537
621.00,39.589
622.00,39.671
623.00,39.743
624.00,39.773
625.00,39.797
626.00,39.888
627.00,39.896
628.00,39.933
629.00,39.998
630.00,40.014
631.00,40.073
632.00,40.186
633.00,40.330
634.00,40.406
635.00,40.506
636.00,40.548
637.00,40.545
638.00,40.637
639.00,40.694
640.00,40.745
641.00,40.772
642.00,40.835
643.00,40.926
644.00,41.026
645.00,41.095
646.00,41.224
647.00,41.219
648.00,41.311
649.00,41.364
650.00,41.338
651.00,41.500
652.00,41.609
653.00,41.571
654.00,41.653
655.00,41.875
656.00,42.157
657.00,42.004
658.00,42.187
659.00,42.291
660.00,42.332
661.00,42.287
662.00,42.325
663.00,42.450
664.00,42.743
665.00,42.897
666.00,42.706
667.00,42.880
668.00,42.823
669.00,43.138
670.00,43.337
671.00,43.218
672.00,43.322
673.00,43.411
674.00,43.447
675.00,43.481
676.00,43.818
677.00,43.873
678.00,43.603
679.00,43.901
680.00,44.029
681.00,44.206
682.00,44.182
683.00,44.229
684.00,44.390
685.00,44.403
686.00,44.307
687.00,44.476
688.00,44.553
689.00,44.540
690.00,44.819
691.00,45.119
692.00,44.888
693.00,44.821
694.00,45.015
695.00,45.192
696.00,45.296
697.00,45.298
698.00,45.385
699.00,45.532
700.00,45.595
701.00,45.553
702.00,45.716
703.00,45.856
704.00,45.918
705.00,45.828
706.00,46.011
707.00,46.018
708.00,45.860
709.00,46.315
710.00,46.691
711.00,46.107
712.00,46.297
713.00,46.467
714.00,46.529
715.00,46.495
716.00,46.546
717.00,46.659
718.00,46.789
719.00,46.831
720.00,46.846
721.00,51.305
722.00,51.351
723.00,51.318
724.00,51.378
725.00,51.332
726.00,51.369
727.00,51.442
728.00,51.407
729.00,51.423
730.00,51.420
731.00,51.439
732.00,51.555
733.00,51.468
734.00,51.594
735.00,51.636
736.00,51.630
737.00,51.611
738.00,51.723
739.00,51.702
740.00,51.804
741.00,51.763
742.00,51.762
743.00,51.764
744.00,51.728
745.00,51.728
746.00,51.863
747.00,51.810
748.00,51.725
749.00,51.757
750.00,51.722
751.00,51.661
752.00,51.755
753.00,51.683
754.00,51.770
755.00,51.794
756.00,51.791
757.00,51.812
758.00,51.716
759.00,51.760
760.00,51.844
761.00,51.860
762.00,51.801
763.00,51.811
764.00,51.703
765.00,51.844
766.00,51.844
767.00,51.821
768.00,51.872
769.00,51.811
770.00,51.917
771.00,51.852
772.00,51.879
773.00,51.887
774.00,51.866
775.00,51.857
776.00,51.808
777.00,51.953
778.00,51.906
779.00,51.917
780.00,51.851
781.00,51.886
782.00,51.878
783.00,51.902
784.00,51.874
785.00,51.736
786.00,51.843
787.00,51.803
788.00,51.819
789.00,51.792
790.00,51.726
791.00,51.777
792.00,51.692
793.00,51.711
794.00,51.739
795.00,51.749
796.00,51.822
797.00,51.593
798.00,51.728
799.00,51.519
800.00,51.562
801.00,51.639
802.00,51.637
803.00,51.588
804.00,51.542
805.00,51.570
806.00,51.552
807.00,51.498
808.00,51.528
809.00,51.447
810.00,51.419
811.00,51.418
812.00,51.473
813.00,51.401
814.00,51.403
815.00,51.391
816.00,51.407
817.00,51.342
818.00,51.344
819.00,51.311
820.00,51.260
821.00,51.236
822.00,51.282
823.00,51.241
824.00,51.301
825.00,51.190
826.00,51.166
827.00,51.275
828.00,51.147
829.00,51.119
830.00,51.168
831.00,53.441
832.00,53.453
833.00,53.363
834.00,53.379
835.00,53.381
836.00,53.399
837.00,53.317
838.00,53.314
839.00,53.321
840.00,53.251
841.00,53.261
842.00,53.253
843.00,53.231
844.00,53.218
845.00,53.228
846.00,53.113
847.00,53.163
848.00,53.127
849.00,53.088
850.00,53.041
851.00,52.994
852.00,53.041
853.00,52.961
854.00,52.925
855.00,52.885
856.00,52.874
857.00,52.840
858.00,52.850
859.00,52.828
860.00,52.765
861.00,52.843
862.00,52.870
863.00,52.779
864.00,52.715
865.00,52.739
866.00,52.724
867.00,52.723
868.00,52.680
869.00,52.664
870.00,52.683
871.00,52.667
872.00,52.655
873.00,52.628
874.00,52.620
875.00,52.586
876.00,52.579
877.00,52.575
878.00,52.566
879.00,52.549
880.00,52.509
881.00,52.547
882.00,52.531
883.00,52.496
884.00,52.443
885.00,52.442
886.00,52.446
887.00,52.395
888.00,52.355
889.00,52.400
890.00,52.363
891.00,52.354
892.00,52.311
893.00,52.300
894.00,52.292
895.00,52.249
896.00,52.239
897.00,52.212
898.00,52.166
899.00,52.167
900.00,52.166
901.00,52.164
902.00,52.161
903.00,52.122
904.00,52.100
905.00,52.100
906.00,52.089
907.00,52.045
908.00,52.017
909.00,52.020
910.00,51.972
911.00,51.967
912.00,51.973
913.00,51.896
914.00,51.904
915.00,51.889
916.00,51.875
917.00,51.832
918.00,51.841
919.00,51.806
920.00,51.777
921.00,51.742
922.00,51.838
923.00,51.698
924.00,51.704
925.00,51.703
926.00,51.673
927.00,51.653
928.00,51.644
929.00,51.667
930.00,51.593
931.00,51.570
932.00,51.647
933.00,51.549
934.00,51.545
935.00,51.506
936.00,51.487
937.00,51.472
938.00,51.473
939.00,51.457
940.00,51.411
941.00,51.408
942.00,51.374
943.00,51.349
944.00,51.321
945.00,51.319
946.00,51.296
947.00,51.233
948.00,51.326
949.00,51.256
950.00,51.238
951.00,51.214
952.00,51.188
953.00,51.147
954.00,51.132
955.00,51.083
956.00,51.080
957.00,51.032
958.00,51.048
959.00,50.980
960.00,50.989
961.00,50.975
962.00,50.979
963.00,50.934
964.00,50.935
965.00,50.932
966.00,50.914
967.00,50.915
968.00,50.879
969.00,50.923
970.00,50.904
971.00,50.903
972.00,50.865
973.00,50.913
974.00,50.932
975.00,50.894
976.00,50.925
977.00,50.941
978.00,50.943
979.00,50.888
980.00,50.915
981.00,50.912
982.00,50.879
983.00,50.897
984.00,50.866
985.00,50.884
986.00,50.845
987.00,50.858
988.00,50.825
989.00,50.809
990.00,50.812
991.00,50.802
992.00,50.799
993.00,50.799
994.00,50.761
995.00,50.751
996.00,50.738
997.00,50.732
998.00,50.701
999.00,50.706
1000.00,50.669
1001.00,50.660
1002.00,50.658
1003.00,50.651
1004.00,50.635
1005.00,50.612
1006.00,50.625
1007.00,50.603
1008.00,50.583
1009.00,50.571
1010.00,50.570
1011.00,50.553
1012.00,50.520
1013.00,50.529
1014.00,50.490
1015.00,50.518
1016.00,50.465
1017.00,50.458
1018.00,50.436
1019.00,50.409
1020.00,50.404
1021.00,50.388
1022.00,50.381
1023.00,50.333
1024.00,50.358
1025.00,50.337
1026.00,50.320
1027.00,50.293
1028.00,50.287
1029.00,50.261
1030.00,50.235
1031.00,50.259
1032.00,50.219
1033.00,50.228
1034.00,50.191
1035.00,50.167
1036.00,50.141
1037.00,50.121
1038.00,50.132
1039.00,50.099
1040.00,50.076
1041.00,50.041
1042.00,50.044
1043.00,50.026
1044.00,50.059
1045.00,50.024
1046.00,50.015
1047.00,50.041
1048.00,50.046
1049.00,50.046
1050.00,50.036
1051.00,50.082
1052.00,50.084
1053.00,50.099
1054.00,50.142
1055.00,50.130
1056.00,50.129
1057.00,50.133
1058.00,50.125
1059.00,50.132
1060.00,50.135
1061.00,50.131
1062.00,50.114
1063.00,50.125
1064.00,50.107
1065.00,50.093
1066.00,50.114
1067.00,50.111
1068.00,50.115
1069.00,50.088
1070.00,50.058
1071.00,50.046
1072.00,50.069
1073.00,50.047
1074.00,50.023
1075.00,50.009
1076.00,50.007
1077.00,49.989
1078.00,49.962
1079.00,49.974
1080.00,49.979
1081.00,49.962
1082.00,49.960
1083.00,49.944
1084.00,49.944
1085.00,49.955
1086.00,49.941
1087.00,49.932
1088.00,49.920
1089.00,49.913
1090.00,49.902
1091.00,49.906
1092.00,49.903
1093.00,49.874
1094.00,49.857
1095.00,49.842
1096.00,49.832
1097.00,49.832
1098.00,49.817
1099.00,49.831
1100.00,49.842
1101.00,49.819
1102.00,49.807
1103.00,49.802
1104.00,49.796
1105.00,49.788
1106.00,49.761
1107.00,49.751
1108.00,49.740
1109.00,49.730
1110.00,49.727
1111.00,49.705
1112.00,49.713
1113.00,49.703
1114.00,49.696
1115.00,49.728
1116.00,49.692
1117.00,49.671
1118.00,49.666
1119.00,49.665
1120.00,49.670
1121.00,49.654
1122.00,49.629
1123.00,49.638
1124.00,49.625
1125.00,49.620
1126.00,49.621
1127.00,49.612
1128.00,49.593
1129.00,49.576
1130.00,49.567
1131.00,49.590
1132.00,49.586
1133.00,49.579
1134.00,49.576
1135.00,49.571
1136.00,49.563
1137.00,49.565
1138.00,49.564
1139.00,49.574
1140.00,49.568
1141.00,49.545
1142.00,49.520
1143.00,49.525
1144.00,49.520
1145.00,49.534
1146.00,49.551
1147.00,49.518
1148.00,49.528
1149.00,49.537
1150.00,49.541
1151.00,49.536
1152.00,49.525
1153.00,49.532
1154.00,49.504
1155.00,49.499
1156.00,49.500
1157.00,49.502
1158.00,49.503
1159.00,49.503
1160.00,49.493
1161.00,49.525
1162.00,49.507
1163.00,49.499
1164.00,49.496
1165.00,49.493
1166.00,49.487
1167.00,49.487
1168.00,49.509
1169.00,49.491
1170.00,49.492
1171.00,49.483
1172.00,49.476
1173.00,49.480
1174.00,49.476
1175.00,49.481
1176.00,49.501
1177.00,49.468
1178.00,49.486
1179.00,49.492
1180.00,49.466
1181.00,49.496
1182.00,49.479
1183.00,49.481
1184.00,49.462
1185.00,49.482
1186.00,49.469
1187.00,49.468
1188.00,49.471
1189.00,49.488
1190.00,49.472
1191.00,49.469
1192.00,49.498
1193.00,49.472
1194.00,49.479
1195.00,49.460
1196.00,49.490
1197.00,49.499
1198.00,49.488
1199.00,49.480
1200.00,49.491
1201.00,49.498
1202.00,49.468
1203.00,49.464
1204.00,49.460
1205.00,49.485
1206.00,49.478
1207.00,49.474
1208.00,49.455
1209.00,49.467
1210.00,49.452
1211.00,49.469
1212.00,49.494
1213.00,49.445
1214.00,49.488
1215.00,49.471
1216.00,49.468
1217.00,49.470
1218.00,49.459
1219.00,49.486
1220.00,49.469
1221.00,49.507
1222.00,49.520
1223.00,49.522
1224.00,49.499
1225.00,49.493
1226.00,49.487
1227.00,49.483
1228.00,49.503
1229.00,49.504
1230.00,49.530
1231.00,49.520
1232.00,49.535
1233.00,49.546
1234.00,49.535
1235.00,49.538
1236.00,49.538
1237.00,49.546
1238.00,49.542
1239.00,49.559
1240.00,49.531
1241.00,49.541
1242.00,49.542
1243.00,49.558
1244.00,49.549
1245.00,49.580
1246.00,49.582
1247.00,49.584
1248.00,49.582
1249.00,49.591
1250.00,49.601
1251.00,49.588
1252.00,49.600
1253.00,49.581
1254.00,49.603
1255.00,49.601
1256.00,49.587
1257.00,49.595
1258.00,49.647
1259.00,49.628
1260.00,49.646
1261.00,49.639
1262.00,49.632
1263.00,49.628
1264.00,49.629
1265.00,49.629
1266.00,49.655
1267.00,49.672
1268.00,49.663
1269.00,49.678
1270.00,49.699
1271.00,49.696
1272.00,49.697
1273.00,49.714
1274.00,49.702
1275.00,49.704
1276.00,49.695
1277.00,49.712
1278.00,49.708
1279.00,49.705
1280.00,49.713
1281.00,49.735
1282.00,49.769
1283.00,49.727
1284.00,49.763
1285.00,49.753
1286.00,49.772
1287.00,49.774
1288.00,49.792
1289.00,49.783
1290.00,49.820
1291.00,49.822
1292.00,49.813
1293.00,49.813
1294.00,49.826
1295.00,49.836
1296.00,49.836
1297.00,49.832
1298.00,49.866
1299.00,49.852
1300.00,49.866
1301.00,49.856
1302.00,49.897
1303.00,49.888
1304.00,49.864
1305.00,49.893
1306.00,49.899
1307.00,49.908
1308.00,49.907
1309.00,49.924
1310.00,49.927
1311.00,49.908
1312.00,49.922
1313.00,49.943
1314.00,49.964
1315.00,49.970
1316.00,49.967
1317.00,50.002
1318.00,49.989
1319.00,49.994
1320.00,49.998
1321.00,50.191
1322.00,50.185
1323.00,50.174
1324.00,50.160
1325.00,50.155
1326.00,50.214
1327.00,50.143
1328.00,50.159
1329.00,50.192
1330.00,50.180
1331.00,50.164
1332.00,50.179
1333.00,50.186
1334.00,50.210
1335.00,50.237
1336.00,50.267
1337.00,50.312
1338.00,50.363
1339.00,50.396
1340.00,50.456
1341.00,50.509
1342.00,50.569
1343.00,50.642
1344.00,50.684
1345.00,50.744
1346.00,50.758
1347.00,50.789
1348.00,50.836
1349.00,50.832
1350.00,50.849
1351.00,50.876
1352.00,50.886
1353.00,50.863
1354.00,50.905
1355.00,50.888
1356.00,50.927
1357.00,50.880
1358.00,50.951
1359.00,50.950
1360.00,50.967
1361.00,50.951
1362.00,50.934
1363.00,50.975
1364.00,51.008
1365.00,50.945
1366.00,50.966
1367.00,50.936
1368.00,50.954
1369.00,50.968
1370.00,50.980
1371.00,50.920
1372.00,50.938
1373.00,50.916
1374.00,50.962
1375.00,50.944
1376.00,50.953
1377.00,50.930
1378.00,50.960
1379.00,50.961
1380.00,50.966
1381.00,50.999
1382.00,50.948
1383.00,50.977
1384.00,50.949
1385.00,50.998
1386.00,51.077
1387.00,50.980
1388.00,50.953
1389.00,50.916
1390.00,50.989
1391.00,50.919
1392.00,50.945
1393.00,50.958
1394.00,50.987
1395.00,50.910
1396.00,50.877
1397.00,50.888
1398.00,50.995
1399.00,50.990
1400.00,50.962
1401.00,50.913
1402.00,50.995
1403.00,51.002
1404.00,50.973
1405.00,51.014
1406.00,51.030
1407.00,51.016
1408.00,51.043
1409.00,51.009
1410.00,51.040
1411.00,51.009
1412.00,51.117
1413.00,51.009
1414.00,51.039
1415.00,51.075
1416.00,51.090
1417.00,51.144
1418.00,51.118
1419.00,51.114
1420.00,51.156
1421.00,51.196
1422.00,51.176
1423.00,51.201
1424.00,51.187
1425.00,51.222
1426.00,51.214
1427.00,51.237
1428.00,51.244
1429.00,51.263
1430.00,51.280
1431.00,51.299
1432.00,51.303
1433.00,51.324
1434.00,51.307
1435.00,51.365
1436.00,51.409
1437.00,51.381
1438.00,51.379
1439.00,51.439
1440.00,51.442
1441.00,51.437
1442.00,51.462
1443.00,51.479
1444.00,51.579
1445.00,51.527
1446.00,51.551
1447.00,51.597
1448.00,51.639
1449.00,51.618
1450.00,51.628
1451.00,51.647
1452.00,51.654
1453.00,51.680
1454.00,51.685
1455.00,51.710
1456.00,51.732
1457.00,51.719
1458.00,51.775
1459.00,51.795
1460.00,51.805
1461.00,51.812
1462.00,51.842
1463.00,51.842
1464.00,51.903
1465.00,51.891
1466.00,51.882
1467.00,51.911
1468.00,51.965
1469.00,51.939
1470.00,51.964
1471.00,51.979
1472.00,51.999
1473.00,52.001
1474.00,52.037
1475.00,52.075
1476.00,52.073
1477.00,52.075
1478.00,52.090
1479.00,52.108
1480.00,52.122
1481.00,52.128
1482.00,52.142
1483.00,52.170
1484.00,52.186
1485.00,52.178
1486.00,52.209
1487.00,52.217
1488.00,52.250
1489.00,52.244
1490.00,52.246
1491.00,52.296
1492.00,52.310
1493.00,52.297
1494.00,52.351
1495.00,52.310
1496.00,52.339
1497.00,52.331
1498.00,52.353
1499.00,52.358
1500.00,52.376
1501.00, 
1502.00, 
1503.00, 
1504.00, 
1505.00, 
1506.00, 
1507.00, 
1508.00, 
1509.00, 
1510.00, 
1511.00, 
1512.00, 
1513.00, 
1514.00, 
1515.00, 
1516.00, 
1517.00, 
1518.00, 
1519.00, 
1520.00, 
1521.00, 
1522.00, 
1523.00, 
1524.00, 
1525.00, 
1526.00, 
1527.00, 
1528.00, 
1529.00, 
1530.00, 
1531.00, 
1532.00, 
1533.00, 
1534.00, 
1535.00, 
1536.00, 
1537.00, 
1538.00, 
1539.00, 
1540.00, 
1541.00, 
1542.00, 
1543.00, 
1544.00, 
1545.00, 
1546.00, 
1547.00, 
1548.00, 
1549.00, 
1550.00, 
1551.00, 
1552.00, 
1553.00, 
1554.00, 
1555.00, 
1556.00, 
1557.00, 
1558.00, 
1559.00, 
1560.00, 
1561.00, 
1562.00, 
1563.00, 
1564.00, 
1565.00, 
1566.00, 
1567.00, 
1568.00, 
1569.00, 
1570.00, 
1571.00, 
1572.00, 
1573.00, 
1574.00, 
1575.00, 
1576.00, 
1577.00, 
1578.00, 
1579.00, 
1580.00, 
1581.00, 
1582.00, 
1583.00, 
1584.00, 
1585.00, 
1586.00, 
1587.00, 
1588.00, 
1589.00, 
1590.00, 
1591.00, 
1592.00, 
1593.00, 
1594.00, 
1595.00, 
1596.00, 
1597.00, 
1598.00, 
1599.00, 
1600.00, 
1601.00, 
1602.00, 
1603.00, 
1604.00, 
1605.00, 
1606.00, 
1607.00, 
1608.00, 
1609.00, 
1610.00, 
1611.00, 
1612.00, 
1613.00, 
1614.00, 
1615.00, 
1616.00, 
1617.00, 
1618.00, 
1619.00, 
1620.00, 
1621.00, 
1622.00, 
1623.00, 
1624.00, 
1625.00, 
1626.00, 
1627.00, 
1628.00, 
1629.00, 
1630.00, 
1631.00, 
1632.00, 
1633.00, 
1634.00, 
1635.00, 
1636.00, 
1637.00, 
1638.00, 
1639.00, 
1640.00, 
1641.00, 
1642.00, 
1643.00, 
1644.00, 
1645.00, 
1646.00, 
1647.00, 
1648.00, 
1649.00, 
1650.00, 
1651.00, 
1652.00, 
1653.00, 
1654.00, 
1655.00, 
1656.00, 
1657.00, 
1658.00, 
1659.00, 
1660.00, 
1661.00, 
1662.00, 
1663.00, 
1664.00, 
1665.00, 
1666.00, 
1667.00, 
1668.00, 
1669.00, 
1670.00, 
1671.00, 
1672.00, 
1673.00, 
1674.00, 
1675.00, 
1676.00, 
1677.00, 
1678.00, 
1679.00, 
1680.00, 
1681.00, 
1682.00, 
1683.00, 
1684.00, 
1685.00, 
1686.00, 
1687.00, 
1688.00, 
1689.00, 
1690.00, 
1691.00, 
1692.00, 
1693.00, 
1694.00, 
1695.00, 
1696.00, 
1697.00, 
1698.00, 
1699.00, 
1700.00, 
1701.00, 
1702.00, 
1703.00, 
1704.00, 
1705.00, 
1706.00, 
1707.00, 
1708.00, 
1709.00, 
1710.00, 
1711.00, 
1712.00, 
1713.00, 
1714.00, 
1715.00, 
1716.00, 
1717.00, 
1718.00, 
1719.00, 
1720.00, 
1721.00, 
1722.00, 
1723.00, 
1724.00, 
1725.00, 
1726.00, 
1727.00, 
1728.00, 
1729.00, 
1730.00, 
1731.00, 
1732.00, 
1733.00, 
1734.00, 
1735.00, 
1736.00, 
1737.00, 
1738.00, 
1739.00, 
1740.00, 
1741.00, 
1742.00, 
1743.00, 
1744.00, 
1745.00, 
1746.00, 
1747.00, 
1748.00, 
1749.00, 
1750.00, 
1751.00, 
1752.00, 
1753.00, 
1754.00, 
1755.00, 
1756.00, 
1757.00, 
1758.00, 
1759.00, 
1760.00, 
1761.00, 
1762.00, 
1763.00, 
1764.00, 
1765.00, 
1766.00, 
1767.00, 
1768.00, 
1769.00, 
1770.00, 
1771.00, 
1772.00, 
1773.00, 
1774.00, 
1775.00, 
1776.00, 
1777.00, 
1778.00, 
1779.00, 
1780.00, 
1781.00, 
1782.00, 
1783.00, 
1784.00, 
1785.00, 
1786.00, 
1787.00, 
1788.00, 
1789.00, 
1790.00, 
1791.00, 
1792.00, 
1793.00, 
1794.00, 
1795.00, 
1796.00, 
1797.00, 
1798.00, 
1799.00, 
1800.00, 
1801.00, 
1802.00, 
1803.00, 
1804.00, 
1805.00, 
1806.00, 
1807.00, 
1808.00, 
1809.00, 
1810.00, 
1811.00, 
1812.00, 
1813.00, 
1814.00, 
1815.00, 
1816.00, 
1817.00, 
1818.00, 
1819.00, 
1820.00, 
1821.00, 
1822.00, 
1823.00, 
1824.00, 
1825.00, 
1826.00, 
1827.00, 
1828.00, 
1829.00, 
1830.00, 
1831.00, 
1832.00, 
1833.00, 
1834.00, 
1835.00, 
1836.00, 
1837.00, 
1838.00, 
1839.00, 
1840.00, 
1841.00, 
1842.00, 
1843.00, 
1844.00, 
1845.00, 
1846.00, 
1847.00, 
1848.00, 
1849.00, 
1850.00, 
1851.00, 
1852.00, 
1853.00, 
1854.00, 
1855.00, 
1856.00, 
1857.00, 
1858.00, 
1859.00, 
1860.00, 
1861.00, 
1862.00, 
1863.00, 
1864.00, 
1865.00, 
1866.00, 
1867.00, 
1868.00, 
1869.00, 
1870.00, 
1871.00, 
1872.00, 
1873.00, 
1874.00, 
1875.00, 
1876.00, 
1877.00, 
1878.00, 
1879.00, 
1880.00, 
1881.00, 
1882.00, 
1883.00, 
1884.00, 
1885.00, 
1886.00, 
1887.00, 
1888.00, 
1889.00, 
1890.00, 
1891.00, 
1892.00, 
1893.00, 
1894.00, 
1895.00, 
1896.00, 
1897.00, 
1898.00, 
1899.00, 
1900.00, 
1901.00, 
1902.00, 
1903.00, 
1904.00, 
1905.00, 
1906.00, 
1907.00, 
1908.00, 
1909.00, 
1910.00, 
1911.00, 
1912.00, 
1913.00, 
1914.00, 
1915.00, 
1916.00, 
1917.00, 
1918.00, 
1919.00, 
1920.00, 
1921.00, 
1922.00, 
1923.00, 
1924.00, 
1925.00, 
1926.00, 
1927.00, 
1928.00, 
1929.00, 
1930.00, 
1931.00, 
1932.00, 
1933.00, 
1934.00, 
1935.00, 
1936.00, 
1937.00, 
1938.00, 
1939.00, 
1940.00, 
1941.00, 
1942.00, 
1943.00, 
1944.00, 
1945.00, 
1946.00, 
1947.00, 
1948.00, 
1949.00, 
1950.00, 
1951.00, 
1952.00, 
1953.00, 
1954.00, 
1955.00, 
1956.00, 
1957.00, 
1958.00, 
1959.00, 
1960.00, 
1961.00, 
1962.00, 
1963.00, 
1964.00, 
1965.00, 
1966.00, 
1967.00, 
1968.00, 
1969.00, 
1970.00, 
1971.00, 
1972.00, 
1973.00, 
1974.00, 
1975.00, 
1976.00, 
1977.00, 
1978.00, 
1979.00, 
1980.00, 
1981.00, 
1982.00, 
1983.00, 
1984.00, 
1985.00, 
1986.00, 
1987.00, 
1988.00, 
1989.00, 
1990.00, 
1991.00, 
1992.00, 
1993.00, 
1994.00, 
1995.00, 
1996.00, 
1997.00, 
1998.00, 
1999.00, 
2000.00, 
2001.00, 
2002.00, 
2003.00, 
2004.00, 
2005.00, 
2006.00, 
2007.00, 
2008.00, 
2009.00, 
2010.00, 
2011.00, 
2012.00, 
2013.00, 
2014.00, 
2015.00, 
2016.00, 
2017.00, 
2018.00, 
2019.00, 
2020.00, 
2021.00, 
2022.00, 
2023.00, 
2024.00, 
2025.00, 
2026.00, 
2027.00, 
2028.00, 
2029.00, 
2030.00, 
2031.00, 
2032.00, 
2033.00, 
2034.00, 
2035.00, 
2036.00, 
2037.00, 
2038.00, 
2039.00, 
2040.00, 
2041.00, 
2042.00, 
2043.00, 
2044.00, 
2045.00, 
2046.00, 
2047.00, 
2048.00, 
2049.00, 
2050.00, 
2051.00, 
2052.00, 
2053.00, 
2054.00, 
2055.00, 
2056.00, 
2057.00, 
2058.00, 
2059.00, 
2060.00, 
2061.00, 
2062.00, 
2063.00, 
2064.00, 
2065.00, 
2066.00, 
2067.00, 
2068.00, 
2069.00, 
2070.00, 
2071.00, 
2072.00, 
2073.00, 
2074.00, 
2075.00, 
2076.00, 
2077.00, 
2078.00, 
2079.00, 
2080.00, 
2081.00, 
2082.00, 
2083.00, 
2084.00, 
2085.00, 
2086.00, 
2087.00, 
2088.00, 
2089.00, 
2090.00, 
2091.00, 
2092.00, 
2093.00, 
2094.00, 
2095.00, 
2096.00, 
2097.00, 
2098.00, 
2099.00, 
2100.00, 
2101.00, 
2102.00, 
2103.00, 
2104.00, 
2105.00, 
2106.00, 
2107.00, 
2108.00, 
2109.00, 
2110.00, 
2111.00, 
2112.00, 
2113.00, 
2114.00, 
2115.00, 
2116.00, 
2117.00, 
2118.00, 
2119.00, 
2120.00, 
2121.00, 
2122.00, 
2123.00, 
2124.00, 
2125.00, 
2126.00, 
2127.00, 
2128.00, 
2129.00, 
2130.00, 
2131.00, 
2132.00, 
2133.00, 
2134.00, 
2135.00, 
2136.00, 
2137.00, 
2138.00, 
2139.00, 
2140.00, 
2141.00, 
2142.00, 
2143.00, 
2144.00, 
2145.00, 
2146.00, 
2147.00, 
2148.00, 
2149.00, 
2150.00, 
2151.00, 
2152.00, 
2153.00, 
2154.00, 
2155.00, 
2156.00, 
2157.00, 
2158.00, 
2159.00, 
2160.00, 
2161.00, 
2162.00, 
2163.00, 
2164.00, 
2165.00, 
2166.00, 
2167.00, 
2168.00, 
2169.00, 
2170.00, 
2171.00, 
2172.00, 
2173.00, 
2174.00, 
2175.00, 
2176.00, 
2177.00, 
2178.00, 
2179.00, 
2180.00, 
2181.00, 
2182.00, 
2183.00, 
2184.00, 
2185.00, 
2186.00, 
2187.00, 
2188.00, 
2189.00, 
2190.00, 
2191.00, 
2192.00, 
2193.00, 
2194.00, 
2195.00, 
2196.00, 
2197.00, 
2198.00, 
2199.00, 
2200.00, 
2201.00, 
2202.00, 
2203.00, 
2204.00, 
2205.00, 
2206.00, 
2207.00, 
2208.00, 
2209.00, 
2210.00, 
2211.00, 
2212.00, 
2213.00, 
2214.00, 
2215.00, 
2216.00, 
2217.00, 
2218.00, 
2219.00, 
2220.00, 
2221.00, 
2222.00, 
2223.00, 
2224.00, 
2225.00, 
2226.00, 
2227.00, 
2228.00, 
2229.00, 
2230.00, 
2231.00, 
2232.00, 
2233.00, 
2234.00, 
2235.00, 
2236.00, 
2237.00, 
2238.00, 
2239.00, 
2240.00, 
2241.00, 
2242.00, 
2243.00, 
2244.00, 
2245.00, 
2246.00, 
2247.00, 
2248.00, 
2249.00, 
2250.00, 
2251.00, 
2252.00, 
2253.00, 
2254.00, 
2255.00, 
2256.00, 
2257.00, 
2258.00, 
2259.00, 
2260.00, 
2261.00, 
2262.00, 
2263.00, 
2264.00, 
2265.00, 
2266.00, 
2267.00, 
2268.00, 
2269.00, 
2270.00, 
2271.00, 
2272.00, 
2273.00, 
2274.00, 
2275.00, 
2276.00, 
2277.00, 
2278.00, 
2279.00, 
2280.00, 
2281.00, 
2282.00, 
2283.00, 
2284.00, 
2285.00, 
2286.00, 
2287.00, 
2288.00, 
2289.00, 
2290.00, 
2291.00, 
2292.00, 
2293.00, 
2294.00, 
2295.00, 
2296.00, 
2297.00, 
2298.00, 
2299.00, 
2300.00, 
2301.00, 
2302.00, 
2303.00, 
2304.00, 
2305.00, 
2306.00, 
2307.00, 
2308.00, 
2309.00, 
2310.00, 
2311.00, 
2312.00, 
2313.00, 
2314.00, 
2315.00, 
2316.00, 
2317.00, 
2318.00, 
2319.00, 
2320.00, 
2321.00, 
2322.00, 
2323.00, 
2324.00, 
2325.00, 
2326.00, 
2327.00, 
2328.00, 
2329.00, 
2330.00, 
2331.00, 
2332.00, 
2333.00, 
2334.00, 
2335.00, 
2336.00, 
2337.00, 
2338.00, 
2339.00, 
2340.00, 
2341.00, 
2342.00, 
2343.00, 
2344.00, 
2345.00, 
2346.00, 
2347.00, 
2348.00, 
2349.00, 
2350.00, 
2351.00, 
2352.00, 
2353.00, 
2354.00, 
2355.00, 
2356.00, 
2357.00, 
2358.00, 
2359.00, 
2360.00, 
2361.00, 
2362.00, 
2363.00, 
2364.00, 
2365.00, 
2366.00, 
2367.00, 
2368.00, 
2369.00, 
2370.00, 
2371.00, 
2372.00, 
2373.00, 
2374.00, 
2375.00, 
2376.00, 
2377.00, 
2378.00, 
2379.00, 
2380.00, 
2381.00, 
2382.00, 
2383.00, 
2384.00, 
2385.00, 
2386.00, 
2387.00, 
2388.00, 
2389.00, 
2390.00, 
2391.00, 
2392.00, 
2393.00, 
2394.00, 
2395.00, 
2396.00, 
2397.00, 
2398.00, 
2399.00, 
2400.00, 
2401.00, 
2402.00, 
2403.00, 
2404.00, 
2405.00, 
2406.00, 
2407.00, 
2408.00, 
2409.00, 
2410.00, 
2411.00, 
2412.00, 
2413.00, 
2414.00, 
2415.00, 
2416.00, 
2417.00, 
2418.00, 
2419.00, 
2420.00, 
2421.00, 
2422.00, 
2423.00, 
2424.00, 
2425.00, 
2426.00, 
2427.00, 
2428.00, 
2429.00, 
2430.00, 
2431.00, 
2432.00, 
2433.00, 
2434.00, 
2435.00, 
2436.00, 
2437.00, 
2438.00, 
2439.00, 
2440.00, 
2441.00, 
2442.00, 
2443.00, 
2444.00, 
2445.00, 
2446.00, 
2447.00, 
2448.00, 
2449.00, 
2450.00, 
2451.00, 
2452.00, 
2453.00, 
2454.00, 
2455.00, 
2456.00, 
2457.00, 
2458.00, 
2459.00, 
2460.00, 
2461.00, 
2462.00, 
2463.00, 
2464.00, 
2465.00, 
2466.00, 
2467.00, 
2468.00, 
2469.00, 
2470.00, 
2471.00, 
2472.00, 
2473.00, 
2474.00, 
2475.00, 
2476.00, 
2477.00, 
2478.00, 
2479.00, 
2480.00, 
2481.00, 
2482.00, 
2483.00, 
2484.00, 
2485.00, 
2486.00, 
2487.00, 
2488.00, 
2489.00, 
2490.00, 
2491.00, 
2492.00, 
2493.00, 
2494.00, 
2495.00, 
2496.00, 
2497.00, 
2498.00, 
2499.00, 
2500.00, 
2501.00, 
2502.00, 
2503.00, 
2504.00, 
2505.00, 
2506.00, 
2507.00, 
2508.00, 
2509.00, 
2510.00, 
2511.00, 
2512.00, 
2513.00, 
2514.00, 
2515.00, 
2516.00, 
2517.00, 
2518.00, 
2519.00, 
2520.00, 
2521.00, 
2522.00, 
2523.00, 
2524.00, 
2525.00, 
2526.00, 
2527.00, 
2528.00, 
2529.00, 
2530.00, 
2531.00, 
2532.00, 
2533.00, 
2534.00, 
2535.00, 
2536.00, 
2537.00, 
2538.00, 
2539.00, 
2540.00, 
2541.00, 
2542.00, 
2543.00, 
2544.00, 
2545.00, 
2546.00, 
2547.00, 
2548.00, 
2549.00, 
2550.00, 
2551.00, 
2552.00, 
2553.00, 
2554.00, 
2555.00, 
2556.00, 
2557.00, 
2558.00, 
2559.00, 
2560.00, 
2561.00, 
2562.00, 
2563.00, 
2564.00, 
2565.00, 
2566.00, 
2567.00, 
2568.00, 
2569.00, 
2570.00, 
2571.00, 
2572.00, 
2573.00, 
2574.00, 
2575.00, 
2576.00, 
2577.00, 
2578.00, 
2579.00, 
2580.00, 
2581.00, 
2582.00, 
2583.00, 
2584.00, 
2585.00, 
2586.00, 
2587.00, 
2588.00, 
2589.00, 
2590.00, 
2591.00, 
2592.00, 
2593.00, 
2594.00, 
2595.00, 
2596.00, 
2597.00, 
2598.00, 
2599.00, 
2600.00, 
