"1cP5 - RawData"
"Wavelength nm.","T%"
200.00,0.001
201.00,0.003
202.00,-0.001
203.00,0.003
204.00,-0.004
205.00,-0.001
206.00,0.001
207.00,0.002
208.00,0.000
209.00,0.001
210.00,0.004
211.00,0.001
212.00,0.002
213.00,0.001
214.00,0.001
215.00,-0.001
216.00,0.001
217.00,-0.001
218.00,0.000
219.00,0.001
220.00,0.001
221.00,-0.002
222.00,0.002
223.00,0.002
224.00,0.001
225.00,-0.001
226.00,0.001
227.00,0.001
228.00,-0.001
229.00,-0.001
230.00,0.003
231.00,0.000
232.00,-0.002
233.00,-0.000
234.00,0.000
235.00,-0.000
236.00,0.001
237.00,0.001
238.00,-0.001
239.00,-0.001
240.00,-0.001
241.00,-0.001
242.00,-0.000
243.00,0.000
244.00,0.001
245.00,-0.000
246.00,-0.001
247.00,-0.002
248.00,0.002
249.00,0.002
250.00,0.001
251.00,-0.001
252.00,-0.000
253.00,0.001
254.00,0.001
255.00,0.002
256.00,-0.001
257.00,-0.001
258.00,0.002
259.00,-0.000
260.00,0.001
261.00,0.001
262.00,0.002
263.00,0.000
264.00,-0.001
265.00,-0.001
266.00,0.000
267.00,0.000
268.00,-0.001
269.00,-0.000
270.00,-0.000
271.00,0.001
272.00,-0.001
273.00,-0.000
274.00,-0.001
275.00,0.000
276.00,-0.000
277.00,-0.001
278.00,0.000
279.00,-0.000
280.00,0.000
281.00,0.002
282.00,0.001
283.00,-0.001
284.00,0.001
285.00,0.001
286.00,-0.002
287.00,0.001
288.00,-0.001
289.00,0.001
290.00,-0.001
291.00,0.002
292.00,-0.000
293.00,-0.000
294.00,-0.000
295.00,0.001
296.00,-0.001
297.00,-0.000
298.00,0.000
299.00,0.001
300.00,-0.001
301.00,0.001
302.00,0.002
303.00,-0.000
304.00,-0.001
305.00,0.002
306.00,0.002
307.00,0.004
308.00,0.008
309.00,0.012
310.00,0.017
311.00,0.025
312.00,0.039
313.00,0.067
314.00,0.095
315.00,0.135
316.00,0.202
317.00,0.273
318.00,0.383
319.00,0.518
320.00,0.688
321.00,0.882
322.00,1.136
323.00,1.446
324.00,1.776
325.00,2.132
326.00,2.536
327.00,3.010
328.00,3.480
329.00,4.051
330.00,4.606
331.00,5.225
332.00,5.857
333.00,6.563
334.00,7.224
335.00,7.944
336.00,8.660
337.00,9.386
338.00,10.071
339.00,10.771
340.00,11.470
341.00,12.193
342.00,12.855
343.00,13.509
344.00,14.098
345.00,14.784
346.00,15.299
347.00,15.814
348.00,16.388
349.00,16.839
350.00,17.278
351.00,17.745
352.00,18.145
353.00,18.468
354.00,18.830
355.00,19.185
356.00,19.475
357.00,19.777
358.00,20.015
359.00,20.353
360.00,20.585
361.00,20.752
362.00,20.977
363.00,21.145
364.00,21.208
365.00,21.365
366.00,21.484
367.00,21.562
368.00,21.637
369.00,21.651
370.00,21.736
371.00,21.773
372.00,21.706
373.00,21.696
374.00,21.703
375.00,21.664
376.00,21.580
377.00,21.521
378.00,21.426
379.00,21.298
380.00,21.315
381.00,21.274
382.00,21.278
383.00,21.297
384.00,21.350
385.00,21.408
386.00,21.432
387.00,21.538
388.00,21.599
389.00,21.640
390.00,21.716
391.00,21.739
392.00,21.795
393.00,21.795
394.00,21.796
395.00,21.851
396.00,21.827
397.00,21.862
398.00,21.868
399.00,21.874
400.00,21.876
401.00,21.894
402.00,21.881
403.00,21.850
404.00,21.856
405.00,21.815
406.00,21.833
407.00,21.772
408.00,21.794
409.00,21.714
410.00,21.640
411.00,21.667
412.00,21.632
413.00,21.683
414.00,21.592
415.00,21.605
416.00,21.624
417.00,21.631
418.00,21.671
419.00,21.731
420.00,21.794
421.00,21.729
422.00,21.823
423.00,21.794
424.00,21.889
425.00,21.949
426.00,21.941
427.00,22.011
428.00,22.045
429.00,22.074
430.00,22.132
431.00,22.189
432.00,22.218
433.00,22.247
434.00,22.324
435.00,22.386
436.00,22.469
437.00,22.515
438.00,22.576
439.00,22.640
440.00,22.720
441.00,22.799
442.00,22.894
443.00,22.942
444.00,23.059
445.00,23.133
446.00,23.232
447.00,23.300
448.00,23.402
449.00,23.545
450.00,23.657
451.00,23.712
452.00,23.807
453.00,23.993
454.00,24.020
455.00,24.184
456.00,24.316
457.00,24.408
458.00,24.516
459.00,24.681
460.00,24.800
461.00,24.941
462.00,25.035
463.00,25.185
464.00,25.327
465.00,25.454
466.00,25.563
467.00,25.679
468.00,25.866
469.00,25.972
470.00,26.047
471.00,26.147
472.00,26.294
473.00,26.370
474.00,26.507
475.00,26.638
476.00,26.720
477.00,26.849
478.00,26.971
479.00,27.156
480.00,27.259
481.00,27.418
482.00,27.552
483.00,27.707
484.00,27.870
485.00,27.990
486.00,28.212
487.00,28.346
488.00,28.461
489.00,28.658
490.00,28.763
491.00,28.918
492.00,29.135
493.00,29.288
494.00,29.236
495.00,29.435
496.00,29.496
497.00,29.677
498.00,29.861
499.00,29.991
500.00,30.138
501.00,30.264
502.00,30.381
503.00,30.535
504.00,30.613
505.00,30.706
506.00,30.895
507.00,30.976
508.00,31.034
509.00,31.237
510.00,31.343
511.00,31.403
512.00,31.616
513.00,31.781
514.00,31.892
515.00,32.002
516.00,32.100
517.00,32.213
518.00,32.370
519.00,32.393
520.00,32.436
521.00,32.575
522.00,32.669
523.00,32.663
524.00,32.826
525.00,32.953
526.00,33.076
527.00,33.082
528.00,33.181
529.00,33.373
530.00,33.468
531.00,33.654
532.00,33.712
533.00,33.793
534.00,33.872
535.00,33.968
536.00,34.062
537.00,34.136
538.00,34.179
539.00,34.262
540.00,34.379
541.00,34.393
542.00,34.435
543.00,34.524
544.00,34.590
545.00,34.662
546.00,34.718
547.00,34.815
548.00,34.899
549.00,34.978
550.00,35.060
551.00,35.241
552.00,35.190
553.00,35.235
554.00,35.284
555.00,35.278
556.00,35.408
557.00,35.500
558.00,35.562
559.00,35.607
560.00,35.694
561.00,35.768
562.00,35.754
563.00,35.843
564.00,35.919
565.00,35.912
566.00,35.957
567.00,36.001
568.00,36.043
569.00,36.038
570.00,36.122
571.00,36.023
572.00,36.161
573.00,36.176
574.00,36.243
575.00,36.230
576.00,36.241
577.00,36.283
578.00,36.424
579.00,36.477
580.00,36.470
581.00,36.618
582.00,36.672
583.00,36.690
584.00,36.802
585.00,36.839
586.00,36.921
587.00,36.943
588.00,36.950
589.00,36.928
590.00,36.993
591.00,37.026
592.00,36.981
593.00,37.054
594.00,37.187
595.00,37.211
596.00,37.308
597.00,37.364
598.00,37.363
599.00,37.310
600.00,37.452
601.00,37.529
602.00,37.510
603.00,37.513
604.00,37.535
605.00,37.590
606.00,37.651
607.00,37.695
608.00,37.764
609.00,37.903
610.00,37.722
611.00,37.661
612.00,37.880
613.00,38.072
614.00,37.964
615.00,38.090
616.00,38.208
617.00,38.172
618.00,38.141
619.00,38.203
620.00,38.226
621.00,38.336
622.00,38.495
623.00,38.509
624.00,38.594
625.00,38.603
626.00,38.695
627.00,38.705
628.00,38.721
629.00,38.762
630.00,38.843
631.00,38.838
632.00,38.947
633.00,39.057
634.00,39.136
635.00,39.230
636.00,39.373
637.00,39.352
638.00,39.422
639.00,39.432
640.00,39.500
641.00,39.530
642.00,39.667
643.00,39.770
644.00,39.804
645.00,39.895
646.00,40.100
647.00,40.049
648.00,40.141
649.00,40.124
650.00,40.178
651.00,40.281
652.00,40.344
653.00,40.371
654.00,40.459
655.00,40.614
656.00,40.957
657.00,40.835
658.00,40.966
659.00,41.115
660.00,41.171
661.00,41.059
662.00,41.075
663.00,41.243
664.00,41.573
665.00,41.757
666.00,41.556
667.00,41.752
668.00,41.761
669.00,41.995
670.00,42.205
671.00,42.123
672.00,42.192
673.00,42.278
674.00,42.332
675.00,42.417
676.00,42.708
677.00,42.838
678.00,42.599
679.00,42.832
680.00,43.026
681.00,43.163
682.00,43.113
683.00,43.230
684.00,43.312
685.00,43.338
686.00,43.258
687.00,43.424
688.00,43.547
689.00,43.577
690.00,43.885
691.00,44.130
692.00,43.887
693.00,43.748
694.00,44.000
695.00,44.351
696.00,44.338
697.00,44.224
698.00,44.451
699.00,44.689
700.00,44.575
701.00,44.670
702.00,44.774
703.00,44.995
704.00,45.021
705.00,44.999
706.00,45.113
707.00,45.121
708.00,45.001
709.00,45.433
710.00,45.759
711.00,45.320
712.00,45.513
713.00,45.643
714.00,45.590
715.00,45.779
716.00,45.743
717.00,45.919
718.00,45.917
719.00,46.039
720.00,46.115
721.00,50.500
722.00,50.510
723.00,50.495
724.00,50.568
725.00,50.644
726.00,50.587
727.00,50.609
728.00,50.625
729.00,50.676
730.00,50.721
731.00,50.836
732.00,50.796
733.00,50.809
734.00,50.892
735.00,50.938
736.00,50.947
737.00,50.931
738.00,51.090
739.00,51.091
740.00,51.131
741.00,51.115
742.00,51.173
743.00,51.167
744.00,51.067
745.00,51.145
746.00,51.194
747.00,51.154
748.00,51.213
749.00,51.233
750.00,51.222
751.00,51.120
752.00,51.235
753.00,51.175
754.00,51.230
755.00,51.220
756.00,51.267
757.00,51.233
758.00,51.173
759.00,51.310
760.00,51.248
761.00,51.341
762.00,51.344
763.00,51.345
764.00,51.326
765.00,51.431
766.00,51.429
767.00,51.367
768.00,51.339
769.00,51.435
770.00,51.482
771.00,51.471
772.00,51.489
773.00,51.396
774.00,51.467
775.00,51.421
776.00,51.436
777.00,51.533
778.00,51.461
779.00,51.464
780.00,51.521
781.00,51.457
782.00,51.489
783.00,51.504
784.00,51.458
785.00,51.390
786.00,51.499
787.00,51.426
788.00,51.383
789.00,51.444
790.00,51.384
791.00,51.376
792.00,51.310
793.00,51.342
794.00,51.399
795.00,51.435
796.00,51.390
797.00,51.306
798.00,51.383
799.00,51.213
800.00,51.301
801.00,51.254
802.00,51.316
803.00,51.297
804.00,51.190
805.00,51.302
806.00,51.238
807.00,51.217
808.00,51.275
809.00,51.185
810.00,51.145
811.00,51.139
812.00,51.198
813.00,51.203
814.00,51.172
815.00,51.167
816.00,51.148
817.00,51.030
818.00,51.050
819.00,51.110
820.00,50.935
821.00,51.015
822.00,51.036
823.00,50.974
824.00,50.969
825.00,50.949
826.00,50.878
827.00,51.007
828.00,50.940
829.00,50.893
830.00,50.938
831.00,53.237
832.00,53.244
833.00,53.133
834.00,53.176
835.00,53.148
836.00,53.186
837.00,53.134
838.00,53.127
839.00,53.136
840.00,53.066
841.00,53.057
842.00,53.029
843.00,53.045
844.00,53.055
845.00,53.062
846.00,52.917
847.00,52.969
848.00,52.934
849.00,52.888
850.00,52.864
851.00,52.788
852.00,52.816
853.00,52.758
854.00,52.732
855.00,52.669
856.00,52.691
857.00,52.628
858.00,52.650
859.00,52.648
860.00,52.615
861.00,52.620
862.00,52.594
863.00,52.613
864.00,52.565
865.00,52.580
866.00,52.579
867.00,52.556
868.00,52.519
869.00,52.518
870.00,52.532
871.00,52.513
872.00,52.491
873.00,52.461
874.00,52.477
875.00,52.449
876.00,52.409
877.00,52.398
878.00,52.414
879.00,52.396
880.00,52.402
881.00,52.361
882.00,52.385
883.00,52.338
884.00,52.286
885.00,52.297
886.00,52.322
887.00,52.255
888.00,52.192
889.00,52.385
890.00,52.196
891.00,52.205
892.00,52.174
893.00,52.151
894.00,52.162
895.00,52.099
896.00,52.091
897.00,52.059
898.00,52.042
899.00,52.051
900.00,52.044
901.00,52.000
902.00,52.045
903.00,51.974
904.00,51.975
905.00,51.970
906.00,51.985
907.00,51.923
908.00,51.887
909.00,51.887
910.00,51.861
911.00,51.864
912.00,51.844
913.00,51.784
914.00,51.790
915.00,51.767
916.00,51.746
917.00,51.718
918.00,51.745
919.00,51.676
920.00,51.661
921.00,51.622
922.00,51.733
923.00,51.572
924.00,51.578
925.00,51.602
926.00,51.563
927.00,51.553
928.00,51.530
929.00,51.550
930.00,51.482
931.00,51.473
932.00,51.462
933.00,51.441
934.00,51.413
935.00,51.393
936.00,51.376
937.00,51.359
938.00,51.359
939.00,51.354
940.00,51.316
941.00,51.301
942.00,51.266
943.00,51.263
944.00,51.337
945.00,51.230
946.00,51.208
947.00,51.178
948.00,51.155
949.00,51.127
950.00,51.127
951.00,51.115
952.00,51.079
953.00,51.053
954.00,51.041
955.00,50.982
956.00,50.978
957.00,50.937
958.00,50.963
959.00,50.895
960.00,50.893
961.00,50.883
962.00,50.886
963.00,50.836
964.00,50.848
965.00,50.856
966.00,50.829
967.00,50.828
968.00,50.782
969.00,50.824
970.00,50.786
971.00,50.787
972.00,50.766
973.00,50.812
974.00,50.860
975.00,50.798
976.00,50.815
977.00,50.785
978.00,50.827
979.00,50.780
980.00,50.787
981.00,50.790
982.00,50.754
983.00,50.785
984.00,50.760
985.00,50.768
986.00,50.735
987.00,50.749
988.00,50.708
989.00,50.700
990.00,50.701
991.00,50.701
992.00,50.703
993.00,50.660
994.00,50.660
995.00,50.658
996.00,50.639
997.00,50.650
998.00,50.616
999.00,50.621
1000.00,50.583
1001.00,50.576
1002.00,50.578
1003.00,50.560
1004.00,50.539
1005.00,50.524
1006.00,50.550
1007.00,50.509
1008.00,50.498
1009.00,50.482
1010.00,50.483
1011.00,50.464
1012.00,50.434
1013.00,50.435
1014.00,50.400
1015.00,50.416
1016.00,50.381
1017.00,50.383
1018.00,50.344
1019.00,50.336
1020.00,50.377
1021.00,50.310
1022.00,50.303
1023.00,50.258
1024.00,50.259
1025.00,50.247
1026.00,50.221
1027.00,50.205
1028.00,50.200
1029.00,50.181
1030.00,50.155
1031.00,50.167
1032.00,50.125
1033.00,50.126
1034.00,50.094
1035.00,50.078
1036.00,50.055
1037.00,50.035
1038.00,50.036
1039.00,50.020
1040.00,50.001
1041.00,49.977
1042.00,49.962
1043.00,49.928
1044.00,49.967
1045.00,49.944
1046.00,49.946
1047.00,49.948
1048.00,49.956
1049.00,49.989
1050.00,49.977
1051.00,49.996
1052.00,50.007
1053.00,50.015
1054.00,50.004
1055.00,50.029
1056.00,50.030
1057.00,50.040
1058.00,50.030
1059.00,50.014
1060.00,50.017
1061.00,50.010
1062.00,50.001
1063.00,50.007
1064.00,50.005
1065.00,49.980
1066.00,49.974
1067.00,49.964
1068.00,49.992
1069.00,49.961
1070.00,49.947
1071.00,49.941
1072.00,49.975
1073.00,49.947
1074.00,49.942
1075.00,49.912
1076.00,49.912
1077.00,49.903
1078.00,49.863
1079.00,49.878
1080.00,49.883
1081.00,49.872
1082.00,49.866
1083.00,49.864
1084.00,49.848
1085.00,49.862
1086.00,49.842
1087.00,49.833
1088.00,49.832
1089.00,49.823
1090.00,49.825
1091.00,49.830
1092.00,49.819
1093.00,49.800
1094.00,49.784
1095.00,49.767
1096.00,49.763
1097.00,49.748
1098.00,49.730
1099.00,49.737
1100.00,49.717
1101.00,49.725
1102.00,49.709
1103.00,49.699
1104.00,49.696
1105.00,49.700
1106.00,49.674
1107.00,49.674
1108.00,49.656
1109.00,49.634
1110.00,49.632
1111.00,49.624
1112.00,49.626
1113.00,49.625
1114.00,49.604
1115.00,49.625
1116.00,49.622
1117.00,49.589
1118.00,49.580
1119.00,49.585
1120.00,49.585
1121.00,49.581
1122.00,49.560
1123.00,49.564
1124.00,49.558
1125.00,49.558
1126.00,49.564
1127.00,49.563
1128.00,49.525
1129.00,49.522
1130.00,49.499
1131.00,49.495
1132.00,49.499
1133.00,49.490
1134.00,49.480
1135.00,49.469
1136.00,49.472
1137.00,49.482
1138.00,49.479
1139.00,49.470
1140.00,49.468
1141.00,49.466
1142.00,49.428
1143.00,49.444
1144.00,49.435
1145.00,49.446
1146.00,49.438
1147.00,49.434
1148.00,49.433
1149.00,49.455
1150.00,49.449
1151.00,49.455
1152.00,49.453
1153.00,49.448
1154.00,49.432
1155.00,49.429
1156.00,49.433
1157.00,49.446
1158.00,49.428
1159.00,49.432
1160.00,49.426
1161.00,49.423
1162.00,49.433
1163.00,49.435
1164.00,49.416
1165.00,49.419
1166.00,49.429
1167.00,49.421
1168.00,49.437
1169.00,49.415
1170.00,49.431
1171.00,49.412
1172.00,49.388
1173.00,49.396
1174.00,49.406
1175.00,49.391
1176.00,49.402
1177.00,49.389
1178.00,49.400
1179.00,49.412
1180.00,49.396
1181.00,49.433
1182.00,49.421
1183.00,49.408
1184.00,49.405
1185.00,49.413
1186.00,49.390
1187.00,49.399
1188.00,49.401
1189.00,49.398
1190.00,49.384
1191.00,49.377
1192.00,49.417
1193.00,49.407
1194.00,49.397
1195.00,49.395
1196.00,49.422
1197.00,49.406
1198.00,49.402
1199.00,49.392
1200.00,49.411
1201.00,49.439
1202.00,49.394
1203.00,49.400
1204.00,49.395
1205.00,49.399
1206.00,49.396
1207.00,49.389
1208.00,49.363
1209.00,49.393
1210.00,49.389
1211.00,49.393
1212.00,49.417
1213.00,49.374
1214.00,49.410
1215.00,49.400
1216.00,49.393
1217.00,49.402
1218.00,49.384
1219.00,49.392
1220.00,49.381
1221.00,49.406
1222.00,49.403
1223.00,49.425
1224.00,49.416
1225.00,49.415
1226.00,49.416
1227.00,49.399
1228.00,49.423
1229.00,49.424
1230.00,49.449
1231.00,49.454
1232.00,49.467
1233.00,49.477
1234.00,49.473
1235.00,49.474
1236.00,49.475
1237.00,49.480
1238.00,49.469
1239.00,49.483
1240.00,49.452
1241.00,49.460
1242.00,49.477
1243.00,49.484
1244.00,49.473
1245.00,49.509
1246.00,49.505
1247.00,49.503
1248.00,49.501
1249.00,49.502
1250.00,49.518
1251.00,49.500
1252.00,49.512
1253.00,49.509
1254.00,49.528
1255.00,49.529
1256.00,49.509
1257.00,49.494
1258.00,49.551
1259.00,49.554
1260.00,49.562
1261.00,49.566
1262.00,49.565
1263.00,49.554
1264.00,49.564
1265.00,49.566
1266.00,49.573
1267.00,49.589
1268.00,49.576
1269.00,49.579
1270.00,49.593
1271.00,49.589
1272.00,49.606
1273.00,49.637
1274.00,49.635
1275.00,49.652
1276.00,49.639
1277.00,49.654
1278.00,49.652
1279.00,49.653
1280.00,49.653
1281.00,49.689
1282.00,49.683
1283.00,49.682
1284.00,49.692
1285.00,49.674
1286.00,49.697
1287.00,49.692
1288.00,49.686
1289.00,49.682
1290.00,49.725
1291.00,49.729
1292.00,49.739
1293.00,49.730
1294.00,49.755
1295.00,49.772
1296.00,49.757
1297.00,49.765
1298.00,49.800
1299.00,49.777
1300.00,49.793
1301.00,49.773
1302.00,49.808
1303.00,49.807
1304.00,49.775
1305.00,49.785
1306.00,49.791
1307.00,49.804
1308.00,49.810
1309.00,49.825
1310.00,49.835
1311.00,49.828
1312.00,49.836
1313.00,49.857
1314.00,49.881
1315.00,49.882
1316.00,49.885
1317.00,49.900
1318.00,49.898
1319.00,49.911
1320.00,49.920
1321.00,50.095
1322.00,50.088
1323.00,50.084
1324.00,50.083
1325.00,50.068
1326.00,50.095
1327.00,50.070
1328.00,50.075
1329.00,50.080
1330.00,50.074
1331.00,50.070
1332.00,50.072
1333.00,50.081
1334.00,50.121
1335.00,50.130
1336.00,50.132
1337.00,50.198
1338.00,50.286
1339.00,50.304
1340.00,50.359
1341.00,50.431
1342.00,50.485
1343.00,50.535
1344.00,50.590
1345.00,50.644
1346.00,50.681
1347.00,50.691
1348.00,50.738
1349.00,50.749
1350.00,50.749
1351.00,50.783
1352.00,50.789
1353.00,50.836
1354.00,50.807
1355.00,50.783
1356.00,50.817
1357.00,50.830
1358.00,50.893
1359.00,50.900
1360.00,50.885
1361.00,50.780
1362.00,50.843
1363.00,50.919
1364.00,50.948
1365.00,50.846
1366.00,50.887
1367.00,50.828
1368.00,50.811
1369.00,50.897
1370.00,50.852
1371.00,50.816
1372.00,50.848
1373.00,50.863
1374.00,50.881
1375.00,50.849
1376.00,50.848
1377.00,50.837
1378.00,50.911
1379.00,50.873
1380.00,50.879
1381.00,50.909
1382.00,50.872
1383.00,50.891
1384.00,50.817
1385.00,50.852
1386.00,50.884
1387.00,50.821
1388.00,50.828
1389.00,50.800
1390.00,50.828
1391.00,50.819
1392.00,50.848
1393.00,50.802
1394.00,50.881
1395.00,50.744
1396.00,50.767
1397.00,50.757
1398.00,50.926
1399.00,50.831
1400.00,51.169
1401.00,50.813
1402.00,50.892
1403.00,50.876
1404.00,50.876
1405.00,50.913
1406.00,50.928
1407.00,50.907
1408.00,50.963
1409.00,50.889
1410.00,50.935
1411.00,50.879
1412.00,50.967
1413.00,50.933
1414.00,50.919
1415.00,50.923
1416.00,50.998
1417.00,51.054
1418.00,50.997
1419.00,50.989
1420.00,51.007
1421.00,51.072
1422.00,51.047
1423.00,51.054
1424.00,51.072
1425.00,51.106
1426.00,51.120
1427.00,51.161
1428.00,51.145
1429.00,51.151
1430.00,51.172
1431.00,51.202
1432.00,51.209
1433.00,51.236
1434.00,51.220
1435.00,51.292
1436.00,51.312
1437.00,51.298
1438.00,51.316
1439.00,51.358
1440.00,51.364
1441.00,51.369
1442.00,51.386
1443.00,51.407
1444.00,51.483
1445.00,51.423
1446.00,51.427
1447.00,51.471
1448.00,51.526
1449.00,51.502
1450.00,51.523
1451.00,51.542
1452.00,51.573
1453.00,51.587
1454.00,51.593
1455.00,51.612
1456.00,51.626
1457.00,51.617
1458.00,51.668
1459.00,51.687
1460.00,51.704
1461.00,51.707
1462.00,51.741
1463.00,51.729
1464.00,51.743
1465.00,51.768
1466.00,51.767
1467.00,51.792
1468.00,51.855
1469.00,51.837
1470.00,51.875
1471.00,51.896
1472.00,51.905
1473.00,51.921
1474.00,51.941
1475.00,51.963
1476.00,51.975
1477.00,51.946
1478.00,51.980
1479.00,51.995
1480.00,52.004
1481.00,52.020
1482.00,52.068
1483.00,52.083
1484.00,52.105
1485.00,52.088
1486.00,52.105
1487.00,52.128
1488.00,52.149
1489.00,52.136
1490.00,52.145
1491.00,52.168
1492.00,52.198
1493.00,52.173
1494.00,52.206
1495.00,52.189
1496.00,52.230
1497.00,52.225
1498.00,52.237
1499.00,52.257
1500.00,52.269
1501.00, 
1502.00, 
1503.00, 
1504.00, 
1505.00, 
1506.00, 
1507.00, 
1508.00, 
1509.00, 
1510.00, 
1511.00, 
1512.00, 
1513.00, 
1514.00, 
1515.00, 
1516.00, 
1517.00, 
1518.00, 
1519.00, 
1520.00, 
1521.00, 
1522.00, 
1523.00, 
1524.00, 
1525.00, 
1526.00, 
1527.00, 
1528.00, 
1529.00, 
1530.00, 
1531.00, 
1532.00, 
1533.00, 
1534.00, 
1535.00, 
1536.00, 
1537.00, 
1538.00, 
1539.00, 
1540.00, 
1541.00, 
1542.00, 
1543.00, 
1544.00, 
1545.00, 
1546.00, 
1547.00, 
1548.00, 
1549.00, 
1550.00, 
1551.00, 
1552.00, 
1553.00, 
1554.00, 
1555.00, 
1556.00, 
1557.00, 
1558.00, 
1559.00, 
1560.00, 
1561.00, 
1562.00, 
1563.00, 
1564.00, 
1565.00, 
1566.00, 
1567.00, 
1568.00, 
1569.00, 
1570.00, 
1571.00, 
1572.00, 
1573.00, 
1574.00, 
1575.00, 
1576.00, 
1577.00, 
1578.00, 
1579.00, 
1580.00, 
1581.00, 
1582.00, 
1583.00, 
1584.00, 
1585.00, 
1586.00, 
1587.00, 
1588.00, 
1589.00, 
1590.00, 
1591.00, 
1592.00, 
1593.00, 
1594.00, 
1595.00, 
1596.00, 
1597.00, 
1598.00, 
1599.00, 
1600.00, 
1601.00, 
1602.00, 
1603.00, 
1604.00, 
1605.00, 
1606.00, 
1607.00, 
1608.00, 
1609.00, 
1610.00, 
1611.00, 
1612.00, 
1613.00, 
1614.00, 
1615.00, 
1616.00, 
1617.00, 
1618.00, 
1619.00, 
1620.00, 
1621.00, 
1622.00, 
1623.00, 
1624.00, 
1625.00, 
1626.00, 
1627.00, 
1628.00, 
1629.00, 
1630.00, 
1631.00, 
1632.00, 
1633.00, 
1634.00, 
1635.00, 
1636.00, 
1637.00, 
1638.00, 
1639.00, 
1640.00, 
1641.00, 
1642.00, 
1643.00, 
1644.00, 
1645.00, 
1646.00, 
1647.00, 
1648.00, 
1649.00, 
1650.00, 
1651.00, 
1652.00, 
1653.00, 
1654.00, 
1655.00, 
1656.00, 
1657.00, 
1658.00, 
1659.00, 
1660.00, 
1661.00, 
1662.00, 
1663.00, 
1664.00, 
1665.00, 
1666.00, 
1667.00, 
1668.00, 
1669.00, 
1670.00, 
1671.00, 
1672.00, 
1673.00, 
1674.00, 
1675.00, 
1676.00, 
1677.00, 
1678.00, 
1679.00, 
1680.00, 
1681.00, 
1682.00, 
1683.00, 
1684.00, 
1685.00, 
1686.00, 
1687.00, 
1688.00, 
1689.00, 
1690.00, 
1691.00, 
1692.00, 
1693.00, 
1694.00, 
1695.00, 
1696.00, 
1697.00, 
1698.00, 
1699.00, 
1700.00, 
1701.00, 
1702.00, 
1703.00, 
1704.00, 
1705.00, 
1706.00, 
1707.00, 
1708.00, 
1709.00, 
1710.00, 
1711.00, 
1712.00, 
1713.00, 
1714.00, 
1715.00, 
1716.00, 
1717.00, 
1718.00, 
1719.00, 
1720.00, 
1721.00, 
1722.00, 
1723.00, 
1724.00, 
1725.00, 
1726.00, 
1727.00, 
1728.00, 
1729.00, 
1730.00, 
1731.00, 
1732.00, 
1733.00, 
1734.00, 
1735.00, 
1736.00, 
1737.00, 
1738.00, 
1739.00, 
1740.00, 
1741.00, 
1742.00, 
1743.00, 
1744.00, 
1745.00, 
1746.00, 
1747.00, 
1748.00, 
1749.00, 
1750.00, 
1751.00, 
1752.00, 
1753.00, 
1754.00, 
1755.00, 
1756.00, 
1757.00, 
1758.00, 
1759.00, 
1760.00, 
1761.00, 
1762.00, 
1763.00, 
1764.00, 
1765.00, 
1766.00, 
1767.00, 
1768.00, 
1769.00, 
1770.00, 
1771.00, 
1772.00, 
1773.00, 
1774.00, 
1775.00, 
1776.00, 
1777.00, 
1778.00, 
1779.00, 
1780.00, 
1781.00, 
1782.00, 
1783.00, 
1784.00, 
1785.00, 
1786.00, 
1787.00, 
1788.00, 
1789.00, 
1790.00, 
1791.00, 
1792.00, 
1793.00, 
1794.00, 
1795.00, 
1796.00, 
1797.00, 
1798.00, 
1799.00, 
1800.00, 
1801.00, 
1802.00, 
1803.00, 
1804.00, 
1805.00, 
1806.00, 
1807.00, 
1808.00, 
1809.00, 
1810.00, 
1811.00, 
1812.00, 
1813.00, 
1814.00, 
1815.00, 
1816.00, 
1817.00, 
1818.00, 
1819.00, 
1820.00, 
1821.00, 
1822.00, 
1823.00, 
1824.00, 
1825.00, 
1826.00, 
1827.00, 
1828.00, 
1829.00, 
1830.00, 
1831.00, 
1832.00, 
1833.00, 
1834.00, 
1835.00, 
1836.00, 
1837.00, 
1838.00, 
1839.00, 
1840.00, 
1841.00, 
1842.00, 
1843.00, 
1844.00, 
1845.00, 
1846.00, 
1847.00, 
1848.00, 
1849.00, 
1850.00, 
1851.00, 
1852.00, 
1853.00, 
1854.00, 
1855.00, 
1856.00, 
1857.00, 
1858.00, 
1859.00, 
1860.00, 
1861.00, 
1862.00, 
1863.00, 
1864.00, 
1865.00, 
1866.00, 
1867.00, 
1868.00, 
1869.00, 
1870.00, 
1871.00, 
1872.00, 
1873.00, 
1874.00, 
1875.00, 
1876.00, 
1877.00, 
1878.00, 
1879.00, 
1880.00, 
1881.00, 
1882.00, 
1883.00, 
1884.00, 
1885.00, 
1886.00, 
1887.00, 
1888.00, 
1889.00, 
1890.00, 
1891.00, 
1892.00, 
1893.00, 
1894.00, 
1895.00, 
1896.00, 
1897.00, 
1898.00, 
1899.00, 
1900.00, 
1901.00, 
1902.00, 
1903.00, 
1904.00, 
1905.00, 
1906.00, 
1907.00, 
1908.00, 
1909.00, 
1910.00, 
1911.00, 
1912.00, 
1913.00, 
1914.00, 
1915.00, 
1916.00, 
1917.00, 
1918.00, 
1919.00, 
1920.00, 
1921.00, 
1922.00, 
1923.00, 
1924.00, 
1925.00, 
1926.00, 
1927.00, 
1928.00, 
1929.00, 
1930.00, 
1931.00, 
1932.00, 
1933.00, 
1934.00, 
1935.00, 
1936.00, 
1937.00, 
1938.00, 
1939.00, 
1940.00, 
1941.00, 
1942.00, 
1943.00, 
1944.00, 
1945.00, 
1946.00, 
1947.00, 
1948.00, 
1949.00, 
1950.00, 
1951.00, 
1952.00, 
1953.00, 
1954.00, 
1955.00, 
1956.00, 
1957.00, 
1958.00, 
1959.00, 
1960.00, 
1961.00, 
1962.00, 
1963.00, 
1964.00, 
1965.00, 
1966.00, 
1967.00, 
1968.00, 
1969.00, 
1970.00, 
1971.00, 
1972.00, 
1973.00, 
1974.00, 
1975.00, 
1976.00, 
1977.00, 
1978.00, 
1979.00, 
1980.00, 
1981.00, 
1982.00, 
1983.00, 
1984.00, 
1985.00, 
1986.00, 
1987.00, 
1988.00, 
1989.00, 
1990.00, 
1991.00, 
1992.00, 
1993.00, 
1994.00, 
1995.00, 
1996.00, 
1997.00, 
1998.00, 
1999.00, 
2000.00, 
2001.00, 
2002.00, 
2003.00, 
2004.00, 
2005.00, 
2006.00, 
2007.00, 
2008.00, 
2009.00, 
2010.00, 
2011.00, 
2012.00, 
2013.00, 
2014.00, 
2015.00, 
2016.00, 
2017.00, 
2018.00, 
2019.00, 
2020.00, 
2021.00, 
2022.00, 
2023.00, 
2024.00, 
2025.00, 
2026.00, 
2027.00, 
2028.00, 
2029.00, 
2030.00, 
2031.00, 
2032.00, 
2033.00, 
2034.00, 
2035.00, 
2036.00, 
2037.00, 
2038.00, 
2039.00, 
2040.00, 
2041.00, 
2042.00, 
2043.00, 
2044.00, 
2045.00, 
2046.00, 
2047.00, 
2048.00, 
2049.00, 
2050.00, 
2051.00, 
2052.00, 
2053.00, 
2054.00, 
2055.00, 
2056.00, 
2057.00, 
2058.00, 
2059.00, 
2060.00, 
2061.00, 
2062.00, 
2063.00, 
2064.00, 
2065.00, 
2066.00, 
2067.00, 
2068.00, 
2069.00, 
2070.00, 
2071.00, 
2072.00, 
2073.00, 
2074.00, 
2075.00, 
2076.00, 
2077.00, 
2078.00, 
2079.00, 
2080.00, 
2081.00, 
2082.00, 
2083.00, 
2084.00, 
2085.00, 
2086.00, 
2087.00, 
2088.00, 
2089.00, 
2090.00, 
2091.00, 
2092.00, 
2093.00, 
2094.00, 
2095.00, 
2096.00, 
2097.00, 
2098.00, 
2099.00, 
2100.00, 
2101.00, 
2102.00, 
2103.00, 
2104.00, 
2105.00, 
2106.00, 
2107.00, 
2108.00, 
2109.00, 
2110.00, 
2111.00, 
2112.00, 
2113.00, 
2114.00, 
2115.00, 
2116.00, 
2117.00, 
2118.00, 
2119.00, 
2120.00, 
2121.00, 
2122.00, 
2123.00, 
2124.00, 
2125.00, 
2126.00, 
2127.00, 
2128.00, 
2129.00, 
2130.00, 
2131.00, 
2132.00, 
2133.00, 
2134.00, 
2135.00, 
2136.00, 
2137.00, 
2138.00, 
2139.00, 
2140.00, 
2141.00, 
2142.00, 
2143.00, 
2144.00, 
2145.00, 
2146.00, 
2147.00, 
2148.00, 
2149.00, 
2150.00, 
2151.00, 
2152.00, 
2153.00, 
2154.00, 
2155.00, 
2156.00, 
2157.00, 
2158.00, 
2159.00, 
2160.00, 
2161.00, 
2162.00, 
2163.00, 
2164.00, 
2165.00, 
2166.00, 
2167.00, 
2168.00, 
2169.00, 
2170.00, 
2171.00, 
2172.00, 
2173.00, 
2174.00, 
2175.00, 
2176.00, 
2177.00, 
2178.00, 
2179.00, 
2180.00, 
2181.00, 
2182.00, 
2183.00, 
2184.00, 
2185.00, 
2186.00, 
2187.00, 
2188.00, 
2189.00, 
2190.00, 
2191.00, 
2192.00, 
2193.00, 
2194.00, 
2195.00, 
2196.00, 
2197.00, 
2198.00, 
2199.00, 
2200.00, 
2201.00, 
2202.00, 
2203.00, 
2204.00, 
2205.00, 
2206.00, 
2207.00, 
2208.00, 
2209.00, 
2210.00, 
2211.00, 
2212.00, 
2213.00, 
2214.00, 
2215.00, 
2216.00, 
2217.00, 
2218.00, 
2219.00, 
2220.00, 
2221.00, 
2222.00, 
2223.00, 
2224.00, 
2225.00, 
2226.00, 
2227.00, 
2228.00, 
2229.00, 
2230.00, 
2231.00, 
2232.00, 
2233.00, 
2234.00, 
2235.00, 
2236.00, 
2237.00, 
2238.00, 
2239.00, 
2240.00, 
2241.00, 
2242.00, 
2243.00, 
2244.00, 
2245.00, 
2246.00, 
2247.00, 
2248.00, 
2249.00, 
2250.00, 
2251.00, 
2252.00, 
2253.00, 
2254.00, 
2255.00, 
2256.00, 
2257.00, 
2258.00, 
2259.00, 
2260.00, 
2261.00, 
2262.00, 
2263.00, 
2264.00, 
2265.00, 
2266.00, 
2267.00, 
2268.00, 
2269.00, 
2270.00, 
2271.00, 
2272.00, 
2273.00, 
2274.00, 
2275.00, 
2276.00, 
2277.00, 
2278.00, 
2279.00, 
2280.00, 
2281.00, 
2282.00, 
2283.00, 
2284.00, 
2285.00, 
2286.00, 
2287.00, 
2288.00, 
2289.00, 
2290.00, 
2291.00, 
2292.00, 
2293.00, 
2294.00, 
2295.00, 
2296.00, 
2297.00, 
2298.00, 
2299.00, 
2300.00, 
2301.00, 
2302.00, 
2303.00, 
2304.00, 
2305.00, 
2306.00, 
2307.00, 
2308.00, 
2309.00, 
2310.00, 
2311.00, 
2312.00, 
2313.00, 
2314.00, 
2315.00, 
2316.00, 
2317.00, 
2318.00, 
2319.00, 
2320.00, 
2321.00, 
2322.00, 
2323.00, 
2324.00, 
2325.00, 
2326.00, 
2327.00, 
2328.00, 
2329.00, 
2330.00, 
2331.00, 
2332.00, 
2333.00, 
2334.00, 
2335.00, 
2336.00, 
2337.00, 
2338.00, 
2339.00, 
2340.00, 
2341.00, 
2342.00, 
2343.00, 
2344.00, 
2345.00, 
2346.00, 
2347.00, 
2348.00, 
2349.00, 
2350.00, 
2351.00, 
2352.00, 
2353.00, 
2354.00, 
2355.00, 
2356.00, 
2357.00, 
2358.00, 
2359.00, 
2360.00, 
2361.00, 
2362.00, 
2363.00, 
2364.00, 
2365.00, 
2366.00, 
2367.00, 
2368.00, 
2369.00, 
2370.00, 
2371.00, 
2372.00, 
2373.00, 
2374.00, 
2375.00, 
2376.00, 
2377.00, 
2378.00, 
2379.00, 
2380.00, 
2381.00, 
2382.00, 
2383.00, 
2384.00, 
2385.00, 
2386.00, 
2387.00, 
2388.00, 
2389.00, 
2390.00, 
2391.00, 
2392.00, 
2393.00, 
2394.00, 
2395.00, 
2396.00, 
2397.00, 
2398.00, 
2399.00, 
2400.00, 
2401.00, 
2402.00, 
2403.00, 
2404.00, 
2405.00, 
2406.00, 
2407.00, 
2408.00, 
2409.00, 
2410.00, 
2411.00, 
2412.00, 
2413.00, 
2414.00, 
2415.00, 
2416.00, 
2417.00, 
2418.00, 
2419.00, 
2420.00, 
2421.00, 
2422.00, 
2423.00, 
2424.00, 
2425.00, 
2426.00, 
2427.00, 
2428.00, 
2429.00, 
2430.00, 
2431.00, 
2432.00, 
2433.00, 
2434.00, 
2435.00, 
2436.00, 
2437.00, 
2438.00, 
2439.00, 
2440.00, 
2441.00, 
2442.00, 
2443.00, 
2444.00, 
2445.00, 
2446.00, 
2447.00, 
2448.00, 
2449.00, 
2450.00, 
2451.00, 
2452.00, 
2453.00, 
2454.00, 
2455.00, 
2456.00, 
2457.00, 
2458.00, 
2459.00, 
2460.00, 
2461.00, 
2462.00, 
2463.00, 
2464.00, 
2465.00, 
2466.00, 
2467.00, 
2468.00, 
2469.00, 
2470.00, 
2471.00, 
2472.00, 
2473.00, 
2474.00, 
2475.00, 
2476.00, 
2477.00, 
2478.00, 
2479.00, 
2480.00, 
2481.00, 
2482.00, 
2483.00, 
2484.00, 
2485.00, 
2486.00, 
2487.00, 
2488.00, 
2489.00, 
2490.00, 
2491.00, 
2492.00, 
2493.00, 
2494.00, 
2495.00, 
2496.00, 
2497.00, 
2498.00, 
2499.00, 
2500.00, 
2501.00, 
2502.00, 
2503.00, 
2504.00, 
2505.00, 
2506.00, 
2507.00, 
2508.00, 
2509.00, 
2510.00, 
2511.00, 
2512.00, 
2513.00, 
2514.00, 
2515.00, 
2516.00, 
2517.00, 
2518.00, 
2519.00, 
2520.00, 
2521.00, 
2522.00, 
2523.00, 
2524.00, 
2525.00, 
2526.00, 
2527.00, 
2528.00, 
2529.00, 
2530.00, 
2531.00, 
2532.00, 
2533.00, 
2534.00, 
2535.00, 
2536.00, 
2537.00, 
2538.00, 
2539.00, 
2540.00, 
2541.00, 
2542.00, 
2543.00, 
2544.00, 
2545.00, 
2546.00, 
2547.00, 
2548.00, 
2549.00, 
2550.00, 
2551.00, 
2552.00, 
2553.00, 
2554.00, 
2555.00, 
2556.00, 
2557.00, 
2558.00, 
2559.00, 
2560.00, 
2561.00, 
2562.00, 
2563.00, 
2564.00, 
2565.00, 
2566.00, 
2567.00, 
2568.00, 
2569.00, 
2570.00, 
2571.00, 
2572.00, 
2573.00, 
2574.00, 
2575.00, 
2576.00, 
2577.00, 
2578.00, 
2579.00, 
2580.00, 
2581.00, 
2582.00, 
2583.00, 
2584.00, 
2585.00, 
2586.00, 
2587.00, 
2588.00, 
2589.00, 
2590.00, 
2591.00, 
2592.00, 
2593.00, 
2594.00, 
2595.00, 
2596.00, 
2597.00, 
2598.00, 
2599.00, 
2600.00, 
