"2cP3 - RawData"
"Wavelength nm.","T%"
200.00,0.000
201.00,0.002
202.00,0.003
203.00,0.003
204.00,-0.001
205.00,-0.002
206.00,0.001
207.00,0.001
208.00,0.001
209.00,0.002
210.00,0.002
211.00,0.003
212.00,0.003
213.00,-0.000
214.00,-0.001
215.00,0.002
216.00,0.002
217.00,0.002
218.00,0.001
219.00,0.002
220.00,0.002
221.00,0.003
222.00,0.002
223.00,-0.003
224.00,0.000
225.00,0.001
226.00,0.002
227.00,0.002
228.00,0.002
229.00,-0.001
230.00,0.000
231.00,-0.001
232.00,0.001
233.00,0.001
234.00,-0.001
235.00,-0.001
236.00,-0.001
237.00,0.000
238.00,0.002
239.00,-0.000
240.00,0.001
241.00,-0.000
242.00,0.001
243.00,0.001
244.00,-0.000
245.00,0.003
246.00,0.000
247.00,0.002
248.00,-0.002
249.00,-0.001
250.00,0.002
251.00,0.001
252.00,0.001
253.00,0.001
254.00,-0.000
255.00,-0.000
256.00,0.002
257.00,0.000
258.00,0.001
259.00,0.001
260.00,-0.000
261.00,-0.000
262.00,0.002
263.00,0.000
264.00,0.001
265.00,0.001
266.00,0.001
267.00,0.001
268.00,0.000
269.00,0.001
270.00,-0.001
271.00,0.000
272.00,-0.000
273.00,0.001
274.00,0.002
275.00,0.002
276.00,0.000
277.00,-0.000
278.00,0.002
279.00,-0.000
280.00,0.001
281.00,0.000
282.00,-0.001
283.00,-0.000
284.00,0.001
285.00,-0.001
286.00,0.001
287.00,-0.001
288.00,0.000
289.00,-0.001
290.00,-0.001
291.00,0.000
292.00,-0.002
293.00,0.002
294.00,-0.001
295.00,0.001
296.00,0.001
297.00,-0.000
298.00,0.001
299.00,0.002
300.00,0.003
301.00,0.004
302.00,0.007
303.00,0.008
304.00,0.012
305.00,0.022
306.00,0.034
307.00,0.051
308.00,0.078
309.00,0.122
310.00,0.168
311.00,0.230
312.00,0.312
313.00,0.418
314.00,0.552
315.00,0.724
316.00,0.930
317.00,1.185
318.00,1.455
319.00,1.785
320.00,2.167
321.00,2.600
322.00,3.075
323.00,3.623
324.00,4.188
325.00,4.786
326.00,5.406
327.00,6.140
328.00,6.838
329.00,7.621
330.00,8.352
331.00,9.169
332.00,9.924
333.00,10.784
334.00,11.593
335.00,12.438
336.00,13.257
337.00,14.131
338.00,14.890
339.00,15.676
340.00,16.472
341.00,17.180
342.00,17.911
343.00,18.645
344.00,19.275
345.00,19.991
346.00,20.510
347.00,21.100
348.00,21.663
349.00,22.163
350.00,22.672
351.00,23.081
352.00,23.546
353.00,23.988
354.00,24.277
355.00,24.748
356.00,25.099
357.00,25.452
358.00,25.714
359.00,25.987
360.00,26.264
361.00,26.441
362.00,26.641
363.00,26.915
364.00,27.130
365.00,27.205
366.00,27.401
367.00,27.536
368.00,27.561
369.00,27.781
370.00,27.870
371.00,27.921
372.00,28.011
373.00,27.976
374.00,28.067
375.00,28.011
376.00,28.039
377.00,27.997
378.00,27.965
379.00,27.950
380.00,27.926
381.00,27.946
382.00,27.956
383.00,27.985
384.00,28.020
385.00,28.114
386.00,28.197
387.00,28.281
388.00,28.368
389.00,28.372
390.00,28.458
391.00,28.522
392.00,28.565
393.00,28.605
394.00,28.642
395.00,28.628
396.00,28.686
397.00,28.735
398.00,28.741
399.00,28.759
400.00,28.802
401.00,28.798
402.00,28.785
403.00,28.797
404.00,28.838
405.00,28.783
406.00,28.768
407.00,28.772
408.00,28.783
409.00,28.668
410.00,28.633
411.00,28.651
412.00,28.602
413.00,28.612
414.00,28.587
415.00,28.551
416.00,28.682
417.00,28.703
418.00,28.721
419.00,28.741
420.00,28.779
421.00,28.843
422.00,28.915
423.00,28.919
424.00,28.938
425.00,28.990
426.00,29.000
427.00,29.050
428.00,29.058
429.00,29.102
430.00,29.147
431.00,29.186
432.00,29.244
433.00,29.308
434.00,29.338
435.00,29.380
436.00,29.438
437.00,29.510
438.00,29.580
439.00,29.632
440.00,29.685
441.00,29.729
442.00,29.814
443.00,29.835
444.00,29.958
445.00,30.007
446.00,30.126
447.00,30.203
448.00,30.292
449.00,30.384
450.00,30.472
451.00,30.556
452.00,30.661
453.00,30.757
454.00,30.812
455.00,30.951
456.00,31.029
457.00,31.131
458.00,31.222
459.00,31.318
460.00,31.446
461.00,31.523
462.00,31.652
463.00,31.720
464.00,31.814
465.00,31.949
466.00,32.028
467.00,32.152
468.00,32.208
469.00,32.363
470.00,32.433
471.00,32.586
472.00,32.633
473.00,32.692
474.00,32.826
475.00,32.933
476.00,32.947
477.00,33.058
478.00,33.160
479.00,33.295
480.00,33.431
481.00,33.555
482.00,33.683
483.00,33.775
484.00,33.902
485.00,34.068
486.00,34.189
487.00,34.328
488.00,34.499
489.00,34.654
490.00,34.795
491.00,34.862
492.00,35.034
493.00,35.098
494.00,35.090
495.00,35.226
496.00,35.328
497.00,35.450
498.00,35.581
499.00,35.626
500.00,35.810
501.00,35.915
502.00,36.004
503.00,36.110
504.00,36.192
505.00,36.352
506.00,36.368
507.00,36.476
508.00,36.520
509.00,36.733
510.00,36.840
511.00,36.916
512.00,37.040
513.00,37.103
514.00,37.263
515.00,37.363
516.00,37.472
517.00,37.527
518.00,37.632
519.00,37.711
520.00,37.805
521.00,37.825
522.00,37.844
523.00,37.916
524.00,38.114
525.00,38.203
526.00,38.317
527.00,38.413
528.00,38.465
529.00,38.585
530.00,38.627
531.00,38.783
532.00,38.863
533.00,38.940
534.00,39.024
535.00,39.103
536.00,39.198
537.00,39.244
538.00,39.359
539.00,39.378
540.00,39.487
541.00,39.537
542.00,39.590
543.00,39.604
544.00,39.738
545.00,39.765
546.00,39.780
547.00,39.908
548.00,39.955
549.00,40.021
550.00,40.078
551.00,40.143
552.00,40.237
553.00,40.344
554.00,40.417
555.00,40.521
556.00,40.532
557.00,40.615
558.00,40.600
559.00,40.725
560.00,40.774
561.00,40.818
562.00,40.890
563.00,40.924
564.00,40.964
565.00,41.001
566.00,40.972
567.00,40.935
568.00,41.113
569.00,41.148
570.00,41.173
571.00,41.231
572.00,41.291
573.00,41.321
574.00,41.395
575.00,41.402
576.00,41.458
577.00,41.541
578.00,41.569
579.00,41.632
580.00,41.680
581.00,41.788
582.00,41.846
583.00,41.902
584.00,42.017
585.00,42.049
586.00,42.106
587.00,42.204
588.00,42.232
589.00,42.290
590.00,42.344
591.00,42.293
592.00,42.452
593.00,42.481
594.00,42.432
595.00,42.421
596.00,42.489
597.00,42.482
598.00,42.636
599.00,42.685
600.00,42.790
601.00,42.798
602.00,42.822
603.00,42.861
604.00,42.925
605.00,42.949
606.00,43.030
607.00,43.064
608.00,43.133
609.00,43.142
610.00,43.125
611.00,43.148
612.00,43.170
613.00,43.235
614.00,43.221
615.00,43.311
616.00,43.371
617.00,43.428
618.00,43.470
619.00,43.526
620.00,43.552
621.00,43.593
622.00,43.617
623.00,43.635
624.00,43.775
625.00,43.807
626.00,43.823
627.00,43.871
628.00,43.906
629.00,43.982
630.00,43.987
631.00,44.005
632.00,44.087
633.00,44.147
634.00,44.184
635.00,44.274
636.00,44.310
637.00,44.480
638.00,44.470
639.00,44.559
640.00,44.567
641.00,44.596
642.00,44.622
643.00,44.690
644.00,44.893
645.00,44.918
646.00,44.913
647.00,44.899
648.00,44.971
649.00,45.063
650.00,45.046
651.00,45.108
652.00,45.241
653.00,45.258
654.00,45.346
655.00,45.281
656.00,45.303
657.00,45.474
658.00,45.683
659.00,45.674
660.00,45.717
661.00,45.661
662.00,45.812
663.00,45.820
664.00,46.033
665.00,46.062
666.00,46.060
667.00,46.139
668.00,46.224
669.00,46.276
670.00,46.349
671.00,46.340
672.00,46.379
673.00,46.558
674.00,46.582
675.00,46.643
676.00,46.707
677.00,46.765
678.00,46.644
679.00,46.727
680.00,46.951
681.00,46.906
682.00,46.892
683.00,46.957
684.00,47.106
685.00,47.270
686.00,47.129
687.00,47.235
688.00,47.328
689.00,47.393
690.00,47.437
691.00,47.425
692.00,47.434
693.00,47.441
694.00,47.341
695.00,47.539
696.00,47.600
697.00,47.686
698.00,47.833
699.00,47.970
700.00,47.908
701.00,47.950
702.00,48.075
703.00,48.105
704.00,48.227
705.00,48.228
706.00,48.313
707.00,48.299
708.00,48.245
709.00,48.401
710.00,48.431
711.00,48.386
712.00,48.358
713.00,48.557
714.00,48.498
715.00,48.614
716.00,48.624
717.00,48.590
718.00,48.625
719.00,48.606
720.00,48.704
721.00,52.983
722.00,53.010
723.00,53.017
724.00,52.937
725.00,52.967
726.00,52.996
727.00,52.985
728.00,52.938
729.00,52.880
730.00,52.952
731.00,52.902
732.00,52.906
733.00,52.954
734.00,53.047
735.00,52.955
736.00,52.925
737.00,52.994
738.00,52.936
739.00,52.975
740.00,52.911
741.00,53.027
742.00,53.034
743.00,52.949
744.00,52.892
745.00,52.994
746.00,52.919
747.00,52.924
748.00,52.861
749.00,52.853
750.00,52.757
751.00,52.817
752.00,52.833
753.00,52.830
754.00,52.840
755.00,52.739
756.00,52.723
757.00,52.801
758.00,52.782
759.00,52.742
760.00,52.781
761.00,52.760
762.00,52.732
763.00,52.760
764.00,52.719
765.00,52.731
766.00,52.692
767.00,52.688
768.00,52.793
769.00,52.696
770.00,52.805
771.00,52.752
772.00,52.679
773.00,52.680
774.00,52.636
775.00,52.754
776.00,52.677
777.00,52.651
778.00,52.626
779.00,52.663
780.00,52.689
781.00,52.633
782.00,52.641
783.00,52.617
784.00,52.597
785.00,52.555
786.00,52.573
787.00,52.569
788.00,52.549
789.00,52.416
790.00,52.451
791.00,52.557
792.00,52.425
793.00,52.400
794.00,52.407
795.00,52.380
796.00,52.415
797.00,52.375
798.00,52.379
799.00,52.332
800.00,52.209
801.00,52.326
802.00,52.261
803.00,52.244
804.00,52.186
805.00,52.175
806.00,52.172
807.00,52.165
808.00,52.109
809.00,52.089
810.00,52.121
811.00,52.113
812.00,52.060
813.00,51.966
814.00,52.081
815.00,52.067
816.00,51.993
817.00,51.922
818.00,51.898
819.00,51.868
820.00,51.861
821.00,51.805
822.00,51.854
823.00,51.777
824.00,51.798
825.00,51.806
826.00,51.882
827.00,51.864
828.00,51.728
829.00,51.669
830.00,51.673
831.00,54.198
832.00,54.241
833.00,54.184
834.00,54.176
835.00,54.128
836.00,54.113
837.00,54.090
838.00,54.056
839.00,54.042
840.00,54.017
841.00,54.011
842.00,53.975
843.00,53.982
844.00,53.985
845.00,53.908
846.00,53.936
847.00,53.891
848.00,53.836
849.00,53.766
850.00,53.738
851.00,53.708
852.00,53.702
853.00,53.674
854.00,53.633
855.00,53.556
856.00,53.590
857.00,53.525
858.00,53.513
859.00,53.449
860.00,53.468
861.00,53.468
862.00,53.376
863.00,53.423
864.00,53.431
865.00,53.397
866.00,53.382
867.00,53.391
868.00,53.501
869.00,53.339
870.00,53.325
871.00,53.312
872.00,53.320
873.00,53.263
874.00,53.288
875.00,53.240
876.00,53.256
877.00,53.203
878.00,53.204
879.00,53.194
880.00,53.203
881.00,53.151
882.00,53.149
883.00,53.138
884.00,53.083
885.00,53.084
886.00,53.057
887.00,53.015
888.00,53.007
889.00,52.925
890.00,52.948
891.00,52.933
892.00,52.894
893.00,52.882
894.00,52.903
895.00,52.859
896.00,52.831
897.00,52.826
898.00,52.802
899.00,52.838
900.00,52.785
901.00,52.778
902.00,52.763
903.00,52.754
904.00,52.715
905.00,52.711
906.00,52.680
907.00,52.644
908.00,52.625
909.00,52.594
910.00,52.579
911.00,52.577
912.00,52.569
913.00,52.513
914.00,52.503
915.00,52.494
916.00,52.461
917.00,52.452
918.00,52.427
919.00,52.377
920.00,52.380
921.00,52.357
922.00,52.283
923.00,52.338
924.00,52.280
925.00,52.272
926.00,52.256
927.00,52.242
928.00,52.207
929.00,52.212
930.00,52.191
931.00,52.189
932.00,52.140
933.00,52.150
934.00,52.131
935.00,52.099
936.00,52.077
937.00,52.029
938.00,52.116
939.00,52.038
940.00,51.991
941.00,51.973
942.00,51.943
943.00,51.935
944.00,51.928
945.00,51.915
946.00,51.895
947.00,51.855
948.00,51.831
949.00,51.813
950.00,51.803
951.00,51.787
952.00,51.748
953.00,51.711
954.00,51.712
955.00,51.673
956.00,51.670
957.00,51.611
958.00,51.626
959.00,51.586
960.00,51.564
961.00,51.549
962.00,51.562
963.00,51.513
964.00,51.510
965.00,51.485
966.00,51.479
967.00,51.473
968.00,51.435
969.00,51.479
970.00,51.450
971.00,51.451
972.00,51.433
973.00,51.460
974.00,51.467
975.00,51.448
976.00,51.481
977.00,51.456
978.00,51.486
979.00,51.431
980.00,51.449
981.00,51.457
982.00,51.420
983.00,51.436
984.00,51.458
985.00,51.424
986.00,51.387
987.00,51.413
988.00,51.391
989.00,51.376
990.00,51.367
991.00,51.357
992.00,51.368
993.00,51.328
994.00,51.312
995.00,51.319
996.00,51.285
997.00,51.280
998.00,51.252
999.00,51.284
1000.00,51.226
1001.00,51.219
1002.00,51.234
1003.00,51.238
1004.00,51.205
1005.00,51.166
1006.00,51.195
1007.00,51.162
1008.00,51.139
1009.00,51.120
1010.00,51.114
1011.00,51.095
1012.00,51.056
1013.00,51.076
1014.00,51.029
1015.00,51.035
1016.00,51.010
1017.00,51.019
1018.00,50.999
1019.00,50.957
1020.00,50.940
1021.00,50.926
1022.00,50.939
1023.00,50.879
1024.00,50.890
1025.00,50.875
1026.00,50.860
1027.00,50.837
1028.00,50.832
1029.00,50.813
1030.00,50.792
1031.00,50.791
1032.00,50.772
1033.00,50.780
1034.00,50.730
1035.00,50.703
1036.00,50.681
1037.00,50.654
1038.00,50.633
1039.00,50.602
1040.00,50.600
1041.00,50.568
1042.00,50.559
1043.00,50.535
1044.00,50.595
1045.00,50.546
1046.00,50.556
1047.00,50.566
1048.00,50.567
1049.00,50.584
1050.00,50.588
1051.00,50.617
1052.00,50.621
1053.00,50.618
1054.00,50.614
1055.00,50.644
1056.00,50.641
1057.00,50.634
1058.00,50.624
1059.00,50.622
1060.00,50.630
1061.00,50.609
1062.00,50.597
1063.00,50.610
1064.00,50.577
1065.00,50.574
1066.00,50.577
1067.00,50.550
1068.00,50.572
1069.00,50.544
1070.00,50.523
1071.00,50.521
1072.00,50.527
1073.00,50.512
1074.00,50.500
1075.00,50.481
1076.00,50.501
1077.00,50.484
1078.00,50.461
1079.00,50.476
1080.00,50.475
1081.00,50.438
1082.00,50.435
1083.00,50.437
1084.00,50.421
1085.00,50.414
1086.00,50.400
1087.00,50.393
1088.00,50.376
1089.00,50.357
1090.00,50.367
1091.00,50.401
1092.00,50.360
1093.00,50.341
1094.00,50.325
1095.00,50.306
1096.00,50.299
1097.00,50.282
1098.00,50.283
1099.00,50.275
1100.00,50.244
1101.00,50.238
1102.00,50.241
1103.00,50.223
1104.00,50.212
1105.00,50.202
1106.00,50.206
1107.00,50.196
1108.00,50.197
1109.00,50.187
1110.00,50.195
1111.00,50.160
1112.00,50.157
1113.00,50.142
1114.00,50.128
1115.00,50.130
1116.00,50.117
1117.00,50.098
1118.00,50.101
1119.00,50.087
1120.00,50.101
1121.00,50.100
1122.00,50.077
1123.00,50.065
1124.00,50.068
1125.00,50.036
1126.00,50.039
1127.00,50.043
1128.00,50.028
1129.00,50.008
1130.00,49.991
1131.00,50.001
1132.00,50.009
1133.00,49.976
1134.00,49.986
1135.00,49.981
1136.00,49.963
1137.00,49.964
1138.00,49.976
1139.00,49.980
1140.00,49.957
1141.00,49.938
1142.00,49.946
1143.00,49.957
1144.00,49.916
1145.00,49.927
1146.00,49.938
1147.00,49.911
1148.00,49.914
1149.00,49.932
1150.00,49.926
1151.00,49.918
1152.00,49.897
1153.00,49.906
1154.00,49.896
1155.00,49.880
1156.00,49.889
1157.00,49.890
1158.00,49.871
1159.00,49.871
1160.00,49.872
1161.00,49.869
1162.00,49.852
1163.00,49.857
1164.00,49.859
1165.00,49.860
1166.00,49.847
1167.00,49.847
1168.00,49.856
1169.00,49.835
1170.00,49.840
1171.00,49.814
1172.00,49.818
1173.00,49.820
1174.00,49.813
1175.00,49.814
1176.00,49.822
1177.00,49.810
1178.00,49.818
1179.00,49.842
1180.00,49.815
1181.00,49.837
1182.00,49.843
1183.00,49.841
1184.00,49.832
1185.00,49.820
1186.00,49.799
1187.00,49.827
1188.00,49.792
1189.00,49.801
1190.00,49.807
1191.00,49.784
1192.00,49.806
1193.00,49.798
1194.00,49.795
1195.00,49.764
1196.00,49.787
1197.00,49.789
1198.00,49.792
1199.00,49.775
1200.00,49.781
1201.00,49.786
1202.00,49.771
1203.00,49.777
1204.00,49.767
1205.00,49.790
1206.00,49.775
1207.00,49.777
1208.00,49.765
1209.00,49.759
1210.00,49.764
1211.00,49.767
1212.00,49.787
1213.00,49.736
1214.00,49.766
1215.00,49.757
1216.00,49.753
1217.00,49.754
1218.00,49.760
1219.00,49.767
1220.00,49.749
1221.00,49.759
1222.00,49.752
1223.00,49.770
1224.00,49.754
1225.00,49.748
1226.00,49.755
1227.00,49.730
1228.00,49.752
1229.00,49.745
1230.00,49.784
1231.00,49.783
1232.00,49.791
1233.00,49.787
1234.00,49.787
1235.00,49.797
1236.00,49.800
1237.00,49.793
1238.00,49.792
1239.00,49.798
1240.00,49.779
1241.00,49.801
1242.00,49.806
1243.00,49.801
1244.00,49.783
1245.00,49.817
1246.00,49.818
1247.00,49.815
1248.00,49.807
1249.00,49.805
1250.00,49.818
1251.00,49.813
1252.00,49.831
1253.00,49.825
1254.00,49.833
1255.00,49.832
1256.00,49.821
1257.00,49.790
1258.00,49.833
1259.00,49.824
1260.00,49.847
1261.00,49.844
1262.00,49.827
1263.00,49.836
1264.00,49.853
1265.00,49.846
1266.00,49.860
1267.00,49.869
1268.00,49.875
1269.00,49.876
1270.00,49.893
1271.00,49.883
1272.00,49.891
1273.00,49.890
1274.00,49.901
1275.00,49.916
1276.00,49.893
1277.00,49.896
1278.00,49.913
1279.00,49.900
1280.00,49.905
1281.00,49.918
1282.00,49.928
1283.00,49.901
1284.00,49.903
1285.00,49.904
1286.00,49.917
1287.00,49.913
1288.00,49.914
1289.00,49.935
1290.00,49.973
1291.00,49.961
1292.00,49.950
1293.00,49.937
1294.00,49.950
1295.00,49.953
1296.00,49.961
1297.00,49.973
1298.00,49.976
1299.00,49.958
1300.00,49.978
1301.00,49.976
1302.00,49.995
1303.00,50.003
1304.00,49.976
1305.00,50.005
1306.00,50.005
1307.00,50.007
1308.00,50.016
1309.00,50.010
1310.00,50.019
1311.00,50.020
1312.00,50.021
1313.00,50.024
1314.00,50.032
1315.00,50.044
1316.00,50.052
1317.00,50.067
1318.00,50.074
1319.00,50.090
1320.00,50.097
1321.00,50.235
1322.00,50.250
1323.00,50.215
1324.00,50.220
1325.00,50.208
1326.00,50.247
1327.00,50.206
1328.00,50.220
1329.00,50.228
1330.00,50.235
1331.00,50.223
1332.00,50.238
1333.00,50.225
1334.00,50.271
1335.00,50.282
1336.00,50.308
1337.00,50.329
1338.00,50.391
1339.00,50.430
1340.00,50.497
1341.00,50.556
1342.00,50.626
1343.00,50.680
1344.00,50.715
1345.00,50.785
1346.00,50.816
1347.00,50.832
1348.00,50.860
1349.00,50.879
1350.00,50.897
1351.00,50.917
1352.00,50.913
1353.00,50.940
1354.00,50.932
1355.00,50.869
1356.00,50.924
1357.00,50.975
1358.00,50.947
1359.00,50.962
1360.00,51.017
1361.00,50.963
1362.00,50.844
1363.00,51.001
1364.00,50.982
1365.00,50.928
1366.00,51.122
1367.00,51.110
1368.00,50.872
1369.00,50.954
1370.00,50.923
1371.00,50.894
1372.00,50.910
1373.00,50.913
1374.00,50.933
1375.00,50.899
1376.00,50.917
1377.00,50.877
1378.00,50.888
1379.00,50.885
1380.00,50.919
1381.00,50.919
1382.00,50.855
1383.00,50.892
1384.00,50.847
1385.00,50.864
1386.00,50.905
1387.00,50.841
1388.00,50.849
1389.00,50.783
1390.00,50.905
1391.00,50.864
1392.00,50.909
1393.00,50.886
1394.00,50.900
1395.00,50.847
1396.00,50.797
1397.00,50.869
1398.00,50.938
1399.00,50.879
1400.00,50.806
1401.00,50.871
1402.00,50.964
1403.00,50.924
1404.00,50.868
1405.00,50.944
1406.00,50.905
1407.00,50.942
1408.00,50.915
1409.00,50.923
1410.00,50.957
1411.00,50.961
1412.00,51.063
1413.00,50.941
1414.00,50.943
1415.00,51.002
1416.00,51.016
1417.00,51.023
1418.00,51.021
1419.00,51.014
1420.00,51.042
1421.00,51.073
1422.00,51.064
1423.00,51.060
1424.00,51.078
1425.00,51.093
1426.00,51.099
1427.00,51.116
1428.00,51.131
1429.00,51.154
1430.00,51.161
1431.00,51.180
1432.00,51.190
1433.00,51.209
1434.00,51.193
1435.00,51.236
1436.00,51.247
1437.00,51.234
1438.00,51.235
1439.00,51.291
1440.00,51.298
1441.00,51.297
1442.00,51.321
1443.00,51.358
1444.00,51.358
1445.00,51.342
1446.00,51.372
1447.00,51.416
1448.00,51.427
1449.00,51.424
1450.00,51.433
1451.00,51.444
1452.00,51.434
1453.00,51.477
1454.00,51.499
1455.00,51.509
1456.00,51.517
1457.00,51.514
1458.00,51.574
1459.00,51.568
1460.00,51.571
1461.00,51.583
1462.00,51.592
1463.00,51.642
1464.00,51.640
1465.00,51.660
1466.00,51.654
1467.00,51.681
1468.00,51.720
1469.00,51.715
1470.00,51.709
1471.00,51.724
1472.00,51.740
1473.00,51.750
1474.00,51.783
1475.00,51.797
1476.00,51.804
1477.00,51.801
1478.00,51.819
1479.00,51.827
1480.00,51.837
1481.00,51.844
1482.00,51.866
1483.00,51.881
1484.00,51.874
1485.00,51.896
1486.00,51.896
1487.00,51.921
1488.00,51.928
1489.00,51.935
1490.00,51.951
1491.00,51.964
1492.00,51.976
1493.00,51.966
1494.00,52.000
1495.00,51.998
1496.00,51.990
1497.00,52.001
1498.00,52.019
1499.00,52.020
1500.00,52.052
1501.00, 
1502.00, 
1503.00, 
1504.00, 
1505.00, 
1506.00, 
1507.00, 
1508.00, 
1509.00, 
1510.00, 
1511.00, 
1512.00, 
1513.00, 
1514.00, 
1515.00, 
1516.00, 
1517.00, 
1518.00, 
1519.00, 
1520.00, 
1521.00, 
1522.00, 
1523.00, 
1524.00, 
1525.00, 
1526.00, 
1527.00, 
1528.00, 
1529.00, 
1530.00, 
1531.00, 
1532.00, 
1533.00, 
1534.00, 
1535.00, 
1536.00, 
1537.00, 
1538.00, 
1539.00, 
1540.00, 
1541.00, 
1542.00, 
1543.00, 
1544.00, 
1545.00, 
1546.00, 
1547.00, 
1548.00, 
1549.00, 
1550.00, 
1551.00, 
1552.00, 
1553.00, 
1554.00, 
1555.00, 
1556.00, 
1557.00, 
1558.00, 
1559.00, 
1560.00, 
1561.00, 
1562.00, 
1563.00, 
1564.00, 
1565.00, 
1566.00, 
1567.00, 
1568.00, 
1569.00, 
1570.00, 
1571.00, 
1572.00, 
1573.00, 
1574.00, 
1575.00, 
1576.00, 
1577.00, 
1578.00, 
1579.00, 
1580.00, 
1581.00, 
1582.00, 
1583.00, 
1584.00, 
1585.00, 
1586.00, 
1587.00, 
1588.00, 
1589.00, 
1590.00, 
1591.00, 
1592.00, 
1593.00, 
1594.00, 
1595.00, 
1596.00, 
1597.00, 
1598.00, 
1599.00, 
1600.00, 
1601.00, 
1602.00, 
1603.00, 
1604.00, 
1605.00, 
1606.00, 
1607.00, 
1608.00, 
1609.00, 
1610.00, 
1611.00, 
1612.00, 
1613.00, 
1614.00, 
1615.00, 
1616.00, 
1617.00, 
1618.00, 
1619.00, 
1620.00, 
1621.00, 
1622.00, 
1623.00, 
1624.00, 
1625.00, 
1626.00, 
1627.00, 
1628.00, 
1629.00, 
1630.00, 
1631.00, 
1632.00, 
1633.00, 
1634.00, 
1635.00, 
1636.00, 
1637.00, 
1638.00, 
1639.00, 
1640.00, 
1641.00, 
1642.00, 
1643.00, 
1644.00, 
1645.00, 
1646.00, 
1647.00, 
1648.00, 
1649.00, 
1650.00, 
1651.00, 
1652.00, 
1653.00, 
1654.00, 
1655.00, 
1656.00, 
1657.00, 
1658.00, 
1659.00, 
1660.00, 
1661.00, 
1662.00, 
1663.00, 
1664.00, 
1665.00, 
1666.00, 
1667.00, 
1668.00, 
1669.00, 
1670.00, 
1671.00, 
1672.00, 
1673.00, 
1674.00, 
1675.00, 
1676.00, 
1677.00, 
1678.00, 
1679.00, 
1680.00, 
1681.00, 
1682.00, 
1683.00, 
1684.00, 
1685.00, 
1686.00, 
1687.00, 
1688.00, 
1689.00, 
1690.00, 
1691.00, 
1692.00, 
1693.00, 
1694.00, 
1695.00, 
1696.00, 
1697.00, 
1698.00, 
1699.00, 
1700.00, 
1701.00, 
1702.00, 
1703.00, 
1704.00, 
1705.00, 
1706.00, 
1707.00, 
1708.00, 
1709.00, 
1710.00, 
1711.00, 
1712.00, 
1713.00, 
1714.00, 
1715.00, 
1716.00, 
1717.00, 
1718.00, 
1719.00, 
1720.00, 
1721.00, 
1722.00, 
1723.00, 
1724.00, 
1725.00, 
1726.00, 
1727.00, 
1728.00, 
1729.00, 
1730.00, 
1731.00, 
1732.00, 
1733.00, 
1734.00, 
1735.00, 
1736.00, 
1737.00, 
1738.00, 
1739.00, 
1740.00, 
1741.00, 
1742.00, 
1743.00, 
1744.00, 
1745.00, 
1746.00, 
1747.00, 
1748.00, 
1749.00, 
1750.00, 
1751.00, 
1752.00, 
1753.00, 
1754.00, 
1755.00, 
1756.00, 
1757.00, 
1758.00, 
1759.00, 
1760.00, 
1761.00, 
1762.00, 
1763.00, 
1764.00, 
1765.00, 
1766.00, 
1767.00, 
1768.00, 
1769.00, 
1770.00, 
1771.00, 
1772.00, 
1773.00, 
1774.00, 
1775.00, 
1776.00, 
1777.00, 
1778.00, 
1779.00, 
1780.00, 
1781.00, 
1782.00, 
1783.00, 
1784.00, 
1785.00, 
1786.00, 
1787.00, 
1788.00, 
1789.00, 
1790.00, 
1791.00, 
1792.00, 
1793.00, 
1794.00, 
1795.00, 
1796.00, 
1797.00, 
1798.00, 
1799.00, 
1800.00, 
1801.00, 
1802.00, 
1803.00, 
1804.00, 
1805.00, 
1806.00, 
1807.00, 
1808.00, 
1809.00, 
1810.00, 
1811.00, 
1812.00, 
1813.00, 
1814.00, 
1815.00, 
1816.00, 
1817.00, 
1818.00, 
1819.00, 
1820.00, 
1821.00, 
1822.00, 
1823.00, 
1824.00, 
1825.00, 
1826.00, 
1827.00, 
1828.00, 
1829.00, 
1830.00, 
1831.00, 
1832.00, 
1833.00, 
1834.00, 
1835.00, 
1836.00, 
1837.00, 
1838.00, 
1839.00, 
1840.00, 
1841.00, 
1842.00, 
1843.00, 
1844.00, 
1845.00, 
1846.00, 
1847.00, 
1848.00, 
1849.00, 
1850.00, 
1851.00, 
1852.00, 
1853.00, 
1854.00, 
1855.00, 
1856.00, 
1857.00, 
1858.00, 
1859.00, 
1860.00, 
1861.00, 
1862.00, 
1863.00, 
1864.00, 
1865.00, 
1866.00, 
1867.00, 
1868.00, 
1869.00, 
1870.00, 
1871.00, 
1872.00, 
1873.00, 
1874.00, 
1875.00, 
1876.00, 
1877.00, 
1878.00, 
1879.00, 
1880.00, 
1881.00, 
1882.00, 
1883.00, 
1884.00, 
1885.00, 
1886.00, 
1887.00, 
1888.00, 
1889.00, 
1890.00, 
1891.00, 
1892.00, 
1893.00, 
1894.00, 
1895.00, 
1896.00, 
1897.00, 
1898.00, 
1899.00, 
1900.00, 
1901.00, 
1902.00, 
1903.00, 
1904.00, 
1905.00, 
1906.00, 
1907.00, 
1908.00, 
1909.00, 
1910.00, 
1911.00, 
1912.00, 
1913.00, 
1914.00, 
1915.00, 
1916.00, 
1917.00, 
1918.00, 
1919.00, 
1920.00, 
1921.00, 
1922.00, 
1923.00, 
1924.00, 
1925.00, 
1926.00, 
1927.00, 
1928.00, 
1929.00, 
1930.00, 
1931.00, 
1932.00, 
1933.00, 
1934.00, 
1935.00, 
1936.00, 
1937.00, 
1938.00, 
1939.00, 
1940.00, 
1941.00, 
1942.00, 
1943.00, 
1944.00, 
1945.00, 
1946.00, 
1947.00, 
1948.00, 
1949.00, 
1950.00, 
1951.00, 
1952.00, 
1953.00, 
1954.00, 
1955.00, 
1956.00, 
1957.00, 
1958.00, 
1959.00, 
1960.00, 
1961.00, 
1962.00, 
1963.00, 
1964.00, 
1965.00, 
1966.00, 
1967.00, 
1968.00, 
1969.00, 
1970.00, 
1971.00, 
1972.00, 
1973.00, 
1974.00, 
1975.00, 
1976.00, 
1977.00, 
1978.00, 
1979.00, 
1980.00, 
1981.00, 
1982.00, 
1983.00, 
1984.00, 
1985.00, 
1986.00, 
1987.00, 
1988.00, 
1989.00, 
1990.00, 
1991.00, 
1992.00, 
1993.00, 
1994.00, 
1995.00, 
1996.00, 
1997.00, 
1998.00, 
1999.00, 
2000.00, 
2001.00, 
2002.00, 
2003.00, 
2004.00, 
2005.00, 
2006.00, 
2007.00, 
2008.00, 
2009.00, 
2010.00, 
2011.00, 
2012.00, 
2013.00, 
2014.00, 
2015.00, 
2016.00, 
2017.00, 
2018.00, 
2019.00, 
2020.00, 
2021.00, 
2022.00, 
2023.00, 
2024.00, 
2025.00, 
2026.00, 
2027.00, 
2028.00, 
2029.00, 
2030.00, 
2031.00, 
2032.00, 
2033.00, 
2034.00, 
2035.00, 
2036.00, 
2037.00, 
2038.00, 
2039.00, 
2040.00, 
2041.00, 
2042.00, 
2043.00, 
2044.00, 
2045.00, 
2046.00, 
2047.00, 
2048.00, 
2049.00, 
2050.00, 
2051.00, 
2052.00, 
2053.00, 
2054.00, 
2055.00, 
2056.00, 
2057.00, 
2058.00, 
2059.00, 
2060.00, 
2061.00, 
2062.00, 
2063.00, 
2064.00, 
2065.00, 
2066.00, 
2067.00, 
2068.00, 
2069.00, 
2070.00, 
2071.00, 
2072.00, 
2073.00, 
2074.00, 
2075.00, 
2076.00, 
2077.00, 
2078.00, 
2079.00, 
2080.00, 
2081.00, 
2082.00, 
2083.00, 
2084.00, 
2085.00, 
2086.00, 
2087.00, 
2088.00, 
2089.00, 
2090.00, 
2091.00, 
2092.00, 
2093.00, 
2094.00, 
2095.00, 
2096.00, 
2097.00, 
2098.00, 
2099.00, 
2100.00, 
2101.00, 
2102.00, 
2103.00, 
2104.00, 
2105.00, 
2106.00, 
2107.00, 
2108.00, 
2109.00, 
2110.00, 
2111.00, 
2112.00, 
2113.00, 
2114.00, 
2115.00, 
2116.00, 
2117.00, 
2118.00, 
2119.00, 
2120.00, 
2121.00, 
2122.00, 
2123.00, 
2124.00, 
2125.00, 
2126.00, 
2127.00, 
2128.00, 
2129.00, 
2130.00, 
2131.00, 
2132.00, 
2133.00, 
2134.00, 
2135.00, 
2136.00, 
2137.00, 
2138.00, 
2139.00, 
2140.00, 
2141.00, 
2142.00, 
2143.00, 
2144.00, 
2145.00, 
2146.00, 
2147.00, 
2148.00, 
2149.00, 
2150.00, 
2151.00, 
2152.00, 
2153.00, 
2154.00, 
2155.00, 
2156.00, 
2157.00, 
2158.00, 
2159.00, 
2160.00, 
2161.00, 
2162.00, 
2163.00, 
2164.00, 
2165.00, 
2166.00, 
2167.00, 
2168.00, 
2169.00, 
2170.00, 
2171.00, 
2172.00, 
2173.00, 
2174.00, 
2175.00, 
2176.00, 
2177.00, 
2178.00, 
2179.00, 
2180.00, 
2181.00, 
2182.00, 
2183.00, 
2184.00, 
2185.00, 
2186.00, 
2187.00, 
2188.00, 
2189.00, 
2190.00, 
2191.00, 
2192.00, 
2193.00, 
2194.00, 
2195.00, 
2196.00, 
2197.00, 
2198.00, 
2199.00, 
2200.00, 
2201.00, 
2202.00, 
2203.00, 
2204.00, 
2205.00, 
2206.00, 
2207.00, 
2208.00, 
2209.00, 
2210.00, 
2211.00, 
2212.00, 
2213.00, 
2214.00, 
2215.00, 
2216.00, 
2217.00, 
2218.00, 
2219.00, 
2220.00, 
2221.00, 
2222.00, 
2223.00, 
2224.00, 
2225.00, 
2226.00, 
2227.00, 
2228.00, 
2229.00, 
2230.00, 
2231.00, 
2232.00, 
2233.00, 
2234.00, 
2235.00, 
2236.00, 
2237.00, 
2238.00, 
2239.00, 
2240.00, 
2241.00, 
2242.00, 
2243.00, 
2244.00, 
2245.00, 
2246.00, 
2247.00, 
2248.00, 
2249.00, 
2250.00, 
2251.00, 
2252.00, 
2253.00, 
2254.00, 
2255.00, 
2256.00, 
2257.00, 
2258.00, 
2259.00, 
2260.00, 
2261.00, 
2262.00, 
2263.00, 
2264.00, 
2265.00, 
2266.00, 
2267.00, 
2268.00, 
2269.00, 
2270.00, 
2271.00, 
2272.00, 
2273.00, 
2274.00, 
2275.00, 
2276.00, 
2277.00, 
2278.00, 
2279.00, 
2280.00, 
2281.00, 
2282.00, 
2283.00, 
2284.00, 
2285.00, 
2286.00, 
2287.00, 
2288.00, 
2289.00, 
2290.00, 
2291.00, 
2292.00, 
2293.00, 
2294.00, 
2295.00, 
2296.00, 
2297.00, 
2298.00, 
2299.00, 
2300.00, 
2301.00, 
2302.00, 
2303.00, 
2304.00, 
2305.00, 
2306.00, 
2307.00, 
2308.00, 
2309.00, 
2310.00, 
2311.00, 
2312.00, 
2313.00, 
2314.00, 
2315.00, 
2316.00, 
2317.00, 
2318.00, 
2319.00, 
2320.00, 
2321.00, 
2322.00, 
2323.00, 
2324.00, 
2325.00, 
2326.00, 
2327.00, 
2328.00, 
2329.00, 
2330.00, 
2331.00, 
2332.00, 
2333.00, 
2334.00, 
2335.00, 
2336.00, 
2337.00, 
2338.00, 
2339.00, 
2340.00, 
2341.00, 
2342.00, 
2343.00, 
2344.00, 
2345.00, 
2346.00, 
2347.00, 
2348.00, 
2349.00, 
2350.00, 
2351.00, 
2352.00, 
2353.00, 
2354.00, 
2355.00, 
2356.00, 
2357.00, 
2358.00, 
2359.00, 
2360.00, 
2361.00, 
2362.00, 
2363.00, 
2364.00, 
2365.00, 
2366.00, 
2367.00, 
2368.00, 
2369.00, 
2370.00, 
2371.00, 
2372.00, 
2373.00, 
2374.00, 
2375.00, 
2376.00, 
2377.00, 
2378.00, 
2379.00, 
2380.00, 
2381.00, 
2382.00, 
2383.00, 
2384.00, 
2385.00, 
2386.00, 
2387.00, 
2388.00, 
2389.00, 
2390.00, 
2391.00, 
2392.00, 
2393.00, 
2394.00, 
2395.00, 
2396.00, 
2397.00, 
2398.00, 
2399.00, 
2400.00, 
2401.00, 
2402.00, 
2403.00, 
2404.00, 
2405.00, 
2406.00, 
2407.00, 
2408.00, 
2409.00, 
2410.00, 
2411.00, 
2412.00, 
2413.00, 
2414.00, 
2415.00, 
2416.00, 
2417.00, 
2418.00, 
2419.00, 
2420.00, 
2421.00, 
2422.00, 
2423.00, 
2424.00, 
2425.00, 
2426.00, 
2427.00, 
2428.00, 
2429.00, 
2430.00, 
2431.00, 
2432.00, 
2433.00, 
2434.00, 
2435.00, 
2436.00, 
2437.00, 
2438.00, 
2439.00, 
2440.00, 
2441.00, 
2442.00, 
2443.00, 
2444.00, 
2445.00, 
2446.00, 
2447.00, 
2448.00, 
2449.00, 
2450.00, 
2451.00, 
2452.00, 
2453.00, 
2454.00, 
2455.00, 
2456.00, 
2457.00, 
2458.00, 
2459.00, 
2460.00, 
2461.00, 
2462.00, 
2463.00, 
2464.00, 
2465.00, 
2466.00, 
2467.00, 
2468.00, 
2469.00, 
2470.00, 
2471.00, 
2472.00, 
2473.00, 
2474.00, 
2475.00, 
2476.00, 
2477.00, 
2478.00, 
2479.00, 
2480.00, 
2481.00, 
2482.00, 
2483.00, 
2484.00, 
2485.00, 
2486.00, 
2487.00, 
2488.00, 
2489.00, 
2490.00, 
2491.00, 
2492.00, 
2493.00, 
2494.00, 
2495.00, 
2496.00, 
2497.00, 
2498.00, 
2499.00, 
2500.00, 
2501.00, 
2502.00, 
2503.00, 
2504.00, 
2505.00, 
2506.00, 
2507.00, 
2508.00, 
2509.00, 
2510.00, 
2511.00, 
2512.00, 
2513.00, 
2514.00, 
2515.00, 
2516.00, 
2517.00, 
2518.00, 
2519.00, 
2520.00, 
2521.00, 
2522.00, 
2523.00, 
2524.00, 
2525.00, 
2526.00, 
2527.00, 
2528.00, 
2529.00, 
2530.00, 
2531.00, 
2532.00, 
2533.00, 
2534.00, 
2535.00, 
2536.00, 
2537.00, 
2538.00, 
2539.00, 
2540.00, 
2541.00, 
2542.00, 
2543.00, 
2544.00, 
2545.00, 
2546.00, 
2547.00, 
2548.00, 
2549.00, 
2550.00, 
2551.00, 
2552.00, 
2553.00, 
2554.00, 
2555.00, 
2556.00, 
2557.00, 
2558.00, 
2559.00, 
2560.00, 
2561.00, 
2562.00, 
2563.00, 
2564.00, 
2565.00, 
2566.00, 
2567.00, 
2568.00, 
2569.00, 
2570.00, 
2571.00, 
2572.00, 
2573.00, 
2574.00, 
2575.00, 
2576.00, 
2577.00, 
2578.00, 
2579.00, 
2580.00, 
2581.00, 
2582.00, 
2583.00, 
2584.00, 
2585.00, 
2586.00, 
2587.00, 
2588.00, 
2589.00, 
2590.00, 
2591.00, 
2592.00, 
2593.00, 
2594.00, 
2595.00, 
2596.00, 
2597.00, 
2598.00, 
2599.00, 
2600.00, 
