"1cP2 - RawData"
"Wavelength nm.","T%"
200.00,0.001
201.00,0.003
202.00,0.002
203.00,0.004
204.00,0.003
205.00,0.003
206.00,0.001
207.00,0.001
208.00,0.004
209.00,0.003
210.00,-0.001
211.00,-0.000
212.00,0.001
213.00,0.000
214.00,0.001
215.00,0.000
216.00,0.002
217.00,0.006
218.00,-0.000
219.00,-0.001
220.00,0.000
221.00,0.002
222.00,-0.000
223.00,-0.000
224.00,-0.000
225.00,0.000
226.00,0.000
227.00,0.001
228.00,0.001
229.00,0.001
230.00,0.004
231.00,-0.000
232.00,-0.001
233.00,-0.000
234.00,0.003
235.00,0.000
236.00,-0.000
237.00,0.001
238.00,0.000
239.00,0.000
240.00,0.001
241.00,0.001
242.00,0.001
243.00,0.001
244.00,-0.001
245.00,-0.000
246.00,0.001
247.00,0.001
248.00,-0.001
249.00,0.001
250.00,0.000
251.00,0.000
252.00,0.001
253.00,0.000
254.00,0.000
255.00,0.001
256.00,0.002
257.00,0.000
258.00,0.000
259.00,0.000
260.00,0.002
261.00,-0.000
262.00,0.001
263.00,0.001
264.00,0.002
265.00,-0.001
266.00,0.000
267.00,0.001
268.00,0.001
269.00,0.001
270.00,0.000
271.00,0.001
272.00,0.002
273.00,0.001
274.00,-0.000
275.00,-0.000
276.00,-0.000
277.00,0.001
278.00,0.001
279.00,0.000
280.00,0.001
281.00,0.001
282.00,0.001
283.00,0.001
284.00,-0.001
285.00,0.001
286.00,0.000
287.00,-0.001
288.00,0.001
289.00,-0.001
290.00,-0.001
291.00,0.001
292.00,0.001
293.00,-0.000
294.00,-0.001
295.00,-0.001
296.00,0.000
297.00,0.001
298.00,0.001
299.00,-0.001
300.00,0.000
301.00,0.001
302.00,0.001
303.00,0.002
304.00,0.003
305.00,0.003
306.00,0.004
307.00,0.007
308.00,0.012
309.00,0.022
310.00,0.032
311.00,0.050
312.00,0.078
313.00,0.121
314.00,0.182
315.00,0.265
316.00,0.387
317.00,0.541
318.00,0.741
319.00,1.005
320.00,1.335
321.00,1.733
322.00,2.214
323.00,2.806
324.00,3.469
325.00,4.178
326.00,4.941
327.00,5.894
328.00,6.887
329.00,7.954
330.00,9.154
331.00,10.369
332.00,11.648
333.00,13.057
334.00,14.385
335.00,15.829
336.00,17.244
337.00,18.750
338.00,20.239
339.00,21.611
340.00,23.030
341.00,24.517
342.00,25.850
343.00,27.223
344.00,28.500
345.00,29.651
346.00,30.942
347.00,32.109
348.00,33.178
349.00,34.187
350.00,35.207
351.00,36.234
352.00,37.022
353.00,37.947
354.00,38.607
355.00,39.378
356.00,40.080
357.00,40.710
358.00,41.416
359.00,41.993
360.00,42.611
361.00,43.145
362.00,43.527
363.00,44.030
364.00,44.406
365.00,44.803
366.00,45.207
367.00,45.342
368.00,45.651
369.00,45.813
370.00,46.075
371.00,46.210
372.00,46.348
373.00,46.436
374.00,46.354
375.00,46.417
376.00,46.375
377.00,46.258
378.00,46.212
379.00,46.118
380.00,46.161
381.00,46.202
382.00,46.386
383.00,46.580
384.00,46.763
385.00,46.955
386.00,47.231
387.00,47.510
388.00,47.726
389.00,47.848
390.00,48.110
391.00,48.286
392.00,48.565
393.00,48.713
394.00,48.916
395.00,48.896
396.00,48.936
397.00,49.072
398.00,49.254
399.00,49.345
400.00,49.409
401.00,49.474
402.00,49.504
403.00,49.553
404.00,49.597
405.00,49.574
406.00,49.665
407.00,49.582
408.00,49.570
409.00,49.516
410.00,49.432
411.00,49.487
412.00,49.450
413.00,49.441
414.00,49.358
415.00,49.358
416.00,49.394
417.00,49.328
418.00,49.436
419.00,49.484
420.00,49.382
421.00,49.572
422.00,49.575
423.00,49.582
424.00,49.587
425.00,49.605
426.00,49.607
427.00,49.627
428.00,49.697
429.00,49.707
430.00,49.703
431.00,49.663
432.00,49.655
433.00,49.716
434.00,49.734
435.00,49.729
436.00,49.819
437.00,49.829
438.00,49.791
439.00,49.863
440.00,49.854
441.00,49.907
442.00,49.940
443.00,49.916
444.00,49.975
445.00,49.998
446.00,50.069
447.00,50.114
448.00,50.137
449.00,50.267
450.00,50.251
451.00,50.344
452.00,50.396
453.00,50.334
454.00,50.499
455.00,50.518
456.00,50.534
457.00,50.582
458.00,50.637
459.00,50.641
460.00,50.686
461.00,50.760
462.00,50.807
463.00,50.803
464.00,50.904
465.00,50.946
466.00,50.959
467.00,51.000
468.00,51.012
469.00,51.021
470.00,51.081
471.00,51.011
472.00,51.134
473.00,51.060
474.00,51.118
475.00,51.116
476.00,51.089
477.00,51.133
478.00,51.134
479.00,51.250
480.00,51.275
481.00,51.267
482.00,51.347
483.00,51.421
484.00,51.500
485.00,51.577
486.00,51.586
487.00,51.628
488.00,51.697
489.00,51.743
490.00,51.822
491.00,51.813
492.00,51.835
493.00,51.928
494.00,51.862
495.00,51.872
496.00,51.928
497.00,51.957
498.00,51.894
499.00,52.156
500.00,52.097
501.00,52.164
502.00,52.207
503.00,52.186
504.00,52.229
505.00,52.278
506.00,52.331
507.00,52.324
508.00,52.352
509.00,52.423
510.00,52.455
511.00,52.417
512.00,52.473
513.00,52.593
514.00,52.650
515.00,52.731
516.00,52.663
517.00,52.767
518.00,52.815
519.00,52.814
520.00,52.748
521.00,52.766
522.00,52.854
523.00,52.829
524.00,52.826
525.00,52.853
526.00,52.911
527.00,52.865
528.00,52.883
529.00,52.857
530.00,52.909
531.00,53.084
532.00,53.039
533.00,53.115
534.00,53.119
535.00,53.164
536.00,53.218
537.00,53.143
538.00,53.240
539.00,53.199
540.00,53.230
541.00,53.250
542.00,53.162
543.00,53.218
544.00,53.278
545.00,53.211
546.00,53.266
547.00,53.318
548.00,53.340
549.00,53.369
550.00,53.434
551.00,53.541
552.00,53.476
553.00,53.456
554.00,53.514
555.00,53.485
556.00,53.518
557.00,53.559
558.00,53.479
559.00,53.547
560.00,53.600
561.00,53.597
562.00,53.631
563.00,53.592
564.00,53.662
565.00,53.633
566.00,53.543
567.00,53.607
568.00,53.586
569.00,53.523
570.00,53.468
571.00,53.506
572.00,53.542
573.00,53.469
574.00,53.545
575.00,53.516
576.00,53.495
577.00,53.528
578.00,53.506
579.00,53.496
580.00,53.520
581.00,53.601
582.00,53.713
583.00,53.616
584.00,53.798
585.00,53.767
586.00,53.720
587.00,53.784
588.00,53.779
589.00,53.718
590.00,53.762
591.00,53.746
592.00,53.637
593.00,53.747
594.00,53.662
595.00,53.727
596.00,53.788
597.00,53.766
598.00,53.825
599.00,53.754
600.00,53.649
601.00,53.564
602.00,53.806
603.00,54.083
604.00,53.847
605.00,53.822
606.00,53.798
607.00,53.804
608.00,53.800
609.00,53.598
610.00,53.732
611.00,53.551
612.00,53.549
613.00,53.721
614.00,53.687
615.00,53.701
616.00,53.734
617.00,53.702
618.00,53.728
619.00,53.722
620.00,53.619
621.00,53.643
622.00,53.713
623.00,53.650
624.00,53.689
625.00,53.677
626.00,53.688
627.00,53.682
628.00,53.585
629.00,53.651
630.00,53.570
631.00,53.513
632.00,53.652
633.00,53.650
634.00,53.577
635.00,53.611
636.00,53.687
637.00,53.609
638.00,53.599
639.00,53.729
640.00,53.650
641.00,53.573
642.00,53.538
643.00,53.588
644.00,53.592
645.00,53.456
646.00,53.580
647.00,53.524
648.00,53.462
649.00,53.614
650.00,53.554
651.00,53.484
652.00,53.533
653.00,53.475
654.00,53.298
655.00,53.523
656.00,53.488
657.00,53.529
658.00,53.345
659.00,53.316
660.00,53.463
661.00,53.366
662.00,53.481
663.00,53.470
664.00,53.507
665.00,53.440
666.00,53.483
667.00,53.370
668.00,53.200
669.00,53.344
670.00,53.475
671.00,53.401
672.00,53.264
673.00,53.340
674.00,53.227
675.00,53.239
676.00,53.329
677.00,53.340
678.00,53.308
679.00,53.307
680.00,53.379
681.00,53.260
682.00,53.198
683.00,53.227
684.00,53.337
685.00,53.314
686.00,53.188
687.00,53.166
688.00,53.008
689.00,52.966
690.00,53.042
691.00,53.101
692.00,53.035
693.00,53.066
694.00,52.985
695.00,52.860
696.00,52.771
697.00,52.833
698.00,52.973
699.00,52.969
700.00,53.052
701.00,52.952
702.00,52.952
703.00,52.926
704.00,52.890
705.00,52.841
706.00,52.807
707.00,52.905
708.00,52.598
709.00,52.683
710.00,52.920
711.00,52.636
712.00,52.550
713.00,52.749
714.00,52.541
715.00,52.563
716.00,52.514
717.00,52.406
718.00,52.490
719.00,52.416
720.00,52.536
721.00,57.116
722.00,57.004
723.00,56.937
724.00,56.924
725.00,56.877
726.00,56.857
727.00,56.705
728.00,56.686
729.00,56.611
730.00,56.563
731.00,56.433
732.00,56.409
733.00,56.349
734.00,56.268
735.00,56.340
736.00,56.215
737.00,56.181
738.00,56.149
739.00,56.031
740.00,55.954
741.00,55.998
742.00,56.006
743.00,55.851
744.00,55.742
745.00,55.806
746.00,55.684
747.00,55.622
748.00,55.532
749.00,55.497
750.00,55.391
751.00,55.340
752.00,55.250
753.00,55.178
754.00,55.146
755.00,55.129
756.00,55.068
757.00,55.030
758.00,54.964
759.00,54.962
760.00,54.908
761.00,54.778
762.00,54.723
763.00,54.698
764.00,54.682
765.00,54.655
766.00,54.601
767.00,54.617
768.00,54.516
769.00,54.437
770.00,54.481
771.00,54.392
772.00,54.304
773.00,54.286
774.00,54.283
775.00,54.235
776.00,54.136
777.00,54.172
778.00,53.981
779.00,54.122
780.00,54.051
781.00,54.007
782.00,53.959
783.00,53.948
784.00,53.934
785.00,53.772
786.00,53.776
787.00,53.752
788.00,53.747
789.00,53.683
790.00,53.622
791.00,53.646
792.00,53.474
793.00,53.511
794.00,53.412
795.00,53.299
796.00,53.320
797.00,53.229
798.00,53.243
799.00,53.132
800.00,53.135
801.00,53.131
802.00,53.017
803.00,52.987
804.00,53.037
805.00,52.930
806.00,52.833
807.00,52.885
808.00,52.785
809.00,52.740
810.00,52.755
811.00,52.753
812.00,52.671
813.00,52.655
814.00,52.574
815.00,52.629
816.00,52.579
817.00,52.500
818.00,52.279
819.00,52.424
820.00,52.323
821.00,52.261
822.00,52.355
823.00,52.388
824.00,52.291
825.00,52.258
826.00,52.176
827.00,52.177
828.00,52.138
829.00,52.147
830.00,52.151
831.00,54.411
832.00,54.382
833.00,54.336
834.00,54.310
835.00,54.231
836.00,54.230
837.00,54.160
838.00,54.165
839.00,54.105
840.00,54.075
841.00,54.094
842.00,54.006
843.00,54.012
844.00,53.979
845.00,53.931
846.00,53.900
847.00,53.873
848.00,53.821
849.00,53.782
850.00,53.731
851.00,53.636
852.00,53.672
853.00,53.597
854.00,53.586
855.00,53.524
856.00,53.548
857.00,53.399
858.00,53.400
859.00,53.343
860.00,53.508
861.00,53.367
862.00,53.303
863.00,53.318
864.00,53.246
865.00,53.279
866.00,53.245
867.00,53.242
868.00,53.219
869.00,53.184
870.00,53.133
871.00,53.126
872.00,53.110
873.00,53.100
874.00,53.077
875.00,53.021
876.00,53.023
877.00,53.005
878.00,52.973
879.00,52.956
880.00,52.931
881.00,52.927
882.00,52.919
883.00,52.916
884.00,52.846
885.00,52.837
886.00,52.815
887.00,52.784
888.00,52.707
889.00,52.671
890.00,52.753
891.00,52.670
892.00,52.652
893.00,52.604
894.00,52.595
895.00,52.562
896.00,52.551
897.00,52.509
898.00,52.483
899.00,52.482
900.00,52.455
901.00,52.421
902.00,52.435
903.00,52.389
904.00,52.378
905.00,52.340
906.00,52.329
907.00,52.281
908.00,52.275
909.00,52.250
910.00,52.211
911.00,52.174
912.00,52.210
913.00,52.161
914.00,52.137
915.00,52.115
916.00,52.088
917.00,52.060
918.00,52.040
919.00,51.992
920.00,51.974
921.00,51.954
922.00,51.928
923.00,51.905
924.00,51.907
925.00,51.850
926.00,51.851
927.00,51.803
928.00,51.818
929.00,51.791
930.00,51.755
931.00,51.753
932.00,51.742
933.00,51.712
934.00,51.675
935.00,51.666
936.00,51.617
937.00,51.618
938.00,51.599
939.00,51.586
940.00,51.687
941.00,51.566
942.00,51.509
943.00,51.520
944.00,51.467
945.00,51.475
946.00,51.449
947.00,51.422
948.00,51.401
949.00,51.387
950.00,51.367
951.00,51.342
952.00,51.308
953.00,51.265
954.00,51.225
955.00,51.189
956.00,51.179
957.00,51.151
958.00,51.149
959.00,51.097
960.00,51.115
961.00,51.178
962.00,51.095
963.00,51.041
964.00,51.051
965.00,51.043
966.00,51.022
967.00,51.002
968.00,51.000
969.00,50.993
970.00,50.981
971.00,51.004
972.00,50.951
973.00,51.010
974.00,51.007
975.00,50.943
976.00,51.001
977.00,50.956
978.00,50.998
979.00,50.946
980.00,50.974
981.00,50.951
982.00,50.937
983.00,50.934
984.00,50.925
985.00,50.956
986.00,50.916
987.00,50.945
988.00,50.904
989.00,50.912
990.00,50.892
991.00,50.866
992.00,50.871
993.00,50.839
994.00,50.848
995.00,50.822
996.00,50.814
997.00,50.770
998.00,50.790
999.00,50.761
1000.00,50.702
1001.00,50.741
1002.00,50.695
1003.00,50.708
1004.00,50.682
1005.00,50.669
1006.00,50.686
1007.00,50.655
1008.00,50.647
1009.00,50.629
1010.00,50.641
1011.00,50.626
1012.00,50.597
1013.00,50.585
1014.00,50.573
1015.00,50.587
1016.00,50.535
1017.00,50.539
1018.00,50.522
1019.00,50.521
1020.00,50.485
1021.00,50.474
1022.00,50.505
1023.00,50.408
1024.00,50.412
1025.00,50.387
1026.00,50.387
1027.00,50.349
1028.00,50.381
1029.00,50.361
1030.00,50.316
1031.00,50.325
1032.00,50.293
1033.00,50.307
1034.00,50.272
1035.00,50.212
1036.00,50.197
1037.00,50.214
1038.00,50.165
1039.00,50.139
1040.00,50.146
1041.00,50.087
1042.00,50.105
1043.00,50.069
1044.00,50.112
1045.00,50.084
1046.00,50.078
1047.00,50.103
1048.00,50.115
1049.00,50.113
1050.00,50.155
1051.00,50.169
1052.00,50.161
1053.00,50.164
1054.00,50.161
1055.00,50.189
1056.00,50.191
1057.00,50.179
1058.00,50.163
1059.00,50.172
1060.00,50.176
1061.00,50.170
1062.00,50.167
1063.00,50.167
1064.00,50.143
1065.00,50.122
1066.00,50.125
1067.00,50.119
1068.00,50.125
1069.00,50.115
1070.00,50.101
1071.00,50.072
1072.00,50.113
1073.00,50.097
1074.00,50.077
1075.00,50.070
1076.00,50.072
1077.00,50.046
1078.00,50.034
1079.00,50.020
1080.00,50.041
1081.00,50.016
1082.00,50.011
1083.00,49.996
1084.00,50.006
1085.00,49.982
1086.00,49.974
1087.00,49.981
1088.00,49.962
1089.00,49.948
1090.00,49.949
1091.00,49.949
1092.00,49.943
1093.00,49.918
1094.00,49.927
1095.00,49.920
1096.00,49.896
1097.00,49.890
1098.00,49.874
1099.00,49.873
1100.00,49.861
1101.00,49.838
1102.00,49.838
1103.00,49.842
1104.00,49.833
1105.00,49.826
1106.00,49.823
1107.00,49.794
1108.00,49.805
1109.00,49.802
1110.00,49.795
1111.00,49.785
1112.00,49.755
1113.00,49.763
1114.00,49.748
1115.00,49.731
1116.00,49.737
1117.00,49.723
1118.00,49.702
1119.00,49.698
1120.00,49.709
1121.00,49.699
1122.00,49.700
1123.00,49.694
1124.00,49.685
1125.00,49.681
1126.00,49.664
1127.00,49.679
1128.00,49.672
1129.00,49.649
1130.00,49.640
1131.00,49.643
1132.00,49.647
1133.00,49.641
1134.00,49.625
1135.00,49.625
1136.00,49.621
1137.00,49.614
1138.00,49.624
1139.00,49.631
1140.00,49.609
1141.00,49.612
1142.00,49.602
1143.00,49.636
1144.00,49.620
1145.00,49.582
1146.00,49.587
1147.00,49.588
1148.00,49.579
1149.00,49.593
1150.00,49.600
1151.00,49.594
1152.00,49.586
1153.00,49.586
1154.00,49.575
1155.00,49.578
1156.00,49.568
1157.00,49.568
1158.00,49.565
1159.00,49.580
1160.00,49.551
1161.00,49.585
1162.00,49.568
1163.00,49.562
1164.00,49.557
1165.00,49.566
1166.00,49.559
1167.00,49.537
1168.00,49.557
1169.00,49.563
1170.00,49.540
1171.00,49.544
1172.00,49.555
1173.00,49.534
1174.00,49.554
1175.00,49.533
1176.00,49.552
1177.00,49.525
1178.00,49.516
1179.00,49.541
1180.00,49.540
1181.00,49.546
1182.00,49.553
1183.00,49.562
1184.00,49.537
1185.00,49.555
1186.00,49.529
1187.00,49.544
1188.00,49.536
1189.00,49.534
1190.00,49.525
1191.00,49.526
1192.00,49.535
1193.00,49.537
1194.00,49.560
1195.00,49.525
1196.00,49.558
1197.00,49.550
1198.00,49.543
1199.00,49.545
1200.00,49.552
1201.00,49.553
1202.00,49.564
1203.00,49.547
1204.00,49.570
1205.00,49.607
1206.00,49.548
1207.00,49.558
1208.00,49.530
1209.00,49.562
1210.00,49.562
1211.00,49.540
1212.00,49.560
1213.00,49.528
1214.00,49.551
1215.00,49.547
1216.00,49.570
1217.00,49.582
1218.00,49.582
1219.00,49.571
1220.00,49.559
1221.00,49.575
1222.00,49.547
1223.00,49.592
1224.00,49.596
1225.00,49.571
1226.00,49.576
1227.00,49.586
1228.00,49.590
1229.00,49.588
1230.00,49.617
1231.00,49.619
1232.00,49.646
1233.00,49.623
1234.00,49.633
1235.00,49.631
1236.00,49.623
1237.00,49.627
1238.00,49.628
1239.00,49.607
1240.00,49.615
1241.00,49.626
1242.00,49.630
1243.00,49.654
1244.00,49.603
1245.00,49.647
1246.00,49.667
1247.00,49.658
1248.00,49.652
1249.00,49.689
1250.00,49.711
1251.00,49.694
1252.00,49.680
1253.00,49.672
1254.00,49.709
1255.00,49.689
1256.00,49.682
1257.00,49.683
1258.00,49.738
1259.00,49.726
1260.00,49.760
1261.00,49.751
1262.00,49.746
1263.00,49.736
1264.00,49.751
1265.00,49.753
1266.00,49.747
1267.00,49.775
1268.00,49.784
1269.00,49.764
1270.00,49.793
1271.00,49.795
1272.00,49.789
1273.00,49.803
1274.00,49.805
1275.00,49.823
1276.00,49.810
1277.00,49.806
1278.00,49.837
1279.00,49.847
1280.00,49.820
1281.00,49.840
1282.00,49.853
1283.00,49.845
1284.00,49.864
1285.00,49.840
1286.00,49.866
1287.00,49.863
1288.00,49.858
1289.00,49.872
1290.00,49.921
1291.00,49.908
1292.00,49.910
1293.00,49.918
1294.00,49.932
1295.00,49.948
1296.00,49.931
1297.00,49.940
1298.00,49.969
1299.00,49.931
1300.00,49.967
1301.00,49.988
1302.00,49.991
1303.00,49.981
1304.00,49.983
1305.00,50.019
1306.00,50.004
1307.00,50.008
1308.00,50.015
1309.00,50.032
1310.00,50.027
1311.00,50.029
1312.00,50.062
1313.00,50.063
1314.00,50.085
1315.00,50.110
1316.00,50.109
1317.00,50.126
1318.00,50.113
1319.00,50.133
1320.00,50.138
1321.00,50.280
1322.00,50.288
1323.00,50.282
1324.00,50.250
1325.00,50.278
1326.00,50.311
1327.00,50.262
1328.00,50.280
1329.00,50.269
1330.00,50.267
1331.00,50.269
1332.00,50.288
1333.00,50.297
1334.00,50.310
1335.00,50.329
1336.00,50.371
1337.00,50.426
1338.00,50.451
1339.00,50.508
1340.00,50.612
1341.00,50.635
1342.00,50.708
1343.00,50.749
1344.00,50.808
1345.00,50.857
1346.00,50.881
1347.00,50.917
1348.00,50.943
1349.00,50.949
1350.00,50.959
1351.00,51.014
1352.00,50.965
1353.00,51.036
1354.00,50.996
1355.00,51.069
1356.00,51.081
1357.00,51.020
1358.00,51.060
1359.00,51.086
1360.00,51.027
1361.00,51.060
1362.00,51.002
1363.00,51.120
1364.00,51.164
1365.00,51.117
1366.00,51.182
1367.00,51.076
1368.00,51.023
1369.00,51.129
1370.00,51.047
1371.00,51.359
1372.00,51.061
1373.00,51.089
1374.00,51.094
1375.00,51.065
1376.00,51.077
1377.00,51.059
1378.00,51.130
1379.00,51.099
1380.00,51.107
1381.00,51.117
1382.00,51.101
1383.00,51.108
1384.00,51.087
1385.00,51.018
1386.00,51.074
1387.00,51.047
1388.00,51.058
1389.00,50.996
1390.00,51.047
1391.00,51.045
1392.00,51.110
1393.00,51.121
1394.00,51.118
1395.00,51.048
1396.00,51.025
1397.00,50.992
1398.00,51.163
1399.00,51.070
1400.00,51.026
1401.00,51.017
1402.00,51.550
1403.00,51.110
1404.00,51.093
1405.00,51.143
1406.00,51.144
1407.00,51.129
1408.00,51.172
1409.00,51.150
1410.00,51.189
1411.00,51.161
1412.00,51.202
1413.00,51.172
1414.00,51.169
1415.00,51.172
1416.00,51.214
1417.00,51.266
1418.00,51.250
1419.00,51.251
1420.00,51.259
1421.00,51.299
1422.00,51.329
1423.00,51.309
1424.00,51.329
1425.00,51.369
1426.00,51.332
1427.00,51.368
1428.00,51.404
1429.00,51.420
1430.00,51.437
1431.00,51.462
1432.00,51.450
1433.00,51.480
1434.00,51.458
1435.00,51.527
1436.00,51.553
1437.00,51.521
1438.00,51.526
1439.00,51.563
1440.00,51.573
1441.00,51.597
1442.00,51.612
1443.00,51.638
1444.00,51.694
1445.00,51.646
1446.00,51.668
1447.00,51.744
1448.00,51.755
1449.00,51.751
1450.00,51.791
1451.00,51.783
1452.00,51.781
1453.00,51.770
1454.00,51.816
1455.00,51.859
1456.00,51.838
1457.00,51.867
1458.00,51.913
1459.00,51.903
1460.00,51.915
1461.00,51.931
1462.00,51.957
1463.00,51.964
1464.00,51.965
1465.00,52.006
1466.00,52.020
1467.00,52.015
1468.00,52.080
1469.00,52.076
1470.00,52.079
1471.00,52.104
1472.00,52.139
1473.00,52.123
1474.00,52.136
1475.00,52.178
1476.00,52.181
1477.00,52.204
1478.00,52.218
1479.00,52.236
1480.00,52.266
1481.00,52.240
1482.00,52.253
1483.00,52.282
1484.00,52.294
1485.00,52.315
1486.00,52.316
1487.00,52.359
1488.00,52.380
1489.00,52.368
1490.00,52.392
1491.00,52.434
1492.00,52.439
1493.00,52.417
1494.00,52.469
1495.00,52.460
1496.00,52.468
1497.00,52.460
1498.00,52.480
1499.00,52.513
1500.00,52.500
1501.00, 
1502.00, 
1503.00, 
1504.00, 
1505.00, 
1506.00, 
1507.00, 
1508.00, 
1509.00, 
1510.00, 
1511.00, 
1512.00, 
1513.00, 
1514.00, 
1515.00, 
1516.00, 
1517.00, 
1518.00, 
1519.00, 
1520.00, 
1521.00, 
1522.00, 
1523.00, 
1524.00, 
1525.00, 
1526.00, 
1527.00, 
1528.00, 
1529.00, 
1530.00, 
1531.00, 
1532.00, 
1533.00, 
1534.00, 
1535.00, 
1536.00, 
1537.00, 
1538.00, 
1539.00, 
1540.00, 
1541.00, 
1542.00, 
1543.00, 
1544.00, 
1545.00, 
1546.00, 
1547.00, 
1548.00, 
1549.00, 
1550.00, 
1551.00, 
1552.00, 
1553.00, 
1554.00, 
1555.00, 
1556.00, 
1557.00, 
1558.00, 
1559.00, 
1560.00, 
1561.00, 
1562.00, 
1563.00, 
1564.00, 
1565.00, 
1566.00, 
1567.00, 
1568.00, 
1569.00, 
1570.00, 
1571.00, 
1572.00, 
1573.00, 
1574.00, 
1575.00, 
1576.00, 
1577.00, 
1578.00, 
1579.00, 
1580.00, 
1581.00, 
1582.00, 
1583.00, 
1584.00, 
1585.00, 
1586.00, 
1587.00, 
1588.00, 
1589.00, 
1590.00, 
1591.00, 
1592.00, 
1593.00, 
1594.00, 
1595.00, 
1596.00, 
1597.00, 
1598.00, 
1599.00, 
1600.00, 
1601.00, 
1602.00, 
1603.00, 
1604.00, 
1605.00, 
1606.00, 
1607.00, 
1608.00, 
1609.00, 
1610.00, 
1611.00, 
1612.00, 
1613.00, 
1614.00, 
1615.00, 
1616.00, 
1617.00, 
1618.00, 
1619.00, 
1620.00, 
1621.00, 
1622.00, 
1623.00, 
1624.00, 
1625.00, 
1626.00, 
1627.00, 
1628.00, 
1629.00, 
1630.00, 
1631.00, 
1632.00, 
1633.00, 
1634.00, 
1635.00, 
1636.00, 
1637.00, 
1638.00, 
1639.00, 
1640.00, 
1641.00, 
1642.00, 
1643.00, 
1644.00, 
1645.00, 
1646.00, 
1647.00, 
1648.00, 
1649.00, 
1650.00, 
1651.00, 
1652.00, 
1653.00, 
1654.00, 
1655.00, 
1656.00, 
1657.00, 
1658.00, 
1659.00, 
1660.00, 
1661.00, 
1662.00, 
1663.00, 
1664.00, 
1665.00, 
1666.00, 
1667.00, 
1668.00, 
1669.00, 
1670.00, 
1671.00, 
1672.00, 
1673.00, 
1674.00, 
1675.00, 
1676.00, 
1677.00, 
1678.00, 
1679.00, 
1680.00, 
1681.00, 
1682.00, 
1683.00, 
1684.00, 
1685.00, 
1686.00, 
1687.00, 
1688.00, 
1689.00, 
1690.00, 
1691.00, 
1692.00, 
1693.00, 
1694.00, 
1695.00, 
1696.00, 
1697.00, 
1698.00, 
1699.00, 
1700.00, 
1701.00, 
1702.00, 
1703.00, 
1704.00, 
1705.00, 
1706.00, 
1707.00, 
1708.00, 
1709.00, 
1710.00, 
1711.00, 
1712.00, 
1713.00, 
1714.00, 
1715.00, 
1716.00, 
1717.00, 
1718.00, 
1719.00, 
1720.00, 
1721.00, 
1722.00, 
1723.00, 
1724.00, 
1725.00, 
1726.00, 
1727.00, 
1728.00, 
1729.00, 
1730.00, 
1731.00, 
1732.00, 
1733.00, 
1734.00, 
1735.00, 
1736.00, 
1737.00, 
1738.00, 
1739.00, 
1740.00, 
1741.00, 
1742.00, 
1743.00, 
1744.00, 
1745.00, 
1746.00, 
1747.00, 
1748.00, 
1749.00, 
1750.00, 
1751.00, 
1752.00, 
1753.00, 
1754.00, 
1755.00, 
1756.00, 
1757.00, 
1758.00, 
1759.00, 
1760.00, 
1761.00, 
1762.00, 
1763.00, 
1764.00, 
1765.00, 
1766.00, 
1767.00, 
1768.00, 
1769.00, 
1770.00, 
1771.00, 
1772.00, 
1773.00, 
1774.00, 
1775.00, 
1776.00, 
1777.00, 
1778.00, 
1779.00, 
1780.00, 
1781.00, 
1782.00, 
1783.00, 
1784.00, 
1785.00, 
1786.00, 
1787.00, 
1788.00, 
1789.00, 
1790.00, 
1791.00, 
1792.00, 
1793.00, 
1794.00, 
1795.00, 
1796.00, 
1797.00, 
1798.00, 
1799.00, 
1800.00, 
1801.00, 
1802.00, 
1803.00, 
1804.00, 
1805.00, 
1806.00, 
1807.00, 
1808.00, 
1809.00, 
1810.00, 
1811.00, 
1812.00, 
1813.00, 
1814.00, 
1815.00, 
1816.00, 
1817.00, 
1818.00, 
1819.00, 
1820.00, 
1821.00, 
1822.00, 
1823.00, 
1824.00, 
1825.00, 
1826.00, 
1827.00, 
1828.00, 
1829.00, 
1830.00, 
1831.00, 
1832.00, 
1833.00, 
1834.00, 
1835.00, 
1836.00, 
1837.00, 
1838.00, 
1839.00, 
1840.00, 
1841.00, 
1842.00, 
1843.00, 
1844.00, 
1845.00, 
1846.00, 
1847.00, 
1848.00, 
1849.00, 
1850.00, 
1851.00, 
1852.00, 
1853.00, 
1854.00, 
1855.00, 
1856.00, 
1857.00, 
1858.00, 
1859.00, 
1860.00, 
1861.00, 
1862.00, 
1863.00, 
1864.00, 
1865.00, 
1866.00, 
1867.00, 
1868.00, 
1869.00, 
1870.00, 
1871.00, 
1872.00, 
1873.00, 
1874.00, 
1875.00, 
1876.00, 
1877.00, 
1878.00, 
1879.00, 
1880.00, 
1881.00, 
1882.00, 
1883.00, 
1884.00, 
1885.00, 
1886.00, 
1887.00, 
1888.00, 
1889.00, 
1890.00, 
1891.00, 
1892.00, 
1893.00, 
1894.00, 
1895.00, 
1896.00, 
1897.00, 
1898.00, 
1899.00, 
1900.00, 
1901.00, 
1902.00, 
1903.00, 
1904.00, 
1905.00, 
1906.00, 
1907.00, 
1908.00, 
1909.00, 
1910.00, 
1911.00, 
1912.00, 
1913.00, 
1914.00, 
1915.00, 
1916.00, 
1917.00, 
1918.00, 
1919.00, 
1920.00, 
1921.00, 
1922.00, 
1923.00, 
1924.00, 
1925.00, 
1926.00, 
1927.00, 
1928.00, 
1929.00, 
1930.00, 
1931.00, 
1932.00, 
1933.00, 
1934.00, 
1935.00, 
1936.00, 
1937.00, 
1938.00, 
1939.00, 
1940.00, 
1941.00, 
1942.00, 
1943.00, 
1944.00, 
1945.00, 
1946.00, 
1947.00, 
1948.00, 
1949.00, 
1950.00, 
1951.00, 
1952.00, 
1953.00, 
1954.00, 
1955.00, 
1956.00, 
1957.00, 
1958.00, 
1959.00, 
1960.00, 
1961.00, 
1962.00, 
1963.00, 
1964.00, 
1965.00, 
1966.00, 
1967.00, 
1968.00, 
1969.00, 
1970.00, 
1971.00, 
1972.00, 
1973.00, 
1974.00, 
1975.00, 
1976.00, 
1977.00, 
1978.00, 
1979.00, 
1980.00, 
1981.00, 
1982.00, 
1983.00, 
1984.00, 
1985.00, 
1986.00, 
1987.00, 
1988.00, 
1989.00, 
1990.00, 
1991.00, 
1992.00, 
1993.00, 
1994.00, 
1995.00, 
1996.00, 
1997.00, 
1998.00, 
1999.00, 
2000.00, 
2001.00, 
2002.00, 
2003.00, 
2004.00, 
2005.00, 
2006.00, 
2007.00, 
2008.00, 
2009.00, 
2010.00, 
2011.00, 
2012.00, 
2013.00, 
2014.00, 
2015.00, 
2016.00, 
2017.00, 
2018.00, 
2019.00, 
2020.00, 
2021.00, 
2022.00, 
2023.00, 
2024.00, 
2025.00, 
2026.00, 
2027.00, 
2028.00, 
2029.00, 
2030.00, 
2031.00, 
2032.00, 
2033.00, 
2034.00, 
2035.00, 
2036.00, 
2037.00, 
2038.00, 
2039.00, 
2040.00, 
2041.00, 
2042.00, 
2043.00, 
2044.00, 
2045.00, 
2046.00, 
2047.00, 
2048.00, 
2049.00, 
2050.00, 
2051.00, 
2052.00, 
2053.00, 
2054.00, 
2055.00, 
2056.00, 
2057.00, 
2058.00, 
2059.00, 
2060.00, 
2061.00, 
2062.00, 
2063.00, 
2064.00, 
2065.00, 
2066.00, 
2067.00, 
2068.00, 
2069.00, 
2070.00, 
2071.00, 
2072.00, 
2073.00, 
2074.00, 
2075.00, 
2076.00, 
2077.00, 
2078.00, 
2079.00, 
2080.00, 
2081.00, 
2082.00, 
2083.00, 
2084.00, 
2085.00, 
2086.00, 
2087.00, 
2088.00, 
2089.00, 
2090.00, 
2091.00, 
2092.00, 
2093.00, 
2094.00, 
2095.00, 
2096.00, 
2097.00, 
2098.00, 
2099.00, 
2100.00, 
2101.00, 
2102.00, 
2103.00, 
2104.00, 
2105.00, 
2106.00, 
2107.00, 
2108.00, 
2109.00, 
2110.00, 
2111.00, 
2112.00, 
2113.00, 
2114.00, 
2115.00, 
2116.00, 
2117.00, 
2118.00, 
2119.00, 
2120.00, 
2121.00, 
2122.00, 
2123.00, 
2124.00, 
2125.00, 
2126.00, 
2127.00, 
2128.00, 
2129.00, 
2130.00, 
2131.00, 
2132.00, 
2133.00, 
2134.00, 
2135.00, 
2136.00, 
2137.00, 
2138.00, 
2139.00, 
2140.00, 
2141.00, 
2142.00, 
2143.00, 
2144.00, 
2145.00, 
2146.00, 
2147.00, 
2148.00, 
2149.00, 
2150.00, 
2151.00, 
2152.00, 
2153.00, 
2154.00, 
2155.00, 
2156.00, 
2157.00, 
2158.00, 
2159.00, 
2160.00, 
2161.00, 
2162.00, 
2163.00, 
2164.00, 
2165.00, 
2166.00, 
2167.00, 
2168.00, 
2169.00, 
2170.00, 
2171.00, 
2172.00, 
2173.00, 
2174.00, 
2175.00, 
2176.00, 
2177.00, 
2178.00, 
2179.00, 
2180.00, 
2181.00, 
2182.00, 
2183.00, 
2184.00, 
2185.00, 
2186.00, 
2187.00, 
2188.00, 
2189.00, 
2190.00, 
2191.00, 
2192.00, 
2193.00, 
2194.00, 
2195.00, 
2196.00, 
2197.00, 
2198.00, 
2199.00, 
2200.00, 
2201.00, 
2202.00, 
2203.00, 
2204.00, 
2205.00, 
2206.00, 
2207.00, 
2208.00, 
2209.00, 
2210.00, 
2211.00, 
2212.00, 
2213.00, 
2214.00, 
2215.00, 
2216.00, 
2217.00, 
2218.00, 
2219.00, 
2220.00, 
2221.00, 
2222.00, 
2223.00, 
2224.00, 
2225.00, 
2226.00, 
2227.00, 
2228.00, 
2229.00, 
2230.00, 
2231.00, 
2232.00, 
2233.00, 
2234.00, 
2235.00, 
2236.00, 
2237.00, 
2238.00, 
2239.00, 
2240.00, 
2241.00, 
2242.00, 
2243.00, 
2244.00, 
2245.00, 
2246.00, 
2247.00, 
2248.00, 
2249.00, 
2250.00, 
2251.00, 
2252.00, 
2253.00, 
2254.00, 
2255.00, 
2256.00, 
2257.00, 
2258.00, 
2259.00, 
2260.00, 
2261.00, 
2262.00, 
2263.00, 
2264.00, 
2265.00, 
2266.00, 
2267.00, 
2268.00, 
2269.00, 
2270.00, 
2271.00, 
2272.00, 
2273.00, 
2274.00, 
2275.00, 
2276.00, 
2277.00, 
2278.00, 
2279.00, 
2280.00, 
2281.00, 
2282.00, 
2283.00, 
2284.00, 
2285.00, 
2286.00, 
2287.00, 
2288.00, 
2289.00, 
2290.00, 
2291.00, 
2292.00, 
2293.00, 
2294.00, 
2295.00, 
2296.00, 
2297.00, 
2298.00, 
2299.00, 
2300.00, 
2301.00, 
2302.00, 
2303.00, 
2304.00, 
2305.00, 
2306.00, 
2307.00, 
2308.00, 
2309.00, 
2310.00, 
2311.00, 
2312.00, 
2313.00, 
2314.00, 
2315.00, 
2316.00, 
2317.00, 
2318.00, 
2319.00, 
2320.00, 
2321.00, 
2322.00, 
2323.00, 
2324.00, 
2325.00, 
2326.00, 
2327.00, 
2328.00, 
2329.00, 
2330.00, 
2331.00, 
2332.00, 
2333.00, 
2334.00, 
2335.00, 
2336.00, 
2337.00, 
2338.00, 
2339.00, 
2340.00, 
2341.00, 
2342.00, 
2343.00, 
2344.00, 
2345.00, 
2346.00, 
2347.00, 
2348.00, 
2349.00, 
2350.00, 
2351.00, 
2352.00, 
2353.00, 
2354.00, 
2355.00, 
2356.00, 
2357.00, 
2358.00, 
2359.00, 
2360.00, 
2361.00, 
2362.00, 
2363.00, 
2364.00, 
2365.00, 
2366.00, 
2367.00, 
2368.00, 
2369.00, 
2370.00, 
2371.00, 
2372.00, 
2373.00, 
2374.00, 
2375.00, 
2376.00, 
2377.00, 
2378.00, 
2379.00, 
2380.00, 
2381.00, 
2382.00, 
2383.00, 
2384.00, 
2385.00, 
2386.00, 
2387.00, 
2388.00, 
2389.00, 
2390.00, 
2391.00, 
2392.00, 
2393.00, 
2394.00, 
2395.00, 
2396.00, 
2397.00, 
2398.00, 
2399.00, 
2400.00, 
2401.00, 
2402.00, 
2403.00, 
2404.00, 
2405.00, 
2406.00, 
2407.00, 
2408.00, 
2409.00, 
2410.00, 
2411.00, 
2412.00, 
2413.00, 
2414.00, 
2415.00, 
2416.00, 
2417.00, 
2418.00, 
2419.00, 
2420.00, 
2421.00, 
2422.00, 
2423.00, 
2424.00, 
2425.00, 
2426.00, 
2427.00, 
2428.00, 
2429.00, 
2430.00, 
2431.00, 
2432.00, 
2433.00, 
2434.00, 
2435.00, 
2436.00, 
2437.00, 
2438.00, 
2439.00, 
2440.00, 
2441.00, 
2442.00, 
2443.00, 
2444.00, 
2445.00, 
2446.00, 
2447.00, 
2448.00, 
2449.00, 
2450.00, 
2451.00, 
2452.00, 
2453.00, 
2454.00, 
2455.00, 
2456.00, 
2457.00, 
2458.00, 
2459.00, 
2460.00, 
2461.00, 
2462.00, 
2463.00, 
2464.00, 
2465.00, 
2466.00, 
2467.00, 
2468.00, 
2469.00, 
2470.00, 
2471.00, 
2472.00, 
2473.00, 
2474.00, 
2475.00, 
2476.00, 
2477.00, 
2478.00, 
2479.00, 
2480.00, 
2481.00, 
2482.00, 
2483.00, 
2484.00, 
2485.00, 
2486.00, 
2487.00, 
2488.00, 
2489.00, 
2490.00, 
2491.00, 
2492.00, 
2493.00, 
2494.00, 
2495.00, 
2496.00, 
2497.00, 
2498.00, 
2499.00, 
2500.00, 
2501.00, 
2502.00, 
2503.00, 
2504.00, 
2505.00, 
2506.00, 
2507.00, 
2508.00, 
2509.00, 
2510.00, 
2511.00, 
2512.00, 
2513.00, 
2514.00, 
2515.00, 
2516.00, 
2517.00, 
2518.00, 
2519.00, 
2520.00, 
2521.00, 
2522.00, 
2523.00, 
2524.00, 
2525.00, 
2526.00, 
2527.00, 
2528.00, 
2529.00, 
2530.00, 
2531.00, 
2532.00, 
2533.00, 
2534.00, 
2535.00, 
2536.00, 
2537.00, 
2538.00, 
2539.00, 
2540.00, 
2541.00, 
2542.00, 
2543.00, 
2544.00, 
2545.00, 
2546.00, 
2547.00, 
2548.00, 
2549.00, 
2550.00, 
2551.00, 
2552.00, 
2553.00, 
2554.00, 
2555.00, 
2556.00, 
2557.00, 
2558.00, 
2559.00, 
2560.00, 
2561.00, 
2562.00, 
2563.00, 
2564.00, 
2565.00, 
2566.00, 
2567.00, 
2568.00, 
2569.00, 
2570.00, 
2571.00, 
2572.00, 
2573.00, 
2574.00, 
2575.00, 
2576.00, 
2577.00, 
2578.00, 
2579.00, 
2580.00, 
2581.00, 
2582.00, 
2583.00, 
2584.00, 
2585.00, 
2586.00, 
2587.00, 
2588.00, 
2589.00, 
2590.00, 
2591.00, 
2592.00, 
2593.00, 
2594.00, 
2595.00, 
2596.00, 
2597.00, 
2598.00, 
2599.00, 
2600.00, 
