"1cP4 - RawData"
"Wavelength nm.","T%"
200.00,0.003
201.00,0.000
202.00,-0.001
203.00,0.000
204.00,0.001
205.00,0.002
206.00,-0.002
207.00,-0.000
208.00,0.003
209.00,0.001
210.00,-0.000
211.00,0.002
212.00,0.000
213.00,0.000
214.00,0.003
215.00,0.001
216.00,0.001
217.00,-0.001
218.00,0.001
219.00,0.000
220.00,0.003
221.00,-0.000
222.00,0.001
223.00,0.001
224.00,0.001
225.00,0.003
226.00,-0.000
227.00,0.001
228.00,0.003
229.00,-0.001
230.00,-0.003
231.00,0.002
232.00,0.001
233.00,-0.000
234.00,-0.000
235.00,0.001
236.00,0.001
237.00,0.001
238.00,0.003
239.00,0.001
240.00,0.000
241.00,0.001
242.00,0.000
243.00,0.001
244.00,0.002
245.00,0.000
246.00,0.002
247.00,-0.001
248.00,-0.000
249.00,0.002
250.00,0.001
251.00,0.001
252.00,0.000
253.00,0.001
254.00,0.002
255.00,0.000
256.00,-0.000
257.00,0.001
258.00,0.002
259.00,0.002
260.00,0.000
261.00,-0.002
262.00,0.001
263.00,-0.000
264.00,0.001
265.00,0.000
266.00,0.002
267.00,-0.002
268.00,-0.001
269.00,-0.000
270.00,0.002
271.00,-0.000
272.00,0.000
273.00,-0.000
274.00,0.001
275.00,0.002
276.00,-0.000
277.00,-0.000
278.00,-0.002
279.00,-0.001
280.00,-0.000
281.00,0.000
282.00,-0.001
283.00,0.001
284.00,0.001
285.00,0.003
286.00,-0.001
287.00,0.000
288.00,0.001
289.00,-0.001
290.00,-0.001
291.00,0.001
292.00,-0.000
293.00,-0.001
294.00,0.001
295.00,-0.000
296.00,-0.001
297.00,-0.001
298.00,0.000
299.00,-0.000
300.00,0.001
301.00,-0.000
302.00,0.001
303.00,0.002
304.00,0.000
305.00,0.001
306.00,0.001
307.00,0.003
308.00,0.004
309.00,0.010
310.00,0.013
311.00,0.021
312.00,0.034
313.00,0.053
314.00,0.076
315.00,0.113
316.00,0.161
317.00,0.224
318.00,0.294
319.00,0.411
320.00,0.543
321.00,0.707
322.00,0.902
323.00,1.141
324.00,1.404
325.00,1.695
326.00,2.003
327.00,2.366
328.00,2.771
329.00,3.180
330.00,3.654
331.00,4.132
332.00,4.629
333.00,5.185
334.00,5.718
335.00,6.264
336.00,6.830
337.00,7.430
338.00,7.944
339.00,8.480
340.00,9.048
341.00,9.611
342.00,10.081
343.00,10.587
344.00,11.138
345.00,11.564
346.00,11.991
347.00,12.374
348.00,12.777
349.00,13.141
350.00,13.482
351.00,13.808
352.00,14.106
353.00,14.413
354.00,14.663
355.00,14.914
356.00,15.132
357.00,15.324
358.00,15.533
359.00,15.730
360.00,15.897
361.00,16.022
362.00,16.151
363.00,16.270
364.00,16.336
365.00,16.383
366.00,16.474
367.00,16.560
368.00,16.573
369.00,16.590
370.00,16.607
371.00,16.603
372.00,16.560
373.00,16.561
374.00,16.560
375.00,16.458
376.00,16.420
377.00,16.333
378.00,16.235
379.00,16.140
380.00,16.106
381.00,16.079
382.00,16.057
383.00,16.071
384.00,16.073
385.00,16.112
386.00,16.121
387.00,16.190
388.00,16.208
389.00,16.193
390.00,16.227
391.00,16.249
392.00,16.280
393.00,16.267
394.00,16.289
395.00,16.293
396.00,16.287
397.00,16.283
398.00,16.258
399.00,16.257
400.00,16.246
401.00,16.200
402.00,16.230
403.00,16.260
404.00,16.233
405.00,16.221
406.00,16.210
407.00,16.147
408.00,16.148
409.00,16.091
410.00,16.044
411.00,16.076
412.00,15.998
413.00,16.010
414.00,15.977
415.00,16.006
416.00,16.011
417.00,16.013
418.00,16.069
419.00,16.099
420.00,16.114
421.00,16.060
422.00,16.099
423.00,16.154
424.00,16.157
425.00,16.185
426.00,16.200
427.00,16.243
428.00,16.293
429.00,16.313
430.00,16.373
431.00,16.416
432.00,16.422
433.00,16.491
434.00,16.540
435.00,16.593
436.00,16.647
437.00,16.729
438.00,16.801
439.00,16.841
440.00,16.916
441.00,16.982
442.00,17.064
443.00,17.141
444.00,17.227
445.00,17.317
446.00,17.399
447.00,17.514
448.00,17.587
449.00,17.714
450.00,17.797
451.00,17.869
452.00,18.014
453.00,18.133
454.00,18.203
455.00,18.294
456.00,18.427
457.00,18.531
458.00,18.627
459.00,18.759
460.00,18.902
461.00,19.029
462.00,19.141
463.00,19.280
464.00,19.410
465.00,19.530
466.00,19.645
467.00,19.779
468.00,19.894
469.00,20.026
470.00,20.139
471.00,20.221
472.00,20.378
473.00,20.465
474.00,20.605
475.00,20.730
476.00,20.813
477.00,20.964
478.00,21.085
479.00,21.293
480.00,21.437
481.00,21.541
482.00,21.706
483.00,21.868
484.00,22.020
485.00,22.177
486.00,22.322
487.00,22.487
488.00,22.635
489.00,22.759
490.00,22.932
491.00,23.086
492.00,23.227
493.00,23.465
494.00,23.592
495.00,23.660
496.00,23.797
497.00,23.915
498.00,24.079
499.00,24.194
500.00,24.347
501.00,24.486
502.00,24.606
503.00,24.770
504.00,24.829
505.00,24.966
506.00,25.110
507.00,25.204
508.00,25.353
509.00,25.524
510.00,25.639
511.00,25.729
512.00,25.927
513.00,26.069
514.00,26.186
515.00,26.331
516.00,26.453
517.00,26.564
518.00,26.699
519.00,26.798
520.00,26.854
521.00,27.000
522.00,27.057
523.00,27.105
524.00,27.205
525.00,27.370
526.00,27.467
527.00,27.577
528.00,27.640
529.00,27.824
530.00,27.967
531.00,28.093
532.00,28.192
533.00,28.340
534.00,28.412
535.00,28.526
536.00,28.585
537.00,28.665
538.00,28.747
539.00,28.858
540.00,28.934
541.00,29.016
542.00,29.148
543.00,29.080
544.00,29.183
545.00,29.305
546.00,29.344
547.00,29.439
548.00,29.473
549.00,29.571
550.00,29.613
551.00,29.803
552.00,29.856
553.00,29.789
554.00,29.887
555.00,30.043
556.00,30.157
557.00,30.215
558.00,30.263
559.00,30.302
560.00,30.386
561.00,30.492
562.00,30.515
563.00,30.536
564.00,30.624
565.00,30.686
566.00,30.712
567.00,30.783
568.00,30.801
569.00,30.854
570.00,30.930
571.00,30.869
572.00,30.999
573.00,31.000
574.00,31.012
575.00,31.065
576.00,31.076
577.00,31.096
578.00,31.242
579.00,31.331
580.00,31.337
581.00,31.471
582.00,31.556
583.00,31.571
584.00,31.662
585.00,31.731
586.00,31.788
587.00,31.816
588.00,31.854
589.00,31.826
590.00,31.943
591.00,32.017
592.00,31.952
593.00,32.020
594.00,32.176
595.00,32.194
596.00,32.270
597.00,32.370
598.00,32.355
599.00,32.408
600.00,32.548
601.00,32.535
602.00,32.575
603.00,32.625
604.00,32.593
605.00,32.652
606.00,32.737
607.00,32.794
608.00,32.755
609.00,32.901
610.00,33.088
611.00,32.836
612.00,32.994
613.00,33.230
614.00,33.187
615.00,33.261
616.00,33.365
617.00,33.347
618.00,33.367
619.00,33.492
620.00,33.538
621.00,33.598
622.00,33.728
623.00,33.784
624.00,33.828
625.00,33.917
626.00,33.997
627.00,34.043
628.00,34.038
629.00,34.119
630.00,34.170
631.00,34.290
632.00,34.411
633.00,34.553
634.00,34.669
635.00,34.771
636.00,34.825
637.00,34.857
638.00,34.898
639.00,34.995
640.00,35.167
641.00,35.190
642.00,35.215
643.00,35.329
644.00,35.425
645.00,35.536
646.00,35.724
647.00,35.793
648.00,35.827
649.00,35.869
650.00,35.902
651.00,36.104
652.00,36.184
653.00,36.274
654.00,36.321
655.00,36.569
656.00,36.831
657.00,36.886
658.00,37.032
659.00,37.010
660.00,37.116
661.00,37.145
662.00,37.173
663.00,37.386
664.00,37.625
665.00,37.856
666.00,37.764
667.00,37.937
668.00,37.903
669.00,38.142
670.00,38.509
671.00,38.362
672.00,38.496
673.00,38.615
674.00,38.757
675.00,38.870
676.00,39.099
677.00,39.264
678.00,39.087
679.00,39.373
680.00,39.538
681.00,39.730
682.00,39.783
683.00,39.809
684.00,40.056
685.00,40.065
686.00,40.003
687.00,40.255
688.00,40.418
689.00,40.405
690.00,40.694
691.00,41.000
692.00,40.599
693.00,40.762
694.00,41.050
695.00,41.257
696.00,41.194
697.00,41.233
698.00,41.241
699.00,42.034
700.00,42.406
701.00,41.841
702.00,42.147
703.00,42.299
704.00,42.263
705.00,42.306
706.00,42.420
707.00,42.511
708.00,42.403
709.00,42.838
710.00,43.310
711.00,42.925
712.00,43.051
713.00,43.246
714.00,43.305
715.00,43.385
716.00,43.361
717.00,43.650
718.00,43.904
719.00,43.811
720.00,43.883
721.00,48.171
722.00,48.206
723.00,48.223
724.00,48.321
725.00,48.382
726.00,48.428
727.00,48.447
728.00,48.604
729.00,48.598
730.00,48.601
731.00,48.722
732.00,48.739
733.00,48.848
734.00,48.893
735.00,48.943
736.00,48.980
737.00,49.051
738.00,49.134
739.00,49.171
740.00,49.251
741.00,49.247
742.00,49.316
743.00,49.405
744.00,49.416
745.00,49.480
746.00,49.472
747.00,49.517
748.00,49.568
749.00,49.658
750.00,49.641
751.00,49.635
752.00,49.724
753.00,49.735
754.00,49.702
755.00,49.722
756.00,49.757
757.00,49.911
758.00,49.901
759.00,49.919
760.00,49.945
761.00,49.932
762.00,49.971
763.00,50.067
764.00,50.046
765.00,50.070
766.00,50.160
767.00,50.227
768.00,50.173
769.00,50.136
770.00,50.311
771.00,50.324
772.00,50.361
773.00,50.267
774.00,50.329
775.00,50.431
776.00,50.372
777.00,50.503
778.00,50.439
779.00,50.504
780.00,50.502
781.00,50.557
782.00,50.520
783.00,50.457
784.00,50.510
785.00,50.508
786.00,50.646
787.00,50.531
788.00,50.525
789.00,50.566
790.00,50.547
791.00,50.744
792.00,50.519
793.00,50.598
794.00,50.625
795.00,50.534
796.00,50.584
797.00,50.484
798.00,50.553
799.00,50.532
800.00,50.518
801.00,50.581
802.00,50.586
803.00,50.582
804.00,50.520
805.00,50.554
806.00,50.559
807.00,50.519
808.00,50.534
809.00,50.505
810.00,50.565
811.00,50.488
812.00,50.569
813.00,50.533
814.00,50.508
815.00,50.481
816.00,50.464
817.00,50.524
818.00,50.474
819.00,50.522
820.00,50.442
821.00,50.456
822.00,50.482
823.00,50.351
824.00,50.500
825.00,50.456
826.00,50.393
827.00,50.472
828.00,50.567
829.00,50.273
830.00,50.588
831.00,52.802
832.00,52.729
833.00,52.728
834.00,52.767
835.00,52.702
836.00,52.749
837.00,52.722
838.00,52.729
839.00,52.701
840.00,52.671
841.00,52.663
842.00,52.614
843.00,52.635
844.00,52.682
845.00,52.588
846.00,52.619
847.00,52.592
848.00,52.612
849.00,52.527
850.00,52.523
851.00,52.473
852.00,52.486
853.00,52.435
854.00,52.433
855.00,52.379
856.00,52.394
857.00,52.383
858.00,52.349
859.00,52.338
860.00,52.303
861.00,52.341
862.00,52.303
863.00,52.316
864.00,52.284
865.00,52.309
866.00,52.304
867.00,52.260
868.00,52.284
869.00,52.270
870.00,52.248
871.00,52.228
872.00,52.241
873.00,52.211
874.00,52.165
875.00,52.313
876.00,52.210
877.00,52.171
878.00,52.165
879.00,52.165
880.00,52.157
881.00,52.129
882.00,52.173
883.00,52.127
884.00,52.088
885.00,52.082
886.00,52.076
887.00,52.065
888.00,52.015
889.00,52.055
890.00,52.028
891.00,52.003
892.00,51.965
893.00,51.948
894.00,51.961
895.00,51.935
896.00,51.915
897.00,51.902
898.00,51.871
899.00,51.870
900.00,51.831
901.00,51.856
902.00,51.842
903.00,51.806
904.00,51.781
905.00,51.793
906.00,51.757
907.00,51.737
908.00,51.712
909.00,51.711
910.00,51.666
911.00,51.671
912.00,51.675
913.00,51.647
914.00,51.644
915.00,51.638
916.00,51.584
917.00,51.599
918.00,51.580
919.00,51.541
920.00,51.510
921.00,51.508
922.00,51.498
923.00,51.482
924.00,51.443
925.00,51.450
926.00,51.440
927.00,51.414
928.00,51.366
929.00,51.368
930.00,51.469
931.00,51.347
932.00,51.302
933.00,51.307
934.00,51.308
935.00,51.268
936.00,51.260
937.00,51.246
938.00,51.210
939.00,51.236
940.00,51.190
941.00,51.174
942.00,51.176
943.00,51.122
944.00,51.060
945.00,51.110
946.00,51.108
947.00,51.065
948.00,51.051
949.00,51.029
950.00,51.014
951.00,50.987
952.00,50.949
953.00,50.919
954.00,50.900
955.00,50.865
956.00,50.868
957.00,50.824
958.00,50.854
959.00,50.800
960.00,50.786
961.00,50.803
962.00,50.788
963.00,50.743
964.00,50.747
965.00,50.746
966.00,50.709
967.00,50.722
968.00,50.689
969.00,50.726
970.00,50.675
971.00,50.694
972.00,50.672
973.00,50.707
974.00,50.726
975.00,50.706
976.00,50.696
977.00,50.703
978.00,50.760
979.00,50.701
980.00,50.706
981.00,50.711
982.00,50.684
983.00,50.694
984.00,50.660
985.00,50.678
986.00,50.678
987.00,50.665
988.00,50.662
989.00,50.638
990.00,50.594
991.00,50.660
992.00,50.629
993.00,50.584
994.00,50.576
995.00,50.567
996.00,50.570
997.00,50.554
998.00,50.529
999.00,50.533
1000.00,50.495
1001.00,50.485
1002.00,50.489
1003.00,50.487
1004.00,50.441
1005.00,50.428
1006.00,50.484
1007.00,50.423
1008.00,50.433
1009.00,50.407
1010.00,50.405
1011.00,50.405
1012.00,50.364
1013.00,50.361
1014.00,50.328
1015.00,50.335
1016.00,50.300
1017.00,50.294
1018.00,50.272
1019.00,50.256
1020.00,50.238
1021.00,50.228
1022.00,50.237
1023.00,50.186
1024.00,50.198
1025.00,50.176
1026.00,50.156
1027.00,50.147
1028.00,50.136
1029.00,50.123
1030.00,50.098
1031.00,50.107
1032.00,50.072
1033.00,50.082
1034.00,50.042
1035.00,50.017
1036.00,49.990
1037.00,49.969
1038.00,49.969
1039.00,49.937
1040.00,49.932
1041.00,49.884
1042.00,49.893
1043.00,49.877
1044.00,49.940
1045.00,49.889
1046.00,49.864
1047.00,49.894
1048.00,49.908
1049.00,49.929
1050.00,49.924
1051.00,49.972
1052.00,49.986
1053.00,49.963
1054.00,49.964
1055.00,49.991
1056.00,49.994
1057.00,49.994
1058.00,49.983
1059.00,49.972
1060.00,49.991
1061.00,49.968
1062.00,49.958
1063.00,49.974
1064.00,49.970
1065.00,49.950
1066.00,49.982
1067.00,49.974
1068.00,49.950
1069.00,49.907
1070.00,49.885
1071.00,49.888
1072.00,49.895
1073.00,49.879
1074.00,49.891
1075.00,49.861
1076.00,49.876
1077.00,49.864
1078.00,49.833
1079.00,49.836
1080.00,49.853
1081.00,49.825
1082.00,49.834
1083.00,49.819
1084.00,49.810
1085.00,49.821
1086.00,49.787
1087.00,49.800
1088.00,49.793
1089.00,49.764
1090.00,49.764
1091.00,49.773
1092.00,49.733
1093.00,49.720
1094.00,49.723
1095.00,49.717
1096.00,49.704
1097.00,49.709
1098.00,49.700
1099.00,49.690
1100.00,49.674
1101.00,49.677
1102.00,49.659
1103.00,49.651
1104.00,49.657
1105.00,49.653
1106.00,49.631
1107.00,49.653
1108.00,49.638
1109.00,49.620
1110.00,49.636
1111.00,49.614
1112.00,49.621
1113.00,49.630
1114.00,49.566
1115.00,49.573
1116.00,49.561
1117.00,49.548
1118.00,49.557
1119.00,49.543
1120.00,49.540
1121.00,49.551
1122.00,49.526
1123.00,49.537
1124.00,49.530
1125.00,49.523
1126.00,49.504
1127.00,49.503
1128.00,49.481
1129.00,49.473
1130.00,49.443
1131.00,49.462
1132.00,49.469
1133.00,49.449
1134.00,49.459
1135.00,49.444
1136.00,49.439
1137.00,49.443
1138.00,49.432
1139.00,49.440
1140.00,49.441
1141.00,49.432
1142.00,49.413
1143.00,49.439
1144.00,49.404
1145.00,49.412
1146.00,49.417
1147.00,49.406
1148.00,49.408
1149.00,49.412
1150.00,49.398
1151.00,49.412
1152.00,49.394
1153.00,49.374
1154.00,49.377
1155.00,49.379
1156.00,49.373
1157.00,49.387
1158.00,49.376
1159.00,49.380
1160.00,49.362
1161.00,49.379
1162.00,49.376
1163.00,49.368
1164.00,49.383
1165.00,49.386
1166.00,49.388
1167.00,49.367
1168.00,49.387
1169.00,49.362
1170.00,49.359
1171.00,49.368
1172.00,49.357
1173.00,49.370
1174.00,49.390
1175.00,49.371
1176.00,49.388
1177.00,49.357
1178.00,49.369
1179.00,49.379
1180.00,49.349
1181.00,49.364
1182.00,49.343
1183.00,49.358
1184.00,49.345
1185.00,49.360
1186.00,49.353
1187.00,49.366
1188.00,49.344
1189.00,49.346
1190.00,49.342
1191.00,49.336
1192.00,49.362
1193.00,49.346
1194.00,49.353
1195.00,49.331
1196.00,49.363
1197.00,49.367
1198.00,49.362
1199.00,49.349
1200.00,49.362
1201.00,49.371
1202.00,49.349
1203.00,49.359
1204.00,49.357
1205.00,49.369
1206.00,49.356
1207.00,49.361
1208.00,49.347
1209.00,49.362
1210.00,49.352
1211.00,49.352
1212.00,49.371
1213.00,49.306
1214.00,49.357
1215.00,49.330
1216.00,49.339
1217.00,49.367
1218.00,49.353
1219.00,49.369
1220.00,49.348
1221.00,49.351
1222.00,49.347
1223.00,49.377
1224.00,49.361
1225.00,49.355
1226.00,49.354
1227.00,49.341
1228.00,49.373
1229.00,49.371
1230.00,49.417
1231.00,49.415
1232.00,49.428
1233.00,49.441
1234.00,49.438
1235.00,49.428
1236.00,49.448
1237.00,49.440
1238.00,49.432
1239.00,49.454
1240.00,49.427
1241.00,49.443
1242.00,49.451
1243.00,49.452
1244.00,49.437
1245.00,49.462
1246.00,49.448
1247.00,49.456
1248.00,49.444
1249.00,49.464
1250.00,49.492
1251.00,49.466
1252.00,49.481
1253.00,49.484
1254.00,49.498
1255.00,49.483
1256.00,49.487
1257.00,49.456
1258.00,49.520
1259.00,49.501
1260.00,49.520
1261.00,49.534
1262.00,49.523
1263.00,49.526
1264.00,49.542
1265.00,49.545
1266.00,49.541
1267.00,49.552
1268.00,49.542
1269.00,49.545
1270.00,49.575
1271.00,49.570
1272.00,49.585
1273.00,49.599
1274.00,49.595
1275.00,49.614
1276.00,49.603
1277.00,49.621
1278.00,49.626
1279.00,49.629
1280.00,49.627
1281.00,49.621
1282.00,49.633
1283.00,49.652
1284.00,49.652
1285.00,49.644
1286.00,49.673
1287.00,49.657
1288.00,49.656
1289.00,49.656
1290.00,49.681
1291.00,49.695
1292.00,49.705
1293.00,49.698
1294.00,49.727
1295.00,49.716
1296.00,49.712
1297.00,49.722
1298.00,49.738
1299.00,49.710
1300.00,49.740
1301.00,49.712
1302.00,49.751
1303.00,49.755
1304.00,49.743
1305.00,49.795
1306.00,49.779
1307.00,49.795
1308.00,49.804
1309.00,49.799
1310.00,49.808
1311.00,49.786
1312.00,49.796
1313.00,49.826
1314.00,49.838
1315.00,49.852
1316.00,49.855
1317.00,49.885
1318.00,49.884
1319.00,49.897
1320.00,49.884
1321.00,50.058
1322.00,50.052
1323.00,50.037
1324.00,50.037
1325.00,50.025
1326.00,50.043
1327.00,50.038
1328.00,50.036
1329.00,50.024
1330.00,50.049
1331.00,50.024
1332.00,50.042
1333.00,50.081
1334.00,50.075
1335.00,50.115
1336.00,50.136
1337.00,50.176
1338.00,50.233
1339.00,50.268
1340.00,50.328
1341.00,50.388
1342.00,50.441
1343.00,50.487
1344.00,50.544
1345.00,50.582
1346.00,50.618
1347.00,50.646
1348.00,50.670
1349.00,50.708
1350.00,50.711
1351.00,50.725
1352.00,50.734
1353.00,50.739
1354.00,50.737
1355.00,50.735
1356.00,50.758
1357.00,50.752
1358.00,50.814
1359.00,50.767
1360.00,50.828
1361.00,50.857
1362.00,50.747
1363.00,50.832
1364.00,50.796
1365.00,50.805
1366.00,50.899
1367.00,50.817
1368.00,50.775
1369.00,50.821
1370.00,50.784
1371.00,50.760
1372.00,50.774
1373.00,50.792
1374.00,50.814
1375.00,50.776
1376.00,50.787
1377.00,50.777
1378.00,50.891
1379.00,50.825
1380.00,50.837
1381.00,50.859
1382.00,50.834
1383.00,50.825
1384.00,50.782
1385.00,50.782
1386.00,50.823
1387.00,50.783
1388.00,50.774
1389.00,50.770
1390.00,50.778
1391.00,50.825
1392.00,50.768
1393.00,50.900
1394.00,50.840
1395.00,50.764
1396.00,50.761
1397.00,50.787
1398.00,50.806
1399.00,50.832
1400.00,50.673
1401.00,50.797
1402.00,50.843
1403.00,50.815
1404.00,50.853
1405.00,50.873
1406.00,50.889
1407.00,50.876
1408.00,50.885
1409.00,50.892
1410.00,50.944
1411.00,50.874
1412.00,50.970
1413.00,50.936
1414.00,50.913
1415.00,50.929
1416.00,50.957
1417.00,50.982
1418.00,50.980
1419.00,50.977
1420.00,50.990
1421.00,51.045
1422.00,51.038
1423.00,51.054
1424.00,51.065
1425.00,51.087
1426.00,51.087
1427.00,51.109
1428.00,51.117
1429.00,51.141
1430.00,51.129
1431.00,51.150
1432.00,51.187
1433.00,51.191
1434.00,51.194
1435.00,51.255
1436.00,51.257
1437.00,51.259
1438.00,51.274
1439.00,51.297
1440.00,51.325
1441.00,51.323
1442.00,51.360
1443.00,51.388
1444.00,51.423
1445.00,51.411
1446.00,51.432
1447.00,51.440
1448.00,51.478
1449.00,51.482
1450.00,51.495
1451.00,51.510
1452.00,51.544
1453.00,51.538
1454.00,51.588
1455.00,51.585
1456.00,51.608
1457.00,51.609
1458.00,51.618
1459.00,51.682
1460.00,51.693
1461.00,51.686
1462.00,51.747
1463.00,51.712
1464.00,51.718
1465.00,51.760
1466.00,51.759
1467.00,51.811
1468.00,51.871
1469.00,51.824
1470.00,51.859
1471.00,51.871
1472.00,51.881
1473.00,51.903
1474.00,51.910
1475.00,51.918
1476.00,51.954
1477.00,51.920
1478.00,51.962
1479.00,51.993
1480.00,51.962
1481.00,51.985
1482.00,52.029
1483.00,52.027
1484.00,52.058
1485.00,52.057
1486.00,52.078
1487.00,52.113
1488.00,52.104
1489.00,52.140
1490.00,52.132
1491.00,52.151
1492.00,52.207
1493.00,52.153
1494.00,52.196
1495.00,52.183
1496.00,52.215
1497.00,52.205
1498.00,52.238
1499.00,52.244
1500.00,52.260
1501.00, 
1502.00, 
1503.00, 
1504.00, 
1505.00, 
1506.00, 
1507.00, 
1508.00, 
1509.00, 
1510.00, 
1511.00, 
1512.00, 
1513.00, 
1514.00, 
1515.00, 
1516.00, 
1517.00, 
1518.00, 
1519.00, 
1520.00, 
1521.00, 
1522.00, 
1523.00, 
1524.00, 
1525.00, 
1526.00, 
1527.00, 
1528.00, 
1529.00, 
1530.00, 
1531.00, 
1532.00, 
1533.00, 
1534.00, 
1535.00, 
1536.00, 
1537.00, 
1538.00, 
1539.00, 
1540.00, 
1541.00, 
1542.00, 
1543.00, 
1544.00, 
1545.00, 
1546.00, 
1547.00, 
1548.00, 
1549.00, 
1550.00, 
1551.00, 
1552.00, 
1553.00, 
1554.00, 
1555.00, 
1556.00, 
1557.00, 
1558.00, 
1559.00, 
1560.00, 
1561.00, 
1562.00, 
1563.00, 
1564.00, 
1565.00, 
1566.00, 
1567.00, 
1568.00, 
1569.00, 
1570.00, 
1571.00, 
1572.00, 
1573.00, 
1574.00, 
1575.00, 
1576.00, 
1577.00, 
1578.00, 
1579.00, 
1580.00, 
1581.00, 
1582.00, 
1583.00, 
1584.00, 
1585.00, 
1586.00, 
1587.00, 
1588.00, 
1589.00, 
1590.00, 
1591.00, 
1592.00, 
1593.00, 
1594.00, 
1595.00, 
1596.00, 
1597.00, 
1598.00, 
1599.00, 
1600.00, 
1601.00, 
1602.00, 
1603.00, 
1604.00, 
1605.00, 
1606.00, 
1607.00, 
1608.00, 
1609.00, 
1610.00, 
1611.00, 
1612.00, 
1613.00, 
1614.00, 
1615.00, 
1616.00, 
1617.00, 
1618.00, 
1619.00, 
1620.00, 
1621.00, 
1622.00, 
1623.00, 
1624.00, 
1625.00, 
1626.00, 
1627.00, 
1628.00, 
1629.00, 
1630.00, 
1631.00, 
1632.00, 
1633.00, 
1634.00, 
1635.00, 
1636.00, 
1637.00, 
1638.00, 
1639.00, 
1640.00, 
1641.00, 
1642.00, 
1643.00, 
1644.00, 
1645.00, 
1646.00, 
1647.00, 
1648.00, 
1649.00, 
1650.00, 
1651.00, 
1652.00, 
1653.00, 
1654.00, 
1655.00, 
1656.00, 
1657.00, 
1658.00, 
1659.00, 
1660.00, 
1661.00, 
1662.00, 
1663.00, 
1664.00, 
1665.00, 
1666.00, 
1667.00, 
1668.00, 
1669.00, 
1670.00, 
1671.00, 
1672.00, 
1673.00, 
1674.00, 
1675.00, 
1676.00, 
1677.00, 
1678.00, 
1679.00, 
1680.00, 
1681.00, 
1682.00, 
1683.00, 
1684.00, 
1685.00, 
1686.00, 
1687.00, 
1688.00, 
1689.00, 
1690.00, 
1691.00, 
1692.00, 
1693.00, 
1694.00, 
1695.00, 
1696.00, 
1697.00, 
1698.00, 
1699.00, 
1700.00, 
1701.00, 
1702.00, 
1703.00, 
1704.00, 
1705.00, 
1706.00, 
1707.00, 
1708.00, 
1709.00, 
1710.00, 
1711.00, 
1712.00, 
1713.00, 
1714.00, 
1715.00, 
1716.00, 
1717.00, 
1718.00, 
1719.00, 
1720.00, 
1721.00, 
1722.00, 
1723.00, 
1724.00, 
1725.00, 
1726.00, 
1727.00, 
1728.00, 
1729.00, 
1730.00, 
1731.00, 
1732.00, 
1733.00, 
1734.00, 
1735.00, 
1736.00, 
1737.00, 
1738.00, 
1739.00, 
1740.00, 
1741.00, 
1742.00, 
1743.00, 
1744.00, 
1745.00, 
1746.00, 
1747.00, 
1748.00, 
1749.00, 
1750.00, 
1751.00, 
1752.00, 
1753.00, 
1754.00, 
1755.00, 
1756.00, 
1757.00, 
1758.00, 
1759.00, 
1760.00, 
1761.00, 
1762.00, 
1763.00, 
1764.00, 
1765.00, 
1766.00, 
1767.00, 
1768.00, 
1769.00, 
1770.00, 
1771.00, 
1772.00, 
1773.00, 
1774.00, 
1775.00, 
1776.00, 
1777.00, 
1778.00, 
1779.00, 
1780.00, 
1781.00, 
1782.00, 
1783.00, 
1784.00, 
1785.00, 
1786.00, 
1787.00, 
1788.00, 
1789.00, 
1790.00, 
1791.00, 
1792.00, 
1793.00, 
1794.00, 
1795.00, 
1796.00, 
1797.00, 
1798.00, 
1799.00, 
1800.00, 
1801.00, 
1802.00, 
1803.00, 
1804.00, 
1805.00, 
1806.00, 
1807.00, 
1808.00, 
1809.00, 
1810.00, 
1811.00, 
1812.00, 
1813.00, 
1814.00, 
1815.00, 
1816.00, 
1817.00, 
1818.00, 
1819.00, 
1820.00, 
1821.00, 
1822.00, 
1823.00, 
1824.00, 
1825.00, 
1826.00, 
1827.00, 
1828.00, 
1829.00, 
1830.00, 
1831.00, 
1832.00, 
1833.00, 
1834.00, 
1835.00, 
1836.00, 
1837.00, 
1838.00, 
1839.00, 
1840.00, 
1841.00, 
1842.00, 
1843.00, 
1844.00, 
1845.00, 
1846.00, 
1847.00, 
1848.00, 
1849.00, 
1850.00, 
1851.00, 
1852.00, 
1853.00, 
1854.00, 
1855.00, 
1856.00, 
1857.00, 
1858.00, 
1859.00, 
1860.00, 
1861.00, 
1862.00, 
1863.00, 
1864.00, 
1865.00, 
1866.00, 
1867.00, 
1868.00, 
1869.00, 
1870.00, 
1871.00, 
1872.00, 
1873.00, 
1874.00, 
1875.00, 
1876.00, 
1877.00, 
1878.00, 
1879.00, 
1880.00, 
1881.00, 
1882.00, 
1883.00, 
1884.00, 
1885.00, 
1886.00, 
1887.00, 
1888.00, 
1889.00, 
1890.00, 
1891.00, 
1892.00, 
1893.00, 
1894.00, 
1895.00, 
1896.00, 
1897.00, 
1898.00, 
1899.00, 
1900.00, 
1901.00, 
1902.00, 
1903.00, 
1904.00, 
1905.00, 
1906.00, 
1907.00, 
1908.00, 
1909.00, 
1910.00, 
1911.00, 
1912.00, 
1913.00, 
1914.00, 
1915.00, 
1916.00, 
1917.00, 
1918.00, 
1919.00, 
1920.00, 
1921.00, 
1922.00, 
1923.00, 
1924.00, 
1925.00, 
1926.00, 
1927.00, 
1928.00, 
1929.00, 
1930.00, 
1931.00, 
1932.00, 
1933.00, 
1934.00, 
1935.00, 
1936.00, 
1937.00, 
1938.00, 
1939.00, 
1940.00, 
1941.00, 
1942.00, 
1943.00, 
1944.00, 
1945.00, 
1946.00, 
1947.00, 
1948.00, 
1949.00, 
1950.00, 
1951.00, 
1952.00, 
1953.00, 
1954.00, 
1955.00, 
1956.00, 
1957.00, 
1958.00, 
1959.00, 
1960.00, 
1961.00, 
1962.00, 
1963.00, 
1964.00, 
1965.00, 
1966.00, 
1967.00, 
1968.00, 
1969.00, 
1970.00, 
1971.00, 
1972.00, 
1973.00, 
1974.00, 
1975.00, 
1976.00, 
1977.00, 
1978.00, 
1979.00, 
1980.00, 
1981.00, 
1982.00, 
1983.00, 
1984.00, 
1985.00, 
1986.00, 
1987.00, 
1988.00, 
1989.00, 
1990.00, 
1991.00, 
1992.00, 
1993.00, 
1994.00, 
1995.00, 
1996.00, 
1997.00, 
1998.00, 
1999.00, 
2000.00, 
2001.00, 
2002.00, 
2003.00, 
2004.00, 
2005.00, 
2006.00, 
2007.00, 
2008.00, 
2009.00, 
2010.00, 
2011.00, 
2012.00, 
2013.00, 
2014.00, 
2015.00, 
2016.00, 
2017.00, 
2018.00, 
2019.00, 
2020.00, 
2021.00, 
2022.00, 
2023.00, 
2024.00, 
2025.00, 
2026.00, 
2027.00, 
2028.00, 
2029.00, 
2030.00, 
2031.00, 
2032.00, 
2033.00, 
2034.00, 
2035.00, 
2036.00, 
2037.00, 
2038.00, 
2039.00, 
2040.00, 
2041.00, 
2042.00, 
2043.00, 
2044.00, 
2045.00, 
2046.00, 
2047.00, 
2048.00, 
2049.00, 
2050.00, 
2051.00, 
2052.00, 
2053.00, 
2054.00, 
2055.00, 
2056.00, 
2057.00, 
2058.00, 
2059.00, 
2060.00, 
2061.00, 
2062.00, 
2063.00, 
2064.00, 
2065.00, 
2066.00, 
2067.00, 
2068.00, 
2069.00, 
2070.00, 
2071.00, 
2072.00, 
2073.00, 
2074.00, 
2075.00, 
2076.00, 
2077.00, 
2078.00, 
2079.00, 
2080.00, 
2081.00, 
2082.00, 
2083.00, 
2084.00, 
2085.00, 
2086.00, 
2087.00, 
2088.00, 
2089.00, 
2090.00, 
2091.00, 
2092.00, 
2093.00, 
2094.00, 
2095.00, 
2096.00, 
2097.00, 
2098.00, 
2099.00, 
2100.00, 
2101.00, 
2102.00, 
2103.00, 
2104.00, 
2105.00, 
2106.00, 
2107.00, 
2108.00, 
2109.00, 
2110.00, 
2111.00, 
2112.00, 
2113.00, 
2114.00, 
2115.00, 
2116.00, 
2117.00, 
2118.00, 
2119.00, 
2120.00, 
2121.00, 
2122.00, 
2123.00, 
2124.00, 
2125.00, 
2126.00, 
2127.00, 
2128.00, 
2129.00, 
2130.00, 
2131.00, 
2132.00, 
2133.00, 
2134.00, 
2135.00, 
2136.00, 
2137.00, 
2138.00, 
2139.00, 
2140.00, 
2141.00, 
2142.00, 
2143.00, 
2144.00, 
2145.00, 
2146.00, 
2147.00, 
2148.00, 
2149.00, 
2150.00, 
2151.00, 
2152.00, 
2153.00, 
2154.00, 
2155.00, 
2156.00, 
2157.00, 
2158.00, 
2159.00, 
2160.00, 
2161.00, 
2162.00, 
2163.00, 
2164.00, 
2165.00, 
2166.00, 
2167.00, 
2168.00, 
2169.00, 
2170.00, 
2171.00, 
2172.00, 
2173.00, 
2174.00, 
2175.00, 
2176.00, 
2177.00, 
2178.00, 
2179.00, 
2180.00, 
2181.00, 
2182.00, 
2183.00, 
2184.00, 
2185.00, 
2186.00, 
2187.00, 
2188.00, 
2189.00, 
2190.00, 
2191.00, 
2192.00, 
2193.00, 
2194.00, 
2195.00, 
2196.00, 
2197.00, 
2198.00, 
2199.00, 
2200.00, 
2201.00, 
2202.00, 
2203.00, 
2204.00, 
2205.00, 
2206.00, 
2207.00, 
2208.00, 
2209.00, 
2210.00, 
2211.00, 
2212.00, 
2213.00, 
2214.00, 
2215.00, 
2216.00, 
2217.00, 
2218.00, 
2219.00, 
2220.00, 
2221.00, 
2222.00, 
2223.00, 
2224.00, 
2225.00, 
2226.00, 
2227.00, 
2228.00, 
2229.00, 
2230.00, 
2231.00, 
2232.00, 
2233.00, 
2234.00, 
2235.00, 
2236.00, 
2237.00, 
2238.00, 
2239.00, 
2240.00, 
2241.00, 
2242.00, 
2243.00, 
2244.00, 
2245.00, 
2246.00, 
2247.00, 
2248.00, 
2249.00, 
2250.00, 
2251.00, 
2252.00, 
2253.00, 
2254.00, 
2255.00, 
2256.00, 
2257.00, 
2258.00, 
2259.00, 
2260.00, 
2261.00, 
2262.00, 
2263.00, 
2264.00, 
2265.00, 
2266.00, 
2267.00, 
2268.00, 
2269.00, 
2270.00, 
2271.00, 
2272.00, 
2273.00, 
2274.00, 
2275.00, 
2276.00, 
2277.00, 
2278.00, 
2279.00, 
2280.00, 
2281.00, 
2282.00, 
2283.00, 
2284.00, 
2285.00, 
2286.00, 
2287.00, 
2288.00, 
2289.00, 
2290.00, 
2291.00, 
2292.00, 
2293.00, 
2294.00, 
2295.00, 
2296.00, 
2297.00, 
2298.00, 
2299.00, 
2300.00, 
2301.00, 
2302.00, 
2303.00, 
2304.00, 
2305.00, 
2306.00, 
2307.00, 
2308.00, 
2309.00, 
2310.00, 
2311.00, 
2312.00, 
2313.00, 
2314.00, 
2315.00, 
2316.00, 
2317.00, 
2318.00, 
2319.00, 
2320.00, 
2321.00, 
2322.00, 
2323.00, 
2324.00, 
2325.00, 
2326.00, 
2327.00, 
2328.00, 
2329.00, 
2330.00, 
2331.00, 
2332.00, 
2333.00, 
2334.00, 
2335.00, 
2336.00, 
2337.00, 
2338.00, 
2339.00, 
2340.00, 
2341.00, 
2342.00, 
2343.00, 
2344.00, 
2345.00, 
2346.00, 
2347.00, 
2348.00, 
2349.00, 
2350.00, 
2351.00, 
2352.00, 
2353.00, 
2354.00, 
2355.00, 
2356.00, 
2357.00, 
2358.00, 
2359.00, 
2360.00, 
2361.00, 
2362.00, 
2363.00, 
2364.00, 
2365.00, 
2366.00, 
2367.00, 
2368.00, 
2369.00, 
2370.00, 
2371.00, 
2372.00, 
2373.00, 
2374.00, 
2375.00, 
2376.00, 
2377.00, 
2378.00, 
2379.00, 
2380.00, 
2381.00, 
2382.00, 
2383.00, 
2384.00, 
2385.00, 
2386.00, 
2387.00, 
2388.00, 
2389.00, 
2390.00, 
2391.00, 
2392.00, 
2393.00, 
2394.00, 
2395.00, 
2396.00, 
2397.00, 
2398.00, 
2399.00, 
2400.00, 
2401.00, 
2402.00, 
2403.00, 
2404.00, 
2405.00, 
2406.00, 
2407.00, 
2408.00, 
2409.00, 
2410.00, 
2411.00, 
2412.00, 
2413.00, 
2414.00, 
2415.00, 
2416.00, 
2417.00, 
2418.00, 
2419.00, 
2420.00, 
2421.00, 
2422.00, 
2423.00, 
2424.00, 
2425.00, 
2426.00, 
2427.00, 
2428.00, 
2429.00, 
2430.00, 
2431.00, 
2432.00, 
2433.00, 
2434.00, 
2435.00, 
2436.00, 
2437.00, 
2438.00, 
2439.00, 
2440.00, 
2441.00, 
2442.00, 
2443.00, 
2444.00, 
2445.00, 
2446.00, 
2447.00, 
2448.00, 
2449.00, 
2450.00, 
2451.00, 
2452.00, 
2453.00, 
2454.00, 
2455.00, 
2456.00, 
2457.00, 
2458.00, 
2459.00, 
2460.00, 
2461.00, 
2462.00, 
2463.00, 
2464.00, 
2465.00, 
2466.00, 
2467.00, 
2468.00, 
2469.00, 
2470.00, 
2471.00, 
2472.00, 
2473.00, 
2474.00, 
2475.00, 
2476.00, 
2477.00, 
2478.00, 
2479.00, 
2480.00, 
2481.00, 
2482.00, 
2483.00, 
2484.00, 
2485.00, 
2486.00, 
2487.00, 
2488.00, 
2489.00, 
2490.00, 
2491.00, 
2492.00, 
2493.00, 
2494.00, 
2495.00, 
2496.00, 
2497.00, 
2498.00, 
2499.00, 
2500.00, 
2501.00, 
2502.00, 
2503.00, 
2504.00, 
2505.00, 
2506.00, 
2507.00, 
2508.00, 
2509.00, 
2510.00, 
2511.00, 
2512.00, 
2513.00, 
2514.00, 
2515.00, 
2516.00, 
2517.00, 
2518.00, 
2519.00, 
2520.00, 
2521.00, 
2522.00, 
2523.00, 
2524.00, 
2525.00, 
2526.00, 
2527.00, 
2528.00, 
2529.00, 
2530.00, 
2531.00, 
2532.00, 
2533.00, 
2534.00, 
2535.00, 
2536.00, 
2537.00, 
2538.00, 
2539.00, 
2540.00, 
2541.00, 
2542.00, 
2543.00, 
2544.00, 
2545.00, 
2546.00, 
2547.00, 
2548.00, 
2549.00, 
2550.00, 
2551.00, 
2552.00, 
2553.00, 
2554.00, 
2555.00, 
2556.00, 
2557.00, 
2558.00, 
2559.00, 
2560.00, 
2561.00, 
2562.00, 
2563.00, 
2564.00, 
2565.00, 
2566.00, 
2567.00, 
2568.00, 
2569.00, 
2570.00, 
2571.00, 
2572.00, 
2573.00, 
2574.00, 
2575.00, 
2576.00, 
2577.00, 
2578.00, 
2579.00, 
2580.00, 
2581.00, 
2582.00, 
2583.00, 
2584.00, 
2585.00, 
2586.00, 
2587.00, 
2588.00, 
2589.00, 
2590.00, 
2591.00, 
2592.00, 
2593.00, 
2594.00, 
2595.00, 
2596.00, 
2597.00, 
2598.00, 
2599.00, 
2600.00, 
