"2cP1 - RawData"
"Wavelength nm.","T%"
200.00,0.001
201.00,0.003
202.00,0.000
203.00,0.002
204.00,-0.001
205.00,0.004
206.00,-0.000
207.00,0.001
208.00,0.006
209.00,-0.000
210.00,0.001
211.00,0.002
212.00,-0.001
213.00,0.001
214.00,-0.001
215.00,-0.000
216.00,0.004
217.00,0.002
218.00,0.000
219.00,-0.001
220.00,-0.002
221.00,-0.001
222.00,0.001
223.00,0.003
224.00,0.001
225.00,0.000
226.00,0.001
227.00,0.002
228.00,0.001
229.00,-0.000
230.00,0.001
231.00,0.001
232.00,-0.001
233.00,0.001
234.00,-0.001
235.00,0.002
236.00,0.000
237.00,0.001
238.00,0.001
239.00,-0.002
240.00,0.001
241.00,0.001
242.00,-0.000
243.00,0.001
244.00,-0.000
245.00,0.000
246.00,0.000
247.00,-0.001
248.00,0.000
249.00,-0.002
250.00,0.000
251.00,0.001
252.00,-0.001
253.00,0.001
254.00,-0.000
255.00,-0.002
256.00,0.001
257.00,0.001
258.00,0.001
259.00,-0.000
260.00,-0.001
261.00,0.001
262.00,0.000
263.00,0.000
264.00,0.000
265.00,0.001
266.00,0.001
267.00,-0.002
268.00,0.001
269.00,0.001
270.00,-0.002
271.00,0.000
272.00,0.001
273.00,-0.000
274.00,-0.001
275.00,-0.000
276.00,-0.000
277.00,0.000
278.00,0.001
279.00,0.000
280.00,-0.001
281.00,-0.001
282.00,0.002
283.00,-0.000
284.00,0.000
285.00,-0.001
286.00,0.001
287.00,0.002
288.00,-0.000
289.00,-0.001
290.00,0.000
291.00,-0.000
292.00,0.001
293.00,0.001
294.00,-0.000
295.00,0.001
296.00,0.001
297.00,0.001
298.00,0.001
299.00,0.001
300.00,0.002
301.00,0.002
302.00,0.003
303.00,0.006
304.00,0.009
305.00,0.012
306.00,0.022
307.00,0.034
308.00,0.047
309.00,0.074
310.00,0.098
311.00,0.138
312.00,0.191
313.00,0.260
314.00,0.335
315.00,0.436
316.00,0.555
317.00,0.702
318.00,0.869
319.00,1.077
320.00,1.297
321.00,1.552
322.00,1.833
323.00,2.160
324.00,2.496
325.00,2.852
326.00,3.218
327.00,3.637
328.00,4.057
329.00,4.483
330.00,4.935
331.00,5.389
332.00,5.876
333.00,6.346
334.00,6.803
335.00,7.297
336.00,7.790
337.00,8.286
338.00,8.690
339.00,9.143
340.00,9.581
341.00,10.008
342.00,10.424
343.00,10.820
344.00,11.194
345.00,11.501
346.00,11.852
347.00,12.172
348.00,12.452
349.00,12.723
350.00,13.010
351.00,13.228
352.00,13.444
353.00,13.694
354.00,13.865
355.00,14.024
356.00,14.244
357.00,14.352
358.00,14.484
359.00,14.626
360.00,14.735
361.00,14.884
362.00,14.956
363.00,15.068
364.00,15.144
365.00,15.203
366.00,15.264
367.00,15.294
368.00,15.313
369.00,15.337
370.00,15.372
371.00,15.349
372.00,15.341
373.00,15.314
374.00,15.299
375.00,15.295
376.00,15.257
377.00,15.192
378.00,15.130
379.00,15.095
380.00,15.054
381.00,15.021
382.00,15.012
383.00,14.990
384.00,14.984
385.00,14.977
386.00,14.987
387.00,15.003
388.00,14.999
389.00,14.977
390.00,15.017
391.00,15.007
392.00,15.003
393.00,15.008
394.00,15.000
395.00,15.001
396.00,14.986
397.00,14.978
398.00,14.973
399.00,14.981
400.00,14.967
401.00,14.951
402.00,14.924
403.00,14.912
404.00,14.951
405.00,14.934
406.00,14.912
407.00,14.895
408.00,14.879
409.00,14.850
410.00,14.803
411.00,14.817
412.00,14.792
413.00,14.770
414.00,14.787
415.00,14.767
416.00,14.790
417.00,14.827
418.00,14.866
419.00,14.827
420.00,14.822
421.00,14.880
422.00,14.894
423.00,14.936
424.00,14.936
425.00,14.945
426.00,14.993
427.00,15.018
428.00,15.058
429.00,15.075
430.00,15.122
431.00,15.153
432.00,15.197
433.00,15.254
434.00,15.301
435.00,15.345
436.00,15.405
437.00,15.465
438.00,15.541
439.00,15.599
440.00,15.656
441.00,15.722
442.00,15.797
443.00,15.883
444.00,15.908
445.00,16.025
446.00,16.100
447.00,16.220
448.00,16.293
449.00,16.402
450.00,16.490
451.00,16.560
452.00,16.716
453.00,16.805
454.00,16.883
455.00,16.982
456.00,17.082
457.00,17.216
458.00,17.316
459.00,17.429
460.00,17.533
461.00,17.637
462.00,17.764
463.00,17.883
464.00,17.990
465.00,18.119
466.00,18.229
467.00,18.368
468.00,18.464
469.00,18.588
470.00,18.715
471.00,18.823
472.00,18.951
473.00,19.029
474.00,19.148
475.00,19.242
476.00,19.406
477.00,19.547
478.00,19.679
479.00,19.816
480.00,19.973
481.00,20.114
482.00,20.250
483.00,20.410
484.00,20.561
485.00,20.709
486.00,20.848
487.00,20.999
488.00,21.137
489.00,21.290
490.00,21.444
491.00,21.596
492.00,21.756
493.00,21.900
494.00,22.032
495.00,22.136
496.00,22.243
497.00,22.389
498.00,22.538
499.00,22.687
500.00,22.819
501.00,22.903
502.00,23.115
503.00,23.243
504.00,23.361
505.00,23.523
506.00,23.646
507.00,23.762
508.00,23.858
509.00,24.020
510.00,24.132
511.00,24.277
512.00,24.435
513.00,24.530
514.00,24.705
515.00,24.823
516.00,24.880
517.00,25.062
518.00,25.214
519.00,25.304
520.00,25.392
521.00,25.508
522.00,25.596
523.00,25.706
524.00,25.783
525.00,25.888
526.00,26.023
527.00,26.079
528.00,26.160
529.00,26.221
530.00,26.417
531.00,26.604
532.00,26.705
533.00,26.837
534.00,26.899
535.00,27.050
536.00,27.126
537.00,27.205
538.00,27.314
539.00,27.419
540.00,27.511
541.00,27.610
542.00,27.748
543.00,27.737
544.00,27.817
545.00,27.901
546.00,27.989
547.00,28.099
548.00,28.148
549.00,28.206
550.00,28.344
551.00,28.430
552.00,28.502
553.00,28.564
554.00,28.659
555.00,28.733
556.00,28.845
557.00,28.915
558.00,28.931
559.00,28.988
560.00,29.084
561.00,29.155
562.00,29.220
563.00,29.218
564.00,29.330
565.00,29.400
566.00,29.424
567.00,29.479
568.00,29.521
569.00,29.570
570.00,29.585
571.00,29.691
572.00,29.742
573.00,29.767
574.00,29.816
575.00,29.892
576.00,29.914
577.00,29.979
578.00,30.071
579.00,30.109
580.00,30.203
581.00,30.296
582.00,30.376
583.00,30.435
584.00,30.541
585.00,30.603
586.00,30.651
587.00,30.724
588.00,30.783
589.00,30.821
590.00,30.879
591.00,30.972
592.00,30.953
593.00,30.970
594.00,31.074
595.00,31.116
596.00,31.201
597.00,31.275
598.00,31.335
599.00,31.432
600.00,31.483
601.00,31.543
602.00,31.527
603.00,31.643
604.00,31.618
605.00,31.665
606.00,31.807
607.00,31.826
608.00,31.918
609.00,31.967
610.00,32.034
611.00,32.076
612.00,32.110
613.00,32.200
614.00,32.208
615.00,32.297
616.00,32.389
617.00,32.369
618.00,32.508
619.00,32.620
620.00,32.679
621.00,32.684
622.00,32.812
623.00,32.883
624.00,32.929
625.00,33.003
626.00,33.056
627.00,33.148
628.00,33.178
629.00,33.260
630.00,33.333
631.00,33.434
632.00,33.575
633.00,33.672
634.00,33.789
635.00,33.899
636.00,33.968
637.00,34.065
638.00,34.158
639.00,34.247
640.00,34.361
641.00,34.417
642.00,34.430
643.00,34.555
644.00,34.703
645.00,34.752
646.00,34.909
647.00,34.959
648.00,35.017
649.00,35.218
650.00,35.208
651.00,35.381
652.00,35.455
653.00,35.569
654.00,35.661
655.00,35.804
656.00,35.887
657.00,36.153
658.00,36.263
659.00,36.237
660.00,35.910
661.00,36.493
662.00,36.629
663.00,36.758
664.00,36.851
665.00,36.963
666.00,37.111
667.00,37.194
668.00,37.324
669.00,37.416
670.00,37.560
671.00,37.647
672.00,37.735
673.00,37.890
674.00,38.024
675.00,38.158
676.00,38.289
677.00,38.418
678.00,38.528
679.00,38.664
680.00,38.832
681.00,38.932
682.00,38.998
683.00,39.149
684.00,39.370
685.00,39.492
686.00,39.460
687.00,39.687
688.00,39.834
689.00,39.796
690.00,39.978
691.00,40.179
692.00,40.249
693.00,40.366
694.00,40.498
695.00,40.704
696.00,40.737
697.00,40.916
698.00,40.982
699.00,41.242
700.00,41.352
701.00,41.362
702.00,41.537
703.00,41.688
704.00,41.700
705.00,41.823
706.00,41.982
707.00,42.099
708.00,42.005
709.00,42.358
710.00,42.506
711.00,42.452
712.00,42.544
713.00,42.717
714.00,42.799
715.00,43.008
716.00,43.041
717.00,43.107
718.00,43.314
719.00,43.344
720.00,43.475
721.00,47.360
722.00,47.360
723.00,47.318
724.00,47.429
725.00,47.512
726.00,47.535
727.00,47.615
728.00,47.732
729.00,47.756
730.00,47.828
731.00,47.938
732.00,47.914
733.00,48.064
734.00,48.170
735.00,48.155
736.00,48.235
737.00,48.299
738.00,48.428
739.00,48.467
740.00,48.446
741.00,48.513
742.00,48.564
743.00,48.573
744.00,48.675
745.00,48.693
746.00,48.692
747.00,48.750
748.00,48.798
749.00,48.889
750.00,48.941
751.00,48.878
752.00,48.968
753.00,49.024
754.00,49.090
755.00,49.048
756.00,49.065
757.00,49.173
758.00,49.198
759.00,49.235
760.00,49.295
761.00,49.289
762.00,49.350
763.00,49.383
764.00,49.464
765.00,49.477
766.00,49.521
767.00,49.551
768.00,49.635
769.00,49.584
770.00,49.627
771.00,49.686
772.00,49.783
773.00,49.737
774.00,49.759
775.00,49.786
776.00,49.799
777.00,49.899
778.00,49.893
779.00,49.842
780.00,49.991
781.00,49.959
782.00,50.034
783.00,49.938
784.00,49.958
785.00,49.985
786.00,50.068
787.00,50.050
788.00,50.018
789.00,50.088
790.00,50.022
791.00,50.102
792.00,50.063
793.00,50.084
794.00,50.104
795.00,50.029
796.00,50.105
797.00,50.108
798.00,50.026
799.00,50.142
800.00,50.116
801.00,50.132
802.00,50.062
803.00,50.144
804.00,50.184
805.00,50.125
806.00,50.089
807.00,50.094
808.00,50.139
809.00,50.100
810.00,50.160
811.00,50.048
812.00,50.142
813.00,50.134
814.00,50.143
815.00,50.125
816.00,50.107
817.00,50.180
818.00,50.113
819.00,50.063
820.00,50.078
821.00,50.153
822.00,50.104
823.00,50.106
824.00,50.092
825.00,50.100
826.00,50.062
827.00,50.089
828.00,50.077
829.00,50.014
830.00,50.068
831.00,52.656
832.00,52.647
833.00,52.615
834.00,52.631
835.00,52.595
836.00,52.596
837.00,52.578
838.00,52.571
839.00,52.578
840.00,52.548
841.00,52.549
842.00,52.520
843.00,52.521
844.00,52.558
845.00,52.463
846.00,52.497
847.00,52.489
848.00,52.453
849.00,52.400
850.00,52.401
851.00,52.372
852.00,52.355
853.00,52.331
854.00,52.316
855.00,52.263
856.00,52.280
857.00,52.256
858.00,52.189
859.00,52.233
860.00,52.180
861.00,52.199
862.00,52.153
863.00,52.173
864.00,52.166
865.00,52.171
866.00,52.170
867.00,52.138
868.00,52.152
869.00,52.118
870.00,52.121
871.00,52.103
872.00,52.099
873.00,52.091
874.00,52.051
875.00,52.081
876.00,52.087
877.00,52.054
878.00,52.052
879.00,52.034
880.00,52.060
881.00,52.007
882.00,52.047
883.00,52.007
884.00,51.967
885.00,51.948
886.00,51.951
887.00,51.947
888.00,51.901
889.00,51.913
890.00,51.910
891.00,51.892
892.00,51.868
893.00,51.836
894.00,51.826
895.00,51.810
896.00,51.781
897.00,51.776
898.00,51.749
899.00,51.723
900.00,51.722
901.00,51.726
902.00,51.711
903.00,51.677
904.00,51.691
905.00,51.660
906.00,51.639
907.00,51.619
908.00,51.616
909.00,51.603
910.00,51.564
911.00,51.561
912.00,51.602
913.00,51.537
914.00,51.518
915.00,51.513
916.00,51.494
917.00,51.440
918.00,51.543
919.00,51.420
920.00,51.411
921.00,51.408
922.00,51.403
923.00,51.378
924.00,51.359
925.00,51.354
926.00,51.317
927.00,51.305
928.00,51.283
929.00,51.259
930.00,51.244
931.00,51.244
932.00,51.173
933.00,51.209
934.00,51.201
935.00,51.181
936.00,51.157
937.00,51.154
938.00,51.110
939.00,51.124
940.00,51.093
941.00,51.078
942.00,51.062
943.00,51.049
944.00,51.008
945.00,51.020
946.00,51.008
947.00,50.945
948.00,51.005
949.00,50.926
950.00,50.914
951.00,50.902
952.00,50.869
953.00,50.844
954.00,50.818
955.00,50.781
956.00,50.790
957.00,50.756
958.00,50.775
959.00,50.711
960.00,50.684
961.00,50.673
962.00,50.681
963.00,50.644
964.00,50.625
965.00,50.611
966.00,50.597
967.00,50.612
968.00,50.581
969.00,50.609
970.00,50.555
971.00,50.571
972.00,50.557
973.00,50.572
974.00,50.597
975.00,50.570
976.00,50.581
977.00,50.574
978.00,50.617
979.00,50.633
980.00,50.593
981.00,50.592
982.00,50.568
983.00,50.573
984.00,50.556
985.00,50.559
986.00,50.542
987.00,50.523
988.00,50.518
989.00,50.498
990.00,50.494
991.00,50.485
992.00,50.497
993.00,50.450
994.00,50.441
995.00,50.442
996.00,50.421
997.00,50.425
998.00,50.388
999.00,50.404
1000.00,50.362
1001.00,50.362
1002.00,50.356
1003.00,50.343
1004.00,50.334
1005.00,50.317
1006.00,50.318
1007.00,50.287
1008.00,50.290
1009.00,50.266
1010.00,50.246
1011.00,50.242
1012.00,50.202
1013.00,50.218
1014.00,50.195
1015.00,50.196
1016.00,50.141
1017.00,50.153
1018.00,50.138
1019.00,50.119
1020.00,50.101
1021.00,50.081
1022.00,50.074
1023.00,50.035
1024.00,50.052
1025.00,50.063
1026.00,50.015
1027.00,49.997
1028.00,49.998
1029.00,49.972
1030.00,49.943
1031.00,49.949
1032.00,49.918
1033.00,49.915
1034.00,49.886
1035.00,49.858
1036.00,49.830
1037.00,49.818
1038.00,49.802
1039.00,49.765
1040.00,49.767
1041.00,49.731
1042.00,49.731
1043.00,49.697
1044.00,49.726
1045.00,49.714
1046.00,49.710
1047.00,49.720
1048.00,49.728
1049.00,49.747
1050.00,49.744
1051.00,49.759
1052.00,49.793
1053.00,49.797
1054.00,49.793
1055.00,49.811
1056.00,49.812
1057.00,49.816
1058.00,49.800
1059.00,49.794
1060.00,49.797
1061.00,49.795
1062.00,49.792
1063.00,49.793
1064.00,49.785
1065.00,49.793
1066.00,49.759
1067.00,49.753
1068.00,49.761
1069.00,49.732
1070.00,49.702
1071.00,49.691
1072.00,49.697
1073.00,49.673
1074.00,49.681
1075.00,49.663
1076.00,49.652
1077.00,49.658
1078.00,49.632
1079.00,49.610
1080.00,49.626
1081.00,49.599
1082.00,49.600
1083.00,49.581
1084.00,49.578
1085.00,49.581
1086.00,49.603
1087.00,49.578
1088.00,49.558
1089.00,49.538
1090.00,49.545
1091.00,49.534
1092.00,49.524
1093.00,49.492
1094.00,49.500
1095.00,49.485
1096.00,49.475
1097.00,49.457
1098.00,49.468
1099.00,49.447
1100.00,49.441
1101.00,49.432
1102.00,49.415
1103.00,49.391
1104.00,49.398
1105.00,49.377
1106.00,49.370
1107.00,49.367
1108.00,49.366
1109.00,49.359
1110.00,49.364
1111.00,49.355
1112.00,49.346
1113.00,49.326
1114.00,49.322
1115.00,49.324
1116.00,49.306
1117.00,49.277
1118.00,49.289
1119.00,49.276
1120.00,49.276
1121.00,49.269
1122.00,49.270
1123.00,49.264
1124.00,49.256
1125.00,49.246
1126.00,49.255
1127.00,49.237
1128.00,49.225
1129.00,49.202
1130.00,49.197
1131.00,49.187
1132.00,49.181
1133.00,49.179
1134.00,49.180
1135.00,49.154
1136.00,49.159
1137.00,49.154
1138.00,49.152
1139.00,49.147
1140.00,49.147
1141.00,49.131
1142.00,49.132
1143.00,49.122
1144.00,49.108
1145.00,49.105
1146.00,49.106
1147.00,49.108
1148.00,49.103
1149.00,49.106
1150.00,49.104
1151.00,49.112
1152.00,49.090
1153.00,49.082
1154.00,49.081
1155.00,49.086
1156.00,49.067
1157.00,49.071
1158.00,49.064
1159.00,49.046
1160.00,49.053
1161.00,49.065
1162.00,49.054
1163.00,49.050
1164.00,49.039
1165.00,49.030
1166.00,49.031
1167.00,49.031
1168.00,49.029
1169.00,49.024
1170.00,49.021
1171.00,49.003
1172.00,49.016
1173.00,49.005
1174.00,49.007
1175.00,49.010
1176.00,49.011
1177.00,49.000
1178.00,48.995
1179.00,49.009
1180.00,48.994
1181.00,49.009
1182.00,49.007
1183.00,48.989
1184.00,48.982
1185.00,48.996
1186.00,48.976
1187.00,48.987
1188.00,48.966
1189.00,48.966
1190.00,48.967
1191.00,48.965
1192.00,48.976
1193.00,48.966
1194.00,48.982
1195.00,48.954
1196.00,48.974
1197.00,48.965
1198.00,48.954
1199.00,48.955
1200.00,48.948
1201.00,48.946
1202.00,48.937
1203.00,48.938
1204.00,48.933
1205.00,48.962
1206.00,48.945
1207.00,48.956
1208.00,48.952
1209.00,48.931
1210.00,48.942
1211.00,48.937
1212.00,48.940
1213.00,48.900
1214.00,48.927
1215.00,48.914
1216.00,48.915
1217.00,48.930
1218.00,48.928
1219.00,48.937
1220.00,48.927
1221.00,48.933
1222.00,48.918
1223.00,48.945
1224.00,48.931
1225.00,48.922
1226.00,48.931
1227.00,48.909
1228.00,48.937
1229.00,48.941
1230.00,48.978
1231.00,48.963
1232.00,48.967
1233.00,48.972
1234.00,48.976
1235.00,48.964
1236.00,48.973
1237.00,48.970
1238.00,48.973
1239.00,48.967
1240.00,48.963
1241.00,48.970
1242.00,48.964
1243.00,48.983
1244.00,48.963
1245.00,48.973
1246.00,48.979
1247.00,48.986
1248.00,48.972
1249.00,48.984
1250.00,48.994
1251.00,48.991
1252.00,49.005
1253.00,48.990
1254.00,49.022
1255.00,48.995
1256.00,48.990
1257.00,48.951
1258.00,49.011
1259.00,48.994
1260.00,49.016
1261.00,49.029
1262.00,49.020
1263.00,49.020
1264.00,49.031
1265.00,49.035
1266.00,49.031
1267.00,49.023
1268.00,49.045
1269.00,49.034
1270.00,49.047
1271.00,49.048
1272.00,49.057
1273.00,49.053
1274.00,49.059
1275.00,49.063
1276.00,49.070
1277.00,49.074
1278.00,49.083
1279.00,49.095
1280.00,49.096
1281.00,49.095
1282.00,49.106
1283.00,49.113
1284.00,49.134
1285.00,49.111
1286.00,49.099
1287.00,49.092
1288.00,49.110
1289.00,49.103
1290.00,49.118
1291.00,49.114
1292.00,49.144
1293.00,49.123
1294.00,49.146
1295.00,49.153
1296.00,49.156
1297.00,49.169
1298.00,49.175
1299.00,49.157
1300.00,49.164
1301.00,49.174
1302.00,49.174
1303.00,49.199
1304.00,49.181
1305.00,49.202
1306.00,49.206
1307.00,49.223
1308.00,49.220
1309.00,49.217
1310.00,49.225
1311.00,49.206
1312.00,49.208
1313.00,49.210
1314.00,49.230
1315.00,49.241
1316.00,49.244
1317.00,49.264
1318.00,49.256
1319.00,49.256
1320.00,49.293
1321.00,49.439
1322.00,49.459
1323.00,49.450
1324.00,49.451
1325.00,49.425
1326.00,49.431
1327.00,49.423
1328.00,49.460
1329.00,49.379
1330.00,49.426
1331.00,49.423
1332.00,49.433
1333.00,49.440
1334.00,49.480
1335.00,49.483
1336.00,49.525
1337.00,49.547
1338.00,49.597
1339.00,49.661
1340.00,49.703
1341.00,49.782
1342.00,49.851
1343.00,49.920
1344.00,49.916
1345.00,49.992
1346.00,50.038
1347.00,50.052
1348.00,50.070
1349.00,50.102
1350.00,50.122
1351.00,50.150
1352.00,50.138
1353.00,50.169
1354.00,50.142
1355.00,50.136
1356.00,50.160
1357.00,50.177
1358.00,50.177
1359.00,50.214
1360.00,50.437
1361.00,50.180
1362.00,50.135
1363.00,50.199
1364.00,50.154
1365.00,50.162
1366.00,50.226
1367.00,50.154
1368.00,50.135
1369.00,50.179
1370.00,50.152
1371.00,50.118
1372.00,50.160
1373.00,50.143
1374.00,50.160
1375.00,50.139
1376.00,50.132
1377.00,50.114
1378.00,50.210
1379.00,50.167
1380.00,50.156
1381.00,50.177
1382.00,50.139
1383.00,50.139
1384.00,50.107
1385.00,50.078
1386.00,50.152
1387.00,50.123
1388.00,50.094
1389.00,50.066
1390.00,50.136
1391.00,50.136
1392.00,50.124
1393.00,50.163
1394.00,50.138
1395.00,50.124
1396.00,50.099
1397.00,50.140
1398.00,50.140
1399.00,50.153
1400.00,50.126
1401.00,50.131
1402.00,50.147
1403.00,50.159
1404.00,50.155
1405.00,50.189
1406.00,50.169
1407.00,50.196
1408.00,50.209
1409.00,50.175
1410.00,50.222
1411.00,50.201
1412.00,50.258
1413.00,50.236
1414.00,50.219
1415.00,50.247
1416.00,50.275
1417.00,50.287
1418.00,50.283
1419.00,50.280
1420.00,50.302
1421.00,50.334
1422.00,50.350
1423.00,50.340
1424.00,50.362
1425.00,50.355
1426.00,50.369
1427.00,50.400
1428.00,50.400
1429.00,50.419
1430.00,50.441
1431.00,50.435
1432.00,50.466
1433.00,50.498
1434.00,50.479
1435.00,50.513
1436.00,50.545
1437.00,50.528
1438.00,50.554
1439.00,50.579
1440.00,50.580
1441.00,50.589
1442.00,50.604
1443.00,50.630
1444.00,50.645
1445.00,50.647
1446.00,50.664
1447.00,50.684
1448.00,50.703
1449.00,50.721
1450.00,50.721
1451.00,50.735
1452.00,50.759
1453.00,50.758
1454.00,50.766
1455.00,50.798
1456.00,50.824
1457.00,50.817
1458.00,50.823
1459.00,50.852
1460.00,50.859
1461.00,50.875
1462.00,50.900
1463.00,50.928
1464.00,50.929
1465.00,50.948
1466.00,50.948
1467.00,50.971
1468.00,51.000
1469.00,51.007
1470.00,51.009
1471.00,51.031
1472.00,51.042
1473.00,51.050
1474.00,51.073
1475.00,51.074
1476.00,51.096
1477.00,51.104
1478.00,51.127
1479.00,51.148
1480.00,51.146
1481.00,51.149
1482.00,51.196
1483.00,51.199
1484.00,51.200
1485.00,51.217
1486.00,51.202
1487.00,51.235
1488.00,51.249
1489.00,51.252
1490.00,51.264
1491.00,51.267
1492.00,51.290
1493.00,51.288
1494.00,51.315
1495.00,51.320
1496.00,51.327
1497.00,51.344
1498.00,51.340
1499.00,51.363
1500.00,51.390
1501.00, 
1502.00, 
1503.00, 
1504.00, 
1505.00, 
1506.00, 
1507.00, 
1508.00, 
1509.00, 
1510.00, 
1511.00, 
1512.00, 
1513.00, 
1514.00, 
1515.00, 
1516.00, 
1517.00, 
1518.00, 
1519.00, 
1520.00, 
1521.00, 
1522.00, 
1523.00, 
1524.00, 
1525.00, 
1526.00, 
1527.00, 
1528.00, 
1529.00, 
1530.00, 
1531.00, 
1532.00, 
1533.00, 
1534.00, 
1535.00, 
1536.00, 
1537.00, 
1538.00, 
1539.00, 
1540.00, 
1541.00, 
1542.00, 
1543.00, 
1544.00, 
1545.00, 
1546.00, 
1547.00, 
1548.00, 
1549.00, 
1550.00, 
1551.00, 
1552.00, 
1553.00, 
1554.00, 
1555.00, 
1556.00, 
1557.00, 
1558.00, 
1559.00, 
1560.00, 
1561.00, 
1562.00, 
1563.00, 
1564.00, 
1565.00, 
1566.00, 
1567.00, 
1568.00, 
1569.00, 
1570.00, 
1571.00, 
1572.00, 
1573.00, 
1574.00, 
1575.00, 
1576.00, 
1577.00, 
1578.00, 
1579.00, 
1580.00, 
1581.00, 
1582.00, 
1583.00, 
1584.00, 
1585.00, 
1586.00, 
1587.00, 
1588.00, 
1589.00, 
1590.00, 
1591.00, 
1592.00, 
1593.00, 
1594.00, 
1595.00, 
1596.00, 
1597.00, 
1598.00, 
1599.00, 
1600.00, 
1601.00, 
1602.00, 
1603.00, 
1604.00, 
1605.00, 
1606.00, 
1607.00, 
1608.00, 
1609.00, 
1610.00, 
1611.00, 
1612.00, 
1613.00, 
1614.00, 
1615.00, 
1616.00, 
1617.00, 
1618.00, 
1619.00, 
1620.00, 
1621.00, 
1622.00, 
1623.00, 
1624.00, 
1625.00, 
1626.00, 
1627.00, 
1628.00, 
1629.00, 
1630.00, 
1631.00, 
1632.00, 
1633.00, 
1634.00, 
1635.00, 
1636.00, 
1637.00, 
1638.00, 
1639.00, 
1640.00, 
1641.00, 
1642.00, 
1643.00, 
1644.00, 
1645.00, 
1646.00, 
1647.00, 
1648.00, 
1649.00, 
1650.00, 
1651.00, 
1652.00, 
1653.00, 
1654.00, 
1655.00, 
1656.00, 
1657.00, 
1658.00, 
1659.00, 
1660.00, 
1661.00, 
1662.00, 
1663.00, 
1664.00, 
1665.00, 
1666.00, 
1667.00, 
1668.00, 
1669.00, 
1670.00, 
1671.00, 
1672.00, 
1673.00, 
1674.00, 
1675.00, 
1676.00, 
1677.00, 
1678.00, 
1679.00, 
1680.00, 
1681.00, 
1682.00, 
1683.00, 
1684.00, 
1685.00, 
1686.00, 
1687.00, 
1688.00, 
1689.00, 
1690.00, 
1691.00, 
1692.00, 
1693.00, 
1694.00, 
1695.00, 
1696.00, 
1697.00, 
1698.00, 
1699.00, 
1700.00, 
1701.00, 
1702.00, 
1703.00, 
1704.00, 
1705.00, 
1706.00, 
1707.00, 
1708.00, 
1709.00, 
1710.00, 
1711.00, 
1712.00, 
1713.00, 
1714.00, 
1715.00, 
1716.00, 
1717.00, 
1718.00, 
1719.00, 
1720.00, 
1721.00, 
1722.00, 
1723.00, 
1724.00, 
1725.00, 
1726.00, 
1727.00, 
1728.00, 
1729.00, 
1730.00, 
1731.00, 
1732.00, 
1733.00, 
1734.00, 
1735.00, 
1736.00, 
1737.00, 
1738.00, 
1739.00, 
1740.00, 
1741.00, 
1742.00, 
1743.00, 
1744.00, 
1745.00, 
1746.00, 
1747.00, 
1748.00, 
1749.00, 
1750.00, 
1751.00, 
1752.00, 
1753.00, 
1754.00, 
1755.00, 
1756.00, 
1757.00, 
1758.00, 
1759.00, 
1760.00, 
1761.00, 
1762.00, 
1763.00, 
1764.00, 
1765.00, 
1766.00, 
1767.00, 
1768.00, 
1769.00, 
1770.00, 
1771.00, 
1772.00, 
1773.00, 
1774.00, 
1775.00, 
1776.00, 
1777.00, 
1778.00, 
1779.00, 
1780.00, 
1781.00, 
1782.00, 
1783.00, 
1784.00, 
1785.00, 
1786.00, 
1787.00, 
1788.00, 
1789.00, 
1790.00, 
1791.00, 
1792.00, 
1793.00, 
1794.00, 
1795.00, 
1796.00, 
1797.00, 
1798.00, 
1799.00, 
1800.00, 
1801.00, 
1802.00, 
1803.00, 
1804.00, 
1805.00, 
1806.00, 
1807.00, 
1808.00, 
1809.00, 
1810.00, 
1811.00, 
1812.00, 
1813.00, 
1814.00, 
1815.00, 
1816.00, 
1817.00, 
1818.00, 
1819.00, 
1820.00, 
1821.00, 
1822.00, 
1823.00, 
1824.00, 
1825.00, 
1826.00, 
1827.00, 
1828.00, 
1829.00, 
1830.00, 
1831.00, 
1832.00, 
1833.00, 
1834.00, 
1835.00, 
1836.00, 
1837.00, 
1838.00, 
1839.00, 
1840.00, 
1841.00, 
1842.00, 
1843.00, 
1844.00, 
1845.00, 
1846.00, 
1847.00, 
1848.00, 
1849.00, 
1850.00, 
1851.00, 
1852.00, 
1853.00, 
1854.00, 
1855.00, 
1856.00, 
1857.00, 
1858.00, 
1859.00, 
1860.00, 
1861.00, 
1862.00, 
1863.00, 
1864.00, 
1865.00, 
1866.00, 
1867.00, 
1868.00, 
1869.00, 
1870.00, 
1871.00, 
1872.00, 
1873.00, 
1874.00, 
1875.00, 
1876.00, 
1877.00, 
1878.00, 
1879.00, 
1880.00, 
1881.00, 
1882.00, 
1883.00, 
1884.00, 
1885.00, 
1886.00, 
1887.00, 
1888.00, 
1889.00, 
1890.00, 
1891.00, 
1892.00, 
1893.00, 
1894.00, 
1895.00, 
1896.00, 
1897.00, 
1898.00, 
1899.00, 
1900.00, 
1901.00, 
1902.00, 
1903.00, 
1904.00, 
1905.00, 
1906.00, 
1907.00, 
1908.00, 
1909.00, 
1910.00, 
1911.00, 
1912.00, 
1913.00, 
1914.00, 
1915.00, 
1916.00, 
1917.00, 
1918.00, 
1919.00, 
1920.00, 
1921.00, 
1922.00, 
1923.00, 
1924.00, 
1925.00, 
1926.00, 
1927.00, 
1928.00, 
1929.00, 
1930.00, 
1931.00, 
1932.00, 
1933.00, 
1934.00, 
1935.00, 
1936.00, 
1937.00, 
1938.00, 
1939.00, 
1940.00, 
1941.00, 
1942.00, 
1943.00, 
1944.00, 
1945.00, 
1946.00, 
1947.00, 
1948.00, 
1949.00, 
1950.00, 
1951.00, 
1952.00, 
1953.00, 
1954.00, 
1955.00, 
1956.00, 
1957.00, 
1958.00, 
1959.00, 
1960.00, 
1961.00, 
1962.00, 
1963.00, 
1964.00, 
1965.00, 
1966.00, 
1967.00, 
1968.00, 
1969.00, 
1970.00, 
1971.00, 
1972.00, 
1973.00, 
1974.00, 
1975.00, 
1976.00, 
1977.00, 
1978.00, 
1979.00, 
1980.00, 
1981.00, 
1982.00, 
1983.00, 
1984.00, 
1985.00, 
1986.00, 
1987.00, 
1988.00, 
1989.00, 
1990.00, 
1991.00, 
1992.00, 
1993.00, 
1994.00, 
1995.00, 
1996.00, 
1997.00, 
1998.00, 
1999.00, 
2000.00, 
2001.00, 
2002.00, 
2003.00, 
2004.00, 
2005.00, 
2006.00, 
2007.00, 
2008.00, 
2009.00, 
2010.00, 
2011.00, 
2012.00, 
2013.00, 
2014.00, 
2015.00, 
2016.00, 
2017.00, 
2018.00, 
2019.00, 
2020.00, 
2021.00, 
2022.00, 
2023.00, 
2024.00, 
2025.00, 
2026.00, 
2027.00, 
2028.00, 
2029.00, 
2030.00, 
2031.00, 
2032.00, 
2033.00, 
2034.00, 
2035.00, 
2036.00, 
2037.00, 
2038.00, 
2039.00, 
2040.00, 
2041.00, 
2042.00, 
2043.00, 
2044.00, 
2045.00, 
2046.00, 
2047.00, 
2048.00, 
2049.00, 
2050.00, 
2051.00, 
2052.00, 
2053.00, 
2054.00, 
2055.00, 
2056.00, 
2057.00, 
2058.00, 
2059.00, 
2060.00, 
2061.00, 
2062.00, 
2063.00, 
2064.00, 
2065.00, 
2066.00, 
2067.00, 
2068.00, 
2069.00, 
2070.00, 
2071.00, 
2072.00, 
2073.00, 
2074.00, 
2075.00, 
2076.00, 
2077.00, 
2078.00, 
2079.00, 
2080.00, 
2081.00, 
2082.00, 
2083.00, 
2084.00, 
2085.00, 
2086.00, 
2087.00, 
2088.00, 
2089.00, 
2090.00, 
2091.00, 
2092.00, 
2093.00, 
2094.00, 
2095.00, 
2096.00, 
2097.00, 
2098.00, 
2099.00, 
2100.00, 
2101.00, 
2102.00, 
2103.00, 
2104.00, 
2105.00, 
2106.00, 
2107.00, 
2108.00, 
2109.00, 
2110.00, 
2111.00, 
2112.00, 
2113.00, 
2114.00, 
2115.00, 
2116.00, 
2117.00, 
2118.00, 
2119.00, 
2120.00, 
2121.00, 
2122.00, 
2123.00, 
2124.00, 
2125.00, 
2126.00, 
2127.00, 
2128.00, 
2129.00, 
2130.00, 
2131.00, 
2132.00, 
2133.00, 
2134.00, 
2135.00, 
2136.00, 
2137.00, 
2138.00, 
2139.00, 
2140.00, 
2141.00, 
2142.00, 
2143.00, 
2144.00, 
2145.00, 
2146.00, 
2147.00, 
2148.00, 
2149.00, 
2150.00, 
2151.00, 
2152.00, 
2153.00, 
2154.00, 
2155.00, 
2156.00, 
2157.00, 
2158.00, 
2159.00, 
2160.00, 
2161.00, 
2162.00, 
2163.00, 
2164.00, 
2165.00, 
2166.00, 
2167.00, 
2168.00, 
2169.00, 
2170.00, 
2171.00, 
2172.00, 
2173.00, 
2174.00, 
2175.00, 
2176.00, 
2177.00, 
2178.00, 
2179.00, 
2180.00, 
2181.00, 
2182.00, 
2183.00, 
2184.00, 
2185.00, 
2186.00, 
2187.00, 
2188.00, 
2189.00, 
2190.00, 
2191.00, 
2192.00, 
2193.00, 
2194.00, 
2195.00, 
2196.00, 
2197.00, 
2198.00, 
2199.00, 
2200.00, 
2201.00, 
2202.00, 
2203.00, 
2204.00, 
2205.00, 
2206.00, 
2207.00, 
2208.00, 
2209.00, 
2210.00, 
2211.00, 
2212.00, 
2213.00, 
2214.00, 
2215.00, 
2216.00, 
2217.00, 
2218.00, 
2219.00, 
2220.00, 
2221.00, 
2222.00, 
2223.00, 
2224.00, 
2225.00, 
2226.00, 
2227.00, 
2228.00, 
2229.00, 
2230.00, 
2231.00, 
2232.00, 
2233.00, 
2234.00, 
2235.00, 
2236.00, 
2237.00, 
2238.00, 
2239.00, 
2240.00, 
2241.00, 
2242.00, 
2243.00, 
2244.00, 
2245.00, 
2246.00, 
2247.00, 
2248.00, 
2249.00, 
2250.00, 
2251.00, 
2252.00, 
2253.00, 
2254.00, 
2255.00, 
2256.00, 
2257.00, 
2258.00, 
2259.00, 
2260.00, 
2261.00, 
2262.00, 
2263.00, 
2264.00, 
2265.00, 
2266.00, 
2267.00, 
2268.00, 
2269.00, 
2270.00, 
2271.00, 
2272.00, 
2273.00, 
2274.00, 
2275.00, 
2276.00, 
2277.00, 
2278.00, 
2279.00, 
2280.00, 
2281.00, 
2282.00, 
2283.00, 
2284.00, 
2285.00, 
2286.00, 
2287.00, 
2288.00, 
2289.00, 
2290.00, 
2291.00, 
2292.00, 
2293.00, 
2294.00, 
2295.00, 
2296.00, 
2297.00, 
2298.00, 
2299.00, 
2300.00, 
2301.00, 
2302.00, 
2303.00, 
2304.00, 
2305.00, 
2306.00, 
2307.00, 
2308.00, 
2309.00, 
2310.00, 
2311.00, 
2312.00, 
2313.00, 
2314.00, 
2315.00, 
2316.00, 
2317.00, 
2318.00, 
2319.00, 
2320.00, 
2321.00, 
2322.00, 
2323.00, 
2324.00, 
2325.00, 
2326.00, 
2327.00, 
2328.00, 
2329.00, 
2330.00, 
2331.00, 
2332.00, 
2333.00, 
2334.00, 
2335.00, 
2336.00, 
2337.00, 
2338.00, 
2339.00, 
2340.00, 
2341.00, 
2342.00, 
2343.00, 
2344.00, 
2345.00, 
2346.00, 
2347.00, 
2348.00, 
2349.00, 
2350.00, 
2351.00, 
2352.00, 
2353.00, 
2354.00, 
2355.00, 
2356.00, 
2357.00, 
2358.00, 
2359.00, 
2360.00, 
2361.00, 
2362.00, 
2363.00, 
2364.00, 
2365.00, 
2366.00, 
2367.00, 
2368.00, 
2369.00, 
2370.00, 
2371.00, 
2372.00, 
2373.00, 
2374.00, 
2375.00, 
2376.00, 
2377.00, 
2378.00, 
2379.00, 
2380.00, 
2381.00, 
2382.00, 
2383.00, 
2384.00, 
2385.00, 
2386.00, 
2387.00, 
2388.00, 
2389.00, 
2390.00, 
2391.00, 
2392.00, 
2393.00, 
2394.00, 
2395.00, 
2396.00, 
2397.00, 
2398.00, 
2399.00, 
2400.00, 
2401.00, 
2402.00, 
2403.00, 
2404.00, 
2405.00, 
2406.00, 
2407.00, 
2408.00, 
2409.00, 
2410.00, 
2411.00, 
2412.00, 
2413.00, 
2414.00, 
2415.00, 
2416.00, 
2417.00, 
2418.00, 
2419.00, 
2420.00, 
2421.00, 
2422.00, 
2423.00, 
2424.00, 
2425.00, 
2426.00, 
2427.00, 
2428.00, 
2429.00, 
2430.00, 
2431.00, 
2432.00, 
2433.00, 
2434.00, 
2435.00, 
2436.00, 
2437.00, 
2438.00, 
2439.00, 
2440.00, 
2441.00, 
2442.00, 
2443.00, 
2444.00, 
2445.00, 
2446.00, 
2447.00, 
2448.00, 
2449.00, 
2450.00, 
2451.00, 
2452.00, 
2453.00, 
2454.00, 
2455.00, 
2456.00, 
2457.00, 
2458.00, 
2459.00, 
2460.00, 
2461.00, 
2462.00, 
2463.00, 
2464.00, 
2465.00, 
2466.00, 
2467.00, 
2468.00, 
2469.00, 
2470.00, 
2471.00, 
2472.00, 
2473.00, 
2474.00, 
2475.00, 
2476.00, 
2477.00, 
2478.00, 
2479.00, 
2480.00, 
2481.00, 
2482.00, 
2483.00, 
2484.00, 
2485.00, 
2486.00, 
2487.00, 
2488.00, 
2489.00, 
2490.00, 
2491.00, 
2492.00, 
2493.00, 
2494.00, 
2495.00, 
2496.00, 
2497.00, 
2498.00, 
2499.00, 
2500.00, 
2501.00, 
2502.00, 
2503.00, 
2504.00, 
2505.00, 
2506.00, 
2507.00, 
2508.00, 
2509.00, 
2510.00, 
2511.00, 
2512.00, 
2513.00, 
2514.00, 
2515.00, 
2516.00, 
2517.00, 
2518.00, 
2519.00, 
2520.00, 
2521.00, 
2522.00, 
2523.00, 
2524.00, 
2525.00, 
2526.00, 
2527.00, 
2528.00, 
2529.00, 
2530.00, 
2531.00, 
2532.00, 
2533.00, 
2534.00, 
2535.00, 
2536.00, 
2537.00, 
2538.00, 
2539.00, 
2540.00, 
2541.00, 
2542.00, 
2543.00, 
2544.00, 
2545.00, 
2546.00, 
2547.00, 
2548.00, 
2549.00, 
2550.00, 
2551.00, 
2552.00, 
2553.00, 
2554.00, 
2555.00, 
2556.00, 
2557.00, 
2558.00, 
2559.00, 
2560.00, 
2561.00, 
2562.00, 
2563.00, 
2564.00, 
2565.00, 
2566.00, 
2567.00, 
2568.00, 
2569.00, 
2570.00, 
2571.00, 
2572.00, 
2573.00, 
2574.00, 
2575.00, 
2576.00, 
2577.00, 
2578.00, 
2579.00, 
2580.00, 
2581.00, 
2582.00, 
2583.00, 
2584.00, 
2585.00, 
2586.00, 
2587.00, 
2588.00, 
2589.00, 
2590.00, 
2591.00, 
2592.00, 
2593.00, 
2594.00, 
2595.00, 
2596.00, 
2597.00, 
2598.00, 
2599.00, 
2600.00, 
