"2cP2 - RawData"
"Wavelength nm.","T%"
200.00,-0.000
201.00,0.002
202.00,0.000
203.00,0.004
204.00,0.001
205.00,0.003
206.00,0.001
207.00,0.002
208.00,0.001
209.00,0.003
210.00,0.002
211.00,0.001
212.00,-0.000
213.00,0.001
214.00,0.004
215.00,0.004
216.00,0.001
217.00,0.002
218.00,0.001
219.00,0.003
220.00,-0.001
221.00,0.000
222.00,0.001
223.00,0.002
224.00,0.001
225.00,0.003
226.00,0.000
227.00,-0.001
228.00,0.002
229.00,0.003
230.00,0.001
231.00,0.001
232.00,0.001
233.00,0.000
234.00,0.002
235.00,0.000
236.00,-0.001
237.00,-0.000
238.00,0.001
239.00,0.001
240.00,0.000
241.00,0.001
242.00,0.000
243.00,0.001
244.00,-0.002
245.00,-0.001
246.00,0.002
247.00,-0.001
248.00,-0.002
249.00,-0.000
250.00,0.002
251.00,-0.000
252.00,-0.001
253.00,0.000
254.00,-0.000
255.00,0.003
256.00,-0.001
257.00,-0.001
258.00,-0.001
259.00,0.000
260.00,0.002
261.00,0.001
262.00,0.000
263.00,-0.001
264.00,-0.001
265.00,-0.000
266.00,-0.002
267.00,-0.000
268.00,-0.000
269.00,0.001
270.00,0.000
271.00,0.001
272.00,0.000
273.00,0.000
274.00,0.000
275.00,-0.000
276.00,-0.000
277.00,0.001
278.00,0.001
279.00,-0.000
280.00,-0.001
281.00,-0.000
282.00,0.001
283.00,-0.001
284.00,0.000
285.00,0.001
286.00,-0.001
287.00,0.001
288.00,0.000
289.00,0.001
290.00,0.000
291.00,-0.000
292.00,-0.000
293.00,-0.001
294.00,-0.000
295.00,0.001
296.00,-0.000
297.00,0.000
298.00,-0.001
299.00,0.002
300.00,0.002
301.00,0.003
302.00,0.005
303.00,0.009
304.00,0.013
305.00,0.020
306.00,0.035
307.00,0.049
308.00,0.077
309.00,0.121
310.00,0.168
311.00,0.228
312.00,0.303
313.00,0.419
314.00,0.559
315.00,0.718
316.00,0.928
317.00,1.160
318.00,1.446
319.00,1.776
320.00,2.142
321.00,2.608
322.00,3.090
323.00,3.635
324.00,4.106
325.00,4.803
326.00,5.391
327.00,6.127
328.00,6.826
329.00,7.541
330.00,8.355
331.00,9.125
332.00,9.953
333.00,10.784
334.00,11.575
335.00,12.407
336.00,13.294
337.00,14.098
338.00,14.864
339.00,15.500
340.00,16.447
341.00,17.213
342.00,17.940
343.00,18.630
344.00,19.285
345.00,19.918
346.00,20.490
347.00,21.051
348.00,21.634
349.00,22.150
350.00,22.600
351.00,23.085
352.00,23.534
353.00,23.904
354.00,24.286
355.00,24.650
356.00,25.025
357.00,25.361
358.00,25.611
359.00,25.897
360.00,26.153
361.00,26.393
362.00,26.589
363.00,26.813
364.00,26.879
365.00,27.139
366.00,27.295
367.00,27.392
368.00,27.501
369.00,27.598
370.00,27.672
371.00,27.717
372.00,27.711
373.00,27.733
374.00,27.739
375.00,27.667
376.00,27.741
377.00,27.706
378.00,27.608
379.00,27.550
380.00,27.520
381.00,27.512
382.00,27.527
383.00,27.544
384.00,27.539
385.00,27.588
386.00,27.649
387.00,27.722
388.00,27.752
389.00,27.760
390.00,27.778
391.00,27.841
392.00,27.884
393.00,27.859
394.00,27.893
395.00,27.930
396.00,27.950
397.00,27.953
398.00,27.965
399.00,27.966
400.00,27.962
401.00,27.945
402.00,27.954
403.00,27.938
404.00,27.986
405.00,27.973
406.00,27.982
407.00,27.916
408.00,27.884
409.00,27.793
410.00,27.764
411.00,27.749
412.00,27.718
413.00,27.667
414.00,27.665
415.00,27.716
416.00,27.692
417.00,27.709
418.00,27.772
419.00,27.718
420.00,27.714
421.00,27.721
422.00,27.783
423.00,27.795
424.00,27.740
425.00,27.758
426.00,27.785
427.00,27.793
428.00,27.828
429.00,27.748
430.00,27.907
431.00,27.917
432.00,27.955
433.00,28.002
434.00,28.033
435.00,28.060
436.00,28.112
437.00,28.195
438.00,28.229
439.00,28.292
440.00,28.366
441.00,28.412
442.00,28.456
443.00,28.544
444.00,28.612
445.00,28.670
446.00,28.740
447.00,28.889
448.00,28.917
449.00,29.009
450.00,29.142
451.00,29.199
452.00,29.351
453.00,29.422
454.00,29.468
455.00,29.542
456.00,29.660
457.00,29.765
458.00,29.850
459.00,29.917
460.00,30.023
461.00,30.125
462.00,30.201
463.00,30.350
464.00,30.458
465.00,30.559
466.00,30.633
467.00,30.771
468.00,30.832
469.00,30.959
470.00,31.035
471.00,31.118
472.00,31.209
473.00,31.246
474.00,31.375
475.00,31.487
476.00,31.534
477.00,31.680
478.00,31.767
479.00,31.921
480.00,32.047
481.00,32.180
482.00,32.288
483.00,32.424
484.00,32.553
485.00,32.725
486.00,32.807
487.00,32.960
488.00,33.098
489.00,33.213
490.00,33.346
491.00,33.487
492.00,33.599
493.00,33.757
494.00,33.813
495.00,33.908
496.00,33.975
497.00,34.110
498.00,34.236
499.00,34.356
500.00,34.469
501.00,34.554
502.00,34.665
503.00,34.799
504.00,34.913
505.00,35.039
506.00,35.120
507.00,35.221
508.00,35.287
509.00,35.427
510.00,35.516
511.00,35.632
512.00,35.779
513.00,35.865
514.00,36.024
515.00,36.113
516.00,36.172
517.00,36.308
518.00,36.398
519.00,36.489
520.00,36.567
521.00,36.589
522.00,36.652
523.00,36.773
524.00,36.822
525.00,36.919
526.00,37.035
527.00,37.148
528.00,37.175
529.00,37.282
530.00,37.335
531.00,37.534
532.00,37.627
533.00,37.744
534.00,37.783
535.00,37.832
536.00,37.921
537.00,37.977
538.00,38.050
539.00,38.162
540.00,38.198
541.00,38.241
542.00,38.327
543.00,38.301
544.00,38.382
545.00,38.586
546.00,38.605
547.00,38.734
548.00,38.760
549.00,38.823
550.00,38.973
551.00,39.002
552.00,39.082
553.00,39.122
554.00,39.193
555.00,39.266
556.00,39.391
557.00,39.388
558.00,39.409
559.00,39.449
560.00,39.568
561.00,39.588
562.00,39.615
563.00,39.623
564.00,39.732
565.00,39.760
566.00,39.785
567.00,39.841
568.00,39.855
569.00,39.847
570.00,39.889
571.00,39.982
572.00,40.000
573.00,40.067
574.00,40.055
575.00,40.023
576.00,40.141
577.00,40.221
578.00,40.280
579.00,40.353
580.00,40.437
581.00,40.512
582.00,40.589
583.00,40.651
584.00,40.761
585.00,40.787
586.00,40.856
587.00,40.922
588.00,40.910
589.00,40.952
590.00,41.014
591.00,41.050
592.00,41.026
593.00,41.091
594.00,41.183
595.00,41.168
596.00,41.239
597.00,41.318
598.00,41.348
599.00,41.440
600.00,41.582
601.00,41.540
602.00,41.521
603.00,41.583
604.00,41.571
605.00,41.595
606.00,41.673
607.00,41.714
608.00,41.751
609.00,41.812
610.00,41.879
611.00,41.793
612.00,41.869
613.00,41.911
614.00,41.886
615.00,41.927
616.00,42.042
617.00,42.016
618.00,42.154
619.00,42.228
620.00,42.261
621.00,42.262
622.00,42.356
623.00,42.412
624.00,42.418
625.00,42.466
626.00,42.491
627.00,42.588
628.00,42.594
629.00,42.635
630.00,42.649
631.00,42.733
632.00,42.787
633.00,42.862
634.00,42.962
635.00,43.064
636.00,43.081
637.00,43.157
638.00,43.202
639.00,43.226
640.00,43.324
641.00,43.379
642.00,43.373
643.00,43.373
644.00,43.488
645.00,43.513
646.00,43.622
647.00,43.672
648.00,43.693
649.00,43.796
650.00,43.806
651.00,43.877
652.00,43.898
653.00,43.981
654.00,44.049
655.00,44.167
656.00,44.279
657.00,44.519
658.00,44.539
659.00,44.431
660.00,44.480
661.00,44.381
662.00,44.582
663.00,44.712
664.00,44.775
665.00,44.789
666.00,44.783
667.00,44.941
668.00,45.074
669.00,45.100
670.00,45.172
671.00,45.098
672.00,45.145
673.00,45.319
674.00,45.400
675.00,45.396
676.00,45.574
677.00,45.621
678.00,45.567
679.00,45.678
680.00,45.748
681.00,45.854
682.00,45.896
683.00,45.996
684.00,46.100
685.00,46.053
686.00,46.063
687.00,46.259
688.00,46.354
689.00,46.247
690.00,46.381
691.00,46.503
692.00,46.466
693.00,46.538
694.00,46.702
695.00,46.769
696.00,46.826
697.00,46.834
698.00,46.910
699.00,46.901
700.00,47.026
701.00,47.099
702.00,47.248
703.00,47.282
704.00,47.254
705.00,47.284
706.00,47.338
707.00,47.471
708.00,47.263
709.00,47.462
710.00,47.702
711.00,47.506
712.00,47.609
713.00,47.787
714.00,47.700
715.00,47.735
716.00,47.789
717.00,47.823
718.00,47.990
719.00,48.030
720.00,48.047
721.00,52.153
722.00,52.251
723.00,52.096
724.00,52.201
725.00,52.187
726.00,52.147
727.00,52.207
728.00,52.183
729.00,52.206
730.00,52.258
731.00,52.210
732.00,52.204
733.00,52.285
734.00,52.337
735.00,52.288
736.00,52.292
737.00,52.285
738.00,52.304
739.00,52.320
740.00,52.251
741.00,52.323
742.00,52.287
743.00,52.267
744.00,52.315
745.00,52.305
746.00,52.237
747.00,52.269
748.00,52.238
749.00,52.248
750.00,52.211
751.00,52.186
752.00,52.176
753.00,52.216
754.00,52.137
755.00,52.130
756.00,52.109
757.00,52.191
758.00,52.179
759.00,52.172
760.00,52.126
761.00,52.138
762.00,52.129
763.00,52.110
764.00,52.137
765.00,52.188
766.00,52.133
767.00,52.138
768.00,52.137
769.00,52.077
770.00,52.080
771.00,52.124
772.00,52.170
773.00,52.098
774.00,52.042
775.00,52.178
776.00,52.127
777.00,52.117
778.00,52.132
779.00,52.089
780.00,52.083
781.00,52.111
782.00,52.085
783.00,51.973
784.00,51.999
785.00,51.997
786.00,52.022
787.00,51.993
788.00,51.974
789.00,51.976
790.00,51.870
791.00,51.954
792.00,51.884
793.00,51.878
794.00,51.890
795.00,51.818
796.00,51.864
797.00,51.781
798.00,51.795
799.00,51.701
800.00,51.696
801.00,51.753
802.00,51.660
803.00,51.710
804.00,51.630
805.00,51.629
806.00,51.617
807.00,51.569
808.00,51.596
809.00,51.517
810.00,51.590
811.00,51.426
812.00,51.464
813.00,51.531
814.00,51.474
815.00,51.457
816.00,51.438
817.00,51.481
818.00,51.293
819.00,51.376
820.00,51.377
821.00,51.349
822.00,51.321
823.00,51.247
824.00,51.318
825.00,51.316
826.00,51.256
827.00,51.288
828.00,51.172
829.00,51.201
830.00,51.235
831.00,53.671
832.00,53.692
833.00,53.650
834.00,53.620
835.00,53.576
836.00,53.579
837.00,53.560
838.00,53.543
839.00,53.524
840.00,53.456
841.00,53.476
842.00,53.459
843.00,53.442
844.00,53.437
845.00,53.370
846.00,53.386
847.00,53.344
848.00,53.299
849.00,53.242
850.00,53.192
851.00,53.195
852.00,53.173
853.00,53.133
854.00,53.107
855.00,53.024
856.00,53.018
857.00,53.005
858.00,52.978
859.00,52.956
860.00,52.923
861.00,52.936
862.00,52.881
863.00,52.867
864.00,52.855
865.00,52.889
866.00,52.831
867.00,52.817
868.00,52.811
869.00,52.807
870.00,52.776
871.00,52.763
872.00,52.757
873.00,52.730
874.00,52.696
875.00,52.715
876.00,52.719
877.00,52.671
878.00,52.670
879.00,52.636
880.00,52.652
881.00,52.599
882.00,52.635
883.00,52.568
884.00,52.548
885.00,52.516
886.00,52.514
887.00,52.499
888.00,52.464
889.00,52.462
890.00,52.443
891.00,52.419
892.00,52.363
893.00,52.433
894.00,52.375
895.00,52.329
896.00,52.291
897.00,52.298
898.00,52.254
899.00,52.248
900.00,52.225
901.00,52.230
902.00,52.213
903.00,52.184
904.00,52.180
905.00,52.125
906.00,52.139
907.00,52.089
908.00,52.103
909.00,52.065
910.00,52.026
911.00,52.026
912.00,52.027
913.00,52.018
914.00,51.946
915.00,51.959
916.00,51.942
917.00,51.996
918.00,51.865
919.00,51.841
920.00,51.839
921.00,51.799
922.00,51.804
923.00,51.779
924.00,51.757
925.00,51.736
926.00,51.718
927.00,51.686
928.00,51.673
929.00,51.671
930.00,51.636
931.00,51.635
932.00,51.597
933.00,51.582
934.00,51.577
935.00,51.551
936.00,51.526
937.00,51.512
938.00,51.464
939.00,51.482
940.00,51.437
941.00,51.443
942.00,51.418
943.00,51.397
944.00,51.342
945.00,51.364
946.00,51.345
947.00,51.290
948.00,51.321
949.00,51.275
950.00,51.260
951.00,51.240
952.00,51.201
953.00,51.164
954.00,51.148
955.00,51.092
956.00,51.108
957.00,51.055
958.00,51.083
959.00,51.018
960.00,51.006
961.00,50.999
962.00,50.979
963.00,50.934
964.00,50.960
965.00,50.929
966.00,50.908
967.00,50.930
968.00,50.888
969.00,50.930
970.00,50.873
971.00,50.898
972.00,50.875
973.00,50.885
974.00,50.915
975.00,50.875
976.00,50.897
977.00,50.876
978.00,50.934
979.00,50.874
980.00,50.907
981.00,50.907
982.00,50.884
983.00,50.885
984.00,50.875
985.00,50.877
986.00,50.855
987.00,50.829
988.00,50.825
989.00,50.809
990.00,50.798
991.00,50.781
992.00,50.804
993.00,50.764
994.00,50.745
995.00,50.739
996.00,50.726
997.00,50.737
998.00,50.694
999.00,50.714
1000.00,50.674
1001.00,50.656
1002.00,50.658
1003.00,50.658
1004.00,50.631
1005.00,50.616
1006.00,50.639
1007.00,50.595
1008.00,50.602
1009.00,50.569
1010.00,50.545
1011.00,50.548
1012.00,50.497
1013.00,50.504
1014.00,50.479
1015.00,50.472
1016.00,50.427
1017.00,50.438
1018.00,50.418
1019.00,50.400
1020.00,50.371
1021.00,50.375
1022.00,50.375
1023.00,50.319
1024.00,50.342
1025.00,50.366
1026.00,50.297
1027.00,50.283
1028.00,50.271
1029.00,50.256
1030.00,50.235
1031.00,50.228
1032.00,50.195
1033.00,50.198
1034.00,50.162
1035.00,50.136
1036.00,50.119
1037.00,50.098
1038.00,50.079
1039.00,50.038
1040.00,50.035
1041.00,49.988
1042.00,49.992
1043.00,49.962
1044.00,50.003
1045.00,49.970
1046.00,49.975
1047.00,49.996
1048.00,49.996
1049.00,50.015
1050.00,50.018
1051.00,50.041
1052.00,50.065
1053.00,50.060
1054.00,50.061
1055.00,50.082
1056.00,50.075
1057.00,50.089
1058.00,50.072
1059.00,50.055
1060.00,50.058
1061.00,50.056
1062.00,50.043
1063.00,50.056
1064.00,50.029
1065.00,50.031
1066.00,50.024
1067.00,49.999
1068.00,50.011
1069.00,49.977
1070.00,49.958
1071.00,49.942
1072.00,49.943
1073.00,49.913
1074.00,49.931
1075.00,49.909
1076.00,49.899
1077.00,49.904
1078.00,49.884
1079.00,49.879
1080.00,49.889
1081.00,49.857
1082.00,49.866
1083.00,49.836
1084.00,49.837
1085.00,49.847
1086.00,49.851
1087.00,49.821
1088.00,49.800
1089.00,49.785
1090.00,49.788
1091.00,49.779
1092.00,49.762
1093.00,49.755
1094.00,49.754
1095.00,49.731
1096.00,49.724
1097.00,49.691
1098.00,49.714
1099.00,49.697
1100.00,49.677
1101.00,49.700
1102.00,49.661
1103.00,49.644
1104.00,49.642
1105.00,49.621
1106.00,49.612
1107.00,49.616
1108.00,49.606
1109.00,49.594
1110.00,49.601
1111.00,49.578
1112.00,49.570
1113.00,49.563
1114.00,49.553
1115.00,49.559
1116.00,49.538
1117.00,49.524
1118.00,49.535
1119.00,49.511
1120.00,49.507
1121.00,49.504
1122.00,49.492
1123.00,49.486
1124.00,49.485
1125.00,49.467
1126.00,49.470
1127.00,49.455
1128.00,49.445
1129.00,49.427
1130.00,49.406
1131.00,49.422
1132.00,49.420
1133.00,49.406
1134.00,49.407
1135.00,49.394
1136.00,49.392
1137.00,49.381
1138.00,49.384
1139.00,49.378
1140.00,49.376
1141.00,49.361
1142.00,49.357
1143.00,49.369
1144.00,49.330
1145.00,49.337
1146.00,49.338
1147.00,49.316
1148.00,49.316
1149.00,49.311
1150.00,49.310
1151.00,49.328
1152.00,49.306
1153.00,49.286
1154.00,49.280
1155.00,49.284
1156.00,49.266
1157.00,49.284
1158.00,49.271
1159.00,49.275
1160.00,49.269
1161.00,49.280
1162.00,49.291
1163.00,49.264
1164.00,49.258
1165.00,49.265
1166.00,49.258
1167.00,49.252
1168.00,49.257
1169.00,49.247
1170.00,49.250
1171.00,49.224
1172.00,49.239
1173.00,49.249
1174.00,49.241
1175.00,49.238
1176.00,49.248
1177.00,49.222
1178.00,49.229
1179.00,49.248
1180.00,49.232
1181.00,49.244
1182.00,49.226
1183.00,49.222
1184.00,49.201
1185.00,49.217
1186.00,49.196
1187.00,49.208
1188.00,49.181
1189.00,49.185
1190.00,49.195
1191.00,49.179
1192.00,49.198
1193.00,49.184
1194.00,49.201
1195.00,49.184
1196.00,49.191
1197.00,49.187
1198.00,49.186
1199.00,49.173
1200.00,49.170
1201.00,49.176
1202.00,49.166
1203.00,49.172
1204.00,49.165
1205.00,49.175
1206.00,49.184
1207.00,49.181
1208.00,49.165
1209.00,49.176
1210.00,49.164
1211.00,49.164
1212.00,49.180
1213.00,49.132
1214.00,49.161
1215.00,49.146
1216.00,49.147
1217.00,49.172
1218.00,49.152
1219.00,49.162
1220.00,49.161
1221.00,49.158
1222.00,49.158
1223.00,49.182
1224.00,49.161
1225.00,49.153
1226.00,49.156
1227.00,49.139
1228.00,49.162
1229.00,49.155
1230.00,49.192
1231.00,49.189
1232.00,49.189
1233.00,49.192
1234.00,49.200
1235.00,49.185
1236.00,49.206
1237.00,49.209
1238.00,49.199
1239.00,49.209
1240.00,49.193
1241.00,49.197
1242.00,49.208
1243.00,49.210
1244.00,49.193
1245.00,49.212
1246.00,49.217
1247.00,49.217
1248.00,49.200
1249.00,49.208
1250.00,49.235
1251.00,49.226
1252.00,49.228
1253.00,49.222
1254.00,49.233
1255.00,49.223
1256.00,49.208
1257.00,49.167
1258.00,49.234
1259.00,49.221
1260.00,49.246
1261.00,49.255
1262.00,49.241
1263.00,49.263
1264.00,49.264
1265.00,49.257
1266.00,49.251
1267.00,49.268
1268.00,49.273
1269.00,49.257
1270.00,49.276
1271.00,49.280
1272.00,49.292
1273.00,49.284
1274.00,49.287
1275.00,49.292
1276.00,49.285
1277.00,49.293
1278.00,49.308
1279.00,49.311
1280.00,49.310
1281.00,49.308
1282.00,49.317
1283.00,49.352
1284.00,49.303
1285.00,49.311
1286.00,49.323
1287.00,49.313
1288.00,49.329
1289.00,49.332
1290.00,49.335
1291.00,49.339
1292.00,49.366
1293.00,49.344
1294.00,49.365
1295.00,49.360
1296.00,49.368
1297.00,49.380
1298.00,49.386
1299.00,49.365
1300.00,49.386
1301.00,49.388
1302.00,49.388
1303.00,49.401
1304.00,49.375
1305.00,49.410
1306.00,49.411
1307.00,49.432
1308.00,49.435
1309.00,49.416
1310.00,49.428
1311.00,49.415
1312.00,49.418
1313.00,49.414
1314.00,49.436
1315.00,49.444
1316.00,49.454
1317.00,49.464
1318.00,49.447
1319.00,49.461
1320.00,49.483
1321.00,49.619
1322.00,49.653
1323.00,49.614
1324.00,49.611
1325.00,49.608
1326.00,49.624
1327.00,49.612
1328.00,49.618
1329.00,49.616
1330.00,49.631
1331.00,49.619
1332.00,49.614
1333.00,49.627
1334.00,49.639
1335.00,49.658
1336.00,49.711
1337.00,49.735
1338.00,49.782
1339.00,49.842
1340.00,49.890
1341.00,49.959
1342.00,50.025
1343.00,50.043
1344.00,50.098
1345.00,50.151
1346.00,50.196
1347.00,50.212
1348.00,50.230
1349.00,50.259
1350.00,50.280
1351.00,50.299
1352.00,50.302
1353.00,50.324
1354.00,50.313
1355.00,50.291
1356.00,50.321
1357.00,50.308
1358.00,50.335
1359.00,50.340
1360.00,50.362
1361.00,50.298
1362.00,50.305
1363.00,50.376
1364.00,50.341
1365.00,50.323
1366.00,50.375
1367.00,50.311
1368.00,50.283
1369.00,50.326
1370.00,50.307
1371.00,50.275
1372.00,50.298
1373.00,50.292
1374.00,50.322
1375.00,50.291
1376.00,50.282
1377.00,50.275
1378.00,50.360
1379.00,50.310
1380.00,50.310
1381.00,50.313
1382.00,50.278
1383.00,50.287
1384.00,50.251
1385.00,50.242
1386.00,50.294
1387.00,50.258
1388.00,50.258
1389.00,50.217
1390.00,50.286
1391.00,50.252
1392.00,50.252
1393.00,50.310
1394.00,50.254
1395.00,50.244
1396.00,50.216
1397.00,50.292
1398.00,50.298
1399.00,50.272
1400.00,50.234
1401.00,50.245
1402.00,50.300
1403.00,50.282
1404.00,50.246
1405.00,50.306
1406.00,50.287
1407.00,50.328
1408.00,50.313
1409.00,50.286
1410.00,50.339
1411.00,50.312
1412.00,50.351
1413.00,50.327
1414.00,50.317
1415.00,50.369
1416.00,50.388
1417.00,50.390
1418.00,50.403
1419.00,50.383
1420.00,50.420
1421.00,50.444
1422.00,50.446
1423.00,50.455
1424.00,50.487
1425.00,50.476
1426.00,50.490
1427.00,50.516
1428.00,50.503
1429.00,50.538
1430.00,50.538
1431.00,50.533
1432.00,50.560
1433.00,50.579
1434.00,50.565
1435.00,50.610
1436.00,50.628
1437.00,50.623
1438.00,50.640
1439.00,50.670
1440.00,50.677
1441.00,50.680
1442.00,50.690
1443.00,50.745
1444.00,50.742
1445.00,50.742
1446.00,50.763
1447.00,50.781
1448.00,50.811
1449.00,50.819
1450.00,50.811
1451.00,50.833
1452.00,50.853
1453.00,50.870
1454.00,50.889
1455.00,50.899
1456.00,50.919
1457.00,50.923
1458.00,50.936
1459.00,50.955
1460.00,50.961
1461.00,50.975
1462.00,50.992
1463.00,51.011
1464.00,51.008
1465.00,51.050
1466.00,51.030
1467.00,51.065
1468.00,51.105
1469.00,51.092
1470.00,51.092
1471.00,51.120
1472.00,51.125
1473.00,51.134
1474.00,51.158
1475.00,51.149
1476.00,51.185
1477.00,51.178
1478.00,51.197
1479.00,51.234
1480.00,51.238
1481.00,51.249
1482.00,51.269
1483.00,51.265
1484.00,51.280
1485.00,51.292
1486.00,51.290
1487.00,51.321
1488.00,51.315
1489.00,51.316
1490.00,51.345
1491.00,51.356
1492.00,51.366
1493.00,51.360
1494.00,51.380
1495.00,51.386
1496.00,51.384
1497.00,51.402
1498.00,51.412
1499.00,51.426
1500.00,51.455
1501.00, 
1502.00, 
1503.00, 
1504.00, 
1505.00, 
1506.00, 
1507.00, 
1508.00, 
1509.00, 
1510.00, 
1511.00, 
1512.00, 
1513.00, 
1514.00, 
1515.00, 
1516.00, 
1517.00, 
1518.00, 
1519.00, 
1520.00, 
1521.00, 
1522.00, 
1523.00, 
1524.00, 
1525.00, 
1526.00, 
1527.00, 
1528.00, 
1529.00, 
1530.00, 
1531.00, 
1532.00, 
1533.00, 
1534.00, 
1535.00, 
1536.00, 
1537.00, 
1538.00, 
1539.00, 
1540.00, 
1541.00, 
1542.00, 
1543.00, 
1544.00, 
1545.00, 
1546.00, 
1547.00, 
1548.00, 
1549.00, 
1550.00, 
1551.00, 
1552.00, 
1553.00, 
1554.00, 
1555.00, 
1556.00, 
1557.00, 
1558.00, 
1559.00, 
1560.00, 
1561.00, 
1562.00, 
1563.00, 
1564.00, 
1565.00, 
1566.00, 
1567.00, 
1568.00, 
1569.00, 
1570.00, 
1571.00, 
1572.00, 
1573.00, 
1574.00, 
1575.00, 
1576.00, 
1577.00, 
1578.00, 
1579.00, 
1580.00, 
1581.00, 
1582.00, 
1583.00, 
1584.00, 
1585.00, 
1586.00, 
1587.00, 
1588.00, 
1589.00, 
1590.00, 
1591.00, 
1592.00, 
1593.00, 
1594.00, 
1595.00, 
1596.00, 
1597.00, 
1598.00, 
1599.00, 
1600.00, 
1601.00, 
1602.00, 
1603.00, 
1604.00, 
1605.00, 
1606.00, 
1607.00, 
1608.00, 
1609.00, 
1610.00, 
1611.00, 
1612.00, 
1613.00, 
1614.00, 
1615.00, 
1616.00, 
1617.00, 
1618.00, 
1619.00, 
1620.00, 
1621.00, 
1622.00, 
1623.00, 
1624.00, 
1625.00, 
1626.00, 
1627.00, 
1628.00, 
1629.00, 
1630.00, 
1631.00, 
1632.00, 
1633.00, 
1634.00, 
1635.00, 
1636.00, 
1637.00, 
1638.00, 
1639.00, 
1640.00, 
1641.00, 
1642.00, 
1643.00, 
1644.00, 
1645.00, 
1646.00, 
1647.00, 
1648.00, 
1649.00, 
1650.00, 
1651.00, 
1652.00, 
1653.00, 
1654.00, 
1655.00, 
1656.00, 
1657.00, 
1658.00, 
1659.00, 
1660.00, 
1661.00, 
1662.00, 
1663.00, 
1664.00, 
1665.00, 
1666.00, 
1667.00, 
1668.00, 
1669.00, 
1670.00, 
1671.00, 
1672.00, 
1673.00, 
1674.00, 
1675.00, 
1676.00, 
1677.00, 
1678.00, 
1679.00, 
1680.00, 
1681.00, 
1682.00, 
1683.00, 
1684.00, 
1685.00, 
1686.00, 
1687.00, 
1688.00, 
1689.00, 
1690.00, 
1691.00, 
1692.00, 
1693.00, 
1694.00, 
1695.00, 
1696.00, 
1697.00, 
1698.00, 
1699.00, 
1700.00, 
1701.00, 
1702.00, 
1703.00, 
1704.00, 
1705.00, 
1706.00, 
1707.00, 
1708.00, 
1709.00, 
1710.00, 
1711.00, 
1712.00, 
1713.00, 
1714.00, 
1715.00, 
1716.00, 
1717.00, 
1718.00, 
1719.00, 
1720.00, 
1721.00, 
1722.00, 
1723.00, 
1724.00, 
1725.00, 
1726.00, 
1727.00, 
1728.00, 
1729.00, 
1730.00, 
1731.00, 
1732.00, 
1733.00, 
1734.00, 
1735.00, 
1736.00, 
1737.00, 
1738.00, 
1739.00, 
1740.00, 
1741.00, 
1742.00, 
1743.00, 
1744.00, 
1745.00, 
1746.00, 
1747.00, 
1748.00, 
1749.00, 
1750.00, 
1751.00, 
1752.00, 
1753.00, 
1754.00, 
1755.00, 
1756.00, 
1757.00, 
1758.00, 
1759.00, 
1760.00, 
1761.00, 
1762.00, 
1763.00, 
1764.00, 
1765.00, 
1766.00, 
1767.00, 
1768.00, 
1769.00, 
1770.00, 
1771.00, 
1772.00, 
1773.00, 
1774.00, 
1775.00, 
1776.00, 
1777.00, 
1778.00, 
1779.00, 
1780.00, 
1781.00, 
1782.00, 
1783.00, 
1784.00, 
1785.00, 
1786.00, 
1787.00, 
1788.00, 
1789.00, 
1790.00, 
1791.00, 
1792.00, 
1793.00, 
1794.00, 
1795.00, 
1796.00, 
1797.00, 
1798.00, 
1799.00, 
1800.00, 
1801.00, 
1802.00, 
1803.00, 
1804.00, 
1805.00, 
1806.00, 
1807.00, 
1808.00, 
1809.00, 
1810.00, 
1811.00, 
1812.00, 
1813.00, 
1814.00, 
1815.00, 
1816.00, 
1817.00, 
1818.00, 
1819.00, 
1820.00, 
1821.00, 
1822.00, 
1823.00, 
1824.00, 
1825.00, 
1826.00, 
1827.00, 
1828.00, 
1829.00, 
1830.00, 
1831.00, 
1832.00, 
1833.00, 
1834.00, 
1835.00, 
1836.00, 
1837.00, 
1838.00, 
1839.00, 
1840.00, 
1841.00, 
1842.00, 
1843.00, 
1844.00, 
1845.00, 
1846.00, 
1847.00, 
1848.00, 
1849.00, 
1850.00, 
1851.00, 
1852.00, 
1853.00, 
1854.00, 
1855.00, 
1856.00, 
1857.00, 
1858.00, 
1859.00, 
1860.00, 
1861.00, 
1862.00, 
1863.00, 
1864.00, 
1865.00, 
1866.00, 
1867.00, 
1868.00, 
1869.00, 
1870.00, 
1871.00, 
1872.00, 
1873.00, 
1874.00, 
1875.00, 
1876.00, 
1877.00, 
1878.00, 
1879.00, 
1880.00, 
1881.00, 
1882.00, 
1883.00, 
1884.00, 
1885.00, 
1886.00, 
1887.00, 
1888.00, 
1889.00, 
1890.00, 
1891.00, 
1892.00, 
1893.00, 
1894.00, 
1895.00, 
1896.00, 
1897.00, 
1898.00, 
1899.00, 
1900.00, 
1901.00, 
1902.00, 
1903.00, 
1904.00, 
1905.00, 
1906.00, 
1907.00, 
1908.00, 
1909.00, 
1910.00, 
1911.00, 
1912.00, 
1913.00, 
1914.00, 
1915.00, 
1916.00, 
1917.00, 
1918.00, 
1919.00, 
1920.00, 
1921.00, 
1922.00, 
1923.00, 
1924.00, 
1925.00, 
1926.00, 
1927.00, 
1928.00, 
1929.00, 
1930.00, 
1931.00, 
1932.00, 
1933.00, 
1934.00, 
1935.00, 
1936.00, 
1937.00, 
1938.00, 
1939.00, 
1940.00, 
1941.00, 
1942.00, 
1943.00, 
1944.00, 
1945.00, 
1946.00, 
1947.00, 
1948.00, 
1949.00, 
1950.00, 
1951.00, 
1952.00, 
1953.00, 
1954.00, 
1955.00, 
1956.00, 
1957.00, 
1958.00, 
1959.00, 
1960.00, 
1961.00, 
1962.00, 
1963.00, 
1964.00, 
1965.00, 
1966.00, 
1967.00, 
1968.00, 
1969.00, 
1970.00, 
1971.00, 
1972.00, 
1973.00, 
1974.00, 
1975.00, 
1976.00, 
1977.00, 
1978.00, 
1979.00, 
1980.00, 
1981.00, 
1982.00, 
1983.00, 
1984.00, 
1985.00, 
1986.00, 
1987.00, 
1988.00, 
1989.00, 
1990.00, 
1991.00, 
1992.00, 
1993.00, 
1994.00, 
1995.00, 
1996.00, 
1997.00, 
1998.00, 
1999.00, 
2000.00, 
2001.00, 
2002.00, 
2003.00, 
2004.00, 
2005.00, 
2006.00, 
2007.00, 
2008.00, 
2009.00, 
2010.00, 
2011.00, 
2012.00, 
2013.00, 
2014.00, 
2015.00, 
2016.00, 
2017.00, 
2018.00, 
2019.00, 
2020.00, 
2021.00, 
2022.00, 
2023.00, 
2024.00, 
2025.00, 
2026.00, 
2027.00, 
2028.00, 
2029.00, 
2030.00, 
2031.00, 
2032.00, 
2033.00, 
2034.00, 
2035.00, 
2036.00, 
2037.00, 
2038.00, 
2039.00, 
2040.00, 
2041.00, 
2042.00, 
2043.00, 
2044.00, 
2045.00, 
2046.00, 
2047.00, 
2048.00, 
2049.00, 
2050.00, 
2051.00, 
2052.00, 
2053.00, 
2054.00, 
2055.00, 
2056.00, 
2057.00, 
2058.00, 
2059.00, 
2060.00, 
2061.00, 
2062.00, 
2063.00, 
2064.00, 
2065.00, 
2066.00, 
2067.00, 
2068.00, 
2069.00, 
2070.00, 
2071.00, 
2072.00, 
2073.00, 
2074.00, 
2075.00, 
2076.00, 
2077.00, 
2078.00, 
2079.00, 
2080.00, 
2081.00, 
2082.00, 
2083.00, 
2084.00, 
2085.00, 
2086.00, 
2087.00, 
2088.00, 
2089.00, 
2090.00, 
2091.00, 
2092.00, 
2093.00, 
2094.00, 
2095.00, 
2096.00, 
2097.00, 
2098.00, 
2099.00, 
2100.00, 
2101.00, 
2102.00, 
2103.00, 
2104.00, 
2105.00, 
2106.00, 
2107.00, 
2108.00, 
2109.00, 
2110.00, 
2111.00, 
2112.00, 
2113.00, 
2114.00, 
2115.00, 
2116.00, 
2117.00, 
2118.00, 
2119.00, 
2120.00, 
2121.00, 
2122.00, 
2123.00, 
2124.00, 
2125.00, 
2126.00, 
2127.00, 
2128.00, 
2129.00, 
2130.00, 
2131.00, 
2132.00, 
2133.00, 
2134.00, 
2135.00, 
2136.00, 
2137.00, 
2138.00, 
2139.00, 
2140.00, 
2141.00, 
2142.00, 
2143.00, 
2144.00, 
2145.00, 
2146.00, 
2147.00, 
2148.00, 
2149.00, 
2150.00, 
2151.00, 
2152.00, 
2153.00, 
2154.00, 
2155.00, 
2156.00, 
2157.00, 
2158.00, 
2159.00, 
2160.00, 
2161.00, 
2162.00, 
2163.00, 
2164.00, 
2165.00, 
2166.00, 
2167.00, 
2168.00, 
2169.00, 
2170.00, 
2171.00, 
2172.00, 
2173.00, 
2174.00, 
2175.00, 
2176.00, 
2177.00, 
2178.00, 
2179.00, 
2180.00, 
2181.00, 
2182.00, 
2183.00, 
2184.00, 
2185.00, 
2186.00, 
2187.00, 
2188.00, 
2189.00, 
2190.00, 
2191.00, 
2192.00, 
2193.00, 
2194.00, 
2195.00, 
2196.00, 
2197.00, 
2198.00, 
2199.00, 
2200.00, 
2201.00, 
2202.00, 
2203.00, 
2204.00, 
2205.00, 
2206.00, 
2207.00, 
2208.00, 
2209.00, 
2210.00, 
2211.00, 
2212.00, 
2213.00, 
2214.00, 
2215.00, 
2216.00, 
2217.00, 
2218.00, 
2219.00, 
2220.00, 
2221.00, 
2222.00, 
2223.00, 
2224.00, 
2225.00, 
2226.00, 
2227.00, 
2228.00, 
2229.00, 
2230.00, 
2231.00, 
2232.00, 
2233.00, 
2234.00, 
2235.00, 
2236.00, 
2237.00, 
2238.00, 
2239.00, 
2240.00, 
2241.00, 
2242.00, 
2243.00, 
2244.00, 
2245.00, 
2246.00, 
2247.00, 
2248.00, 
2249.00, 
2250.00, 
2251.00, 
2252.00, 
2253.00, 
2254.00, 
2255.00, 
2256.00, 
2257.00, 
2258.00, 
2259.00, 
2260.00, 
2261.00, 
2262.00, 
2263.00, 
2264.00, 
2265.00, 
2266.00, 
2267.00, 
2268.00, 
2269.00, 
2270.00, 
2271.00, 
2272.00, 
2273.00, 
2274.00, 
2275.00, 
2276.00, 
2277.00, 
2278.00, 
2279.00, 
2280.00, 
2281.00, 
2282.00, 
2283.00, 
2284.00, 
2285.00, 
2286.00, 
2287.00, 
2288.00, 
2289.00, 
2290.00, 
2291.00, 
2292.00, 
2293.00, 
2294.00, 
2295.00, 
2296.00, 
2297.00, 
2298.00, 
2299.00, 
2300.00, 
2301.00, 
2302.00, 
2303.00, 
2304.00, 
2305.00, 
2306.00, 
2307.00, 
2308.00, 
2309.00, 
2310.00, 
2311.00, 
2312.00, 
2313.00, 
2314.00, 
2315.00, 
2316.00, 
2317.00, 
2318.00, 
2319.00, 
2320.00, 
2321.00, 
2322.00, 
2323.00, 
2324.00, 
2325.00, 
2326.00, 
2327.00, 
2328.00, 
2329.00, 
2330.00, 
2331.00, 
2332.00, 
2333.00, 
2334.00, 
2335.00, 
2336.00, 
2337.00, 
2338.00, 
2339.00, 
2340.00, 
2341.00, 
2342.00, 
2343.00, 
2344.00, 
2345.00, 
2346.00, 
2347.00, 
2348.00, 
2349.00, 
2350.00, 
2351.00, 
2352.00, 
2353.00, 
2354.00, 
2355.00, 
2356.00, 
2357.00, 
2358.00, 
2359.00, 
2360.00, 
2361.00, 
2362.00, 
2363.00, 
2364.00, 
2365.00, 
2366.00, 
2367.00, 
2368.00, 
2369.00, 
2370.00, 
2371.00, 
2372.00, 
2373.00, 
2374.00, 
2375.00, 
2376.00, 
2377.00, 
2378.00, 
2379.00, 
2380.00, 
2381.00, 
2382.00, 
2383.00, 
2384.00, 
2385.00, 
2386.00, 
2387.00, 
2388.00, 
2389.00, 
2390.00, 
2391.00, 
2392.00, 
2393.00, 
2394.00, 
2395.00, 
2396.00, 
2397.00, 
2398.00, 
2399.00, 
2400.00, 
2401.00, 
2402.00, 
2403.00, 
2404.00, 
2405.00, 
2406.00, 
2407.00, 
2408.00, 
2409.00, 
2410.00, 
2411.00, 
2412.00, 
2413.00, 
2414.00, 
2415.00, 
2416.00, 
2417.00, 
2418.00, 
2419.00, 
2420.00, 
2421.00, 
2422.00, 
2423.00, 
2424.00, 
2425.00, 
2426.00, 
2427.00, 
2428.00, 
2429.00, 
2430.00, 
2431.00, 
2432.00, 
2433.00, 
2434.00, 
2435.00, 
2436.00, 
2437.00, 
2438.00, 
2439.00, 
2440.00, 
2441.00, 
2442.00, 
2443.00, 
2444.00, 
2445.00, 
2446.00, 
2447.00, 
2448.00, 
2449.00, 
2450.00, 
2451.00, 
2452.00, 
2453.00, 
2454.00, 
2455.00, 
2456.00, 
2457.00, 
2458.00, 
2459.00, 
2460.00, 
2461.00, 
2462.00, 
2463.00, 
2464.00, 
2465.00, 
2466.00, 
2467.00, 
2468.00, 
2469.00, 
2470.00, 
2471.00, 
2472.00, 
2473.00, 
2474.00, 
2475.00, 
2476.00, 
2477.00, 
2478.00, 
2479.00, 
2480.00, 
2481.00, 
2482.00, 
2483.00, 
2484.00, 
2485.00, 
2486.00, 
2487.00, 
2488.00, 
2489.00, 
2490.00, 
2491.00, 
2492.00, 
2493.00, 
2494.00, 
2495.00, 
2496.00, 
2497.00, 
2498.00, 
2499.00, 
2500.00, 
2501.00, 
2502.00, 
2503.00, 
2504.00, 
2505.00, 
2506.00, 
2507.00, 
2508.00, 
2509.00, 
2510.00, 
2511.00, 
2512.00, 
2513.00, 
2514.00, 
2515.00, 
2516.00, 
2517.00, 
2518.00, 
2519.00, 
2520.00, 
2521.00, 
2522.00, 
2523.00, 
2524.00, 
2525.00, 
2526.00, 
2527.00, 
2528.00, 
2529.00, 
2530.00, 
2531.00, 
2532.00, 
2533.00, 
2534.00, 
2535.00, 
2536.00, 
2537.00, 
2538.00, 
2539.00, 
2540.00, 
2541.00, 
2542.00, 
2543.00, 
2544.00, 
2545.00, 
2546.00, 
2547.00, 
2548.00, 
2549.00, 
2550.00, 
2551.00, 
2552.00, 
2553.00, 
2554.00, 
2555.00, 
2556.00, 
2557.00, 
2558.00, 
2559.00, 
2560.00, 
2561.00, 
2562.00, 
2563.00, 
2564.00, 
2565.00, 
2566.00, 
2567.00, 
2568.00, 
2569.00, 
2570.00, 
2571.00, 
2572.00, 
2573.00, 
2574.00, 
2575.00, 
2576.00, 
2577.00, 
2578.00, 
2579.00, 
2580.00, 
2581.00, 
2582.00, 
2583.00, 
2584.00, 
2585.00, 
2586.00, 
2587.00, 
2588.00, 
2589.00, 
2590.00, 
2591.00, 
2592.00, 
2593.00, 
2594.00, 
2595.00, 
2596.00, 
2597.00, 
2598.00, 
2599.00, 
2600.00, 
