"2cP1 - RawData"
"Wavelength nm.","T%"
200.00,0.001
201.00,0.000
202.00,0.001
203.00,0.002
204.00,0.003
205.00,0.002
206.00,0.002
207.00,-0.001
208.00,-0.000
209.00,0.003
210.00,0.002
211.00,0.003
212.00,0.001
213.00,0.003
214.00,0.001
215.00,0.002
216.00,0.003
217.00,0.005
218.00,0.004
219.00,0.002
220.00,0.001
221.00,0.002
222.00,0.003
223.00,0.000
224.00,-0.000
225.00,0.004
226.00,-0.001
227.00,-0.003
228.00,-0.000
229.00,0.000
230.00,0.001
231.00,0.001
232.00,-0.000
233.00,-0.000
234.00,-0.000
235.00,0.002
236.00,-0.001
237.00,0.001
238.00,0.002
239.00,0.001
240.00,0.000
241.00,0.002
242.00,-0.000
243.00,0.001
244.00,-0.000
245.00,0.001
246.00,0.001
247.00,0.000
248.00,-0.000
249.00,0.000
250.00,0.001
251.00,0.001
252.00,0.000
253.00,-0.001
254.00,-0.001
255.00,0.000
256.00,-0.000
257.00,-0.000
258.00,-0.001
259.00,-0.001
260.00,0.002
261.00,-0.001
262.00,-0.001
263.00,-0.000
264.00,0.000
265.00,-0.001
266.00,0.000
267.00,0.001
268.00,0.003
269.00,0.001
270.00,-0.001
271.00,-0.001
272.00,0.000
273.00,-0.000
274.00,-0.000
275.00,0.001
276.00,-0.000
277.00,-0.001
278.00,0.001
279.00,0.001
280.00,-0.000
281.00,0.001
282.00,0.000
283.00,-0.001
284.00,-0.002
285.00,0.001
286.00,0.001
287.00,-0.001
288.00,-0.000
289.00,-0.000
290.00,0.002
291.00,0.000
292.00,0.001
293.00,0.001
294.00,0.001
295.00,0.001
296.00,-0.000
297.00,-0.001
298.00,0.000
299.00,0.002
300.00,0.002
301.00,0.003
302.00,0.005
303.00,0.006
304.00,0.009
305.00,0.015
306.00,0.023
307.00,0.035
308.00,0.056
309.00,0.086
310.00,0.120
311.00,0.162
312.00,0.229
313.00,0.306
314.00,0.403
315.00,0.527
316.00,0.669
317.00,0.848
318.00,1.043
319.00,1.287
320.00,1.562
321.00,1.871
322.00,2.220
323.00,2.596
324.00,3.015
325.00,3.442
326.00,3.889
327.00,4.389
328.00,4.895
329.00,5.411
330.00,5.963
331.00,6.547
332.00,7.078
333.00,7.685
334.00,8.235
335.00,8.823
336.00,9.384
337.00,9.965
338.00,10.509
339.00,11.051
340.00,11.573
341.00,12.101
342.00,12.594
343.00,13.066
344.00,13.511
345.00,13.912
346.00,14.366
347.00,14.758
348.00,15.127
349.00,15.465
350.00,15.782
351.00,16.100
352.00,16.319
353.00,16.654
354.00,16.840
355.00,17.108
356.00,17.297
357.00,17.536
358.00,17.723
359.00,17.875
360.00,18.022
361.00,18.187
362.00,18.328
363.00,18.447
364.00,18.589
365.00,18.682
366.00,18.737
367.00,18.789
368.00,18.853
369.00,18.853
370.00,18.921
371.00,18.964
372.00,18.926
373.00,18.924
374.00,18.914
375.00,18.927
376.00,18.868
377.00,18.818
378.00,18.755
379.00,18.723
380.00,18.730
381.00,18.672
382.00,18.668
383.00,18.677
384.00,18.673
385.00,18.720
386.00,18.705
387.00,18.751
388.00,18.753
389.00,18.798
390.00,18.775
391.00,18.798
392.00,18.800
393.00,18.816
394.00,18.818
395.00,18.819
396.00,18.812
397.00,18.811
398.00,18.822
399.00,18.814
400.00,18.827
401.00,18.823
402.00,18.819
403.00,18.813
404.00,18.774
405.00,18.778
406.00,18.740
407.00,18.716
408.00,18.691
409.00,18.658
410.00,18.651
411.00,18.589
412.00,18.585
413.00,18.581
414.00,18.628
415.00,18.615
416.00,18.672
417.00,18.660
418.00,18.650
419.00,18.677
420.00,18.686
421.00,18.787
422.00,18.801
423.00,18.799
424.00,18.839
425.00,18.870
426.00,18.902
427.00,18.944
428.00,18.975
429.00,19.038
430.00,19.072
431.00,19.108
432.00,19.203
433.00,19.199
434.00,19.262
435.00,19.297
436.00,19.358
437.00,19.444
438.00,19.495
439.00,19.572
440.00,19.615
441.00,19.698
442.00,19.761
443.00,19.861
444.00,19.942
445.00,19.993
446.00,20.117
447.00,20.196
448.00,20.297
449.00,20.402
450.00,20.495
451.00,20.607
452.00,20.677
453.00,20.800
454.00,20.872
455.00,20.979
456.00,21.098
457.00,21.208
458.00,21.302
459.00,21.399
460.00,21.556
461.00,21.654
462.00,21.784
463.00,21.907
464.00,22.019
465.00,22.156
466.00,22.254
467.00,22.404
468.00,22.463
469.00,22.607
470.00,22.702
471.00,22.810
472.00,22.941
473.00,22.990
474.00,23.087
475.00,23.299
476.00,23.421
477.00,23.543
478.00,23.686
479.00,23.840
480.00,23.980
481.00,24.133
482.00,24.247
483.00,24.413
484.00,24.547
485.00,24.715
486.00,24.864
487.00,24.993
488.00,25.127
489.00,25.303
490.00,25.438
491.00,25.575
492.00,25.707
493.00,25.891
494.00,26.001
495.00,26.054
496.00,26.234
497.00,26.294
498.00,26.481
499.00,26.615
500.00,26.678
501.00,26.928
502.00,27.043
503.00,27.151
504.00,27.272
505.00,27.413
506.00,27.541
507.00,27.665
508.00,27.783
509.00,27.960
510.00,28.062
511.00,28.136
512.00,28.344
513.00,28.418
514.00,28.591
515.00,28.725
516.00,28.821
517.00,28.940
518.00,29.076
519.00,29.155
520.00,29.255
521.00,29.336
522.00,29.428
523.00,29.552
524.00,29.611
525.00,29.700
526.00,29.820
527.00,29.955
528.00,29.999
529.00,30.098
530.00,30.195
531.00,30.380
532.00,30.470
533.00,30.544
534.00,30.673
535.00,30.787
536.00,30.875
537.00,30.951
538.00,31.067
539.00,31.128
540.00,31.190
541.00,31.320
542.00,31.324
543.00,31.417
544.00,31.474
545.00,31.568
546.00,31.660
547.00,31.744
548.00,31.845
549.00,31.859
550.00,31.981
551.00,32.058
552.00,32.107
553.00,32.220
554.00,32.284
555.00,32.314
556.00,32.383
557.00,32.427
558.00,32.525
559.00,32.664
560.00,32.700
561.00,32.760
562.00,32.854
563.00,32.840
564.00,32.963
565.00,32.999
566.00,33.028
567.00,33.108
568.00,33.126
569.00,33.202
570.00,33.202
571.00,33.304
572.00,33.303
573.00,33.386
574.00,33.410
575.00,33.436
576.00,33.519
577.00,33.476
578.00,33.575
579.00,33.574
580.00,33.778
581.00,33.926
582.00,33.958
583.00,34.046
584.00,34.146
585.00,34.181
586.00,34.208
587.00,34.318
588.00,34.361
589.00,34.408
590.00,34.462
591.00,34.520
592.00,34.543
593.00,34.592
594.00,34.616
595.00,34.662
596.00,34.747
597.00,34.776
598.00,34.883
599.00,34.932
600.00,34.987
601.00,35.077
602.00,35.078
603.00,35.141
604.00,35.180
605.00,35.198
606.00,35.326
607.00,35.325
608.00,35.420
609.00,35.456
610.00,35.477
611.00,35.555
612.00,35.608
613.00,35.680
614.00,35.682
615.00,35.739
616.00,35.858
617.00,35.820
618.00,35.924
619.00,36.022
620.00,36.037
621.00,36.117
622.00,36.204
623.00,36.261
624.00,36.351
625.00,36.400
626.00,36.472
627.00,36.526
628.00,36.553
629.00,36.643
630.00,36.676
631.00,36.743
632.00,36.859
633.00,36.899
634.00,36.935
635.00,37.038
636.00,37.129
637.00,37.379
638.00,37.355
639.00,37.444
640.00,37.505
641.00,37.564
642.00,37.653
643.00,37.720
644.00,37.840
645.00,37.865
646.00,38.079
647.00,38.118
648.00,38.165
649.00,38.307
650.00,38.285
651.00,38.439
652.00,38.571
653.00,38.591
654.00,38.752
655.00,38.819
656.00,38.941
657.00,39.088
658.00,39.146
659.00,39.185
660.00,39.378
661.00,39.346
662.00,39.580
663.00,39.660
664.00,39.753
665.00,39.828
666.00,39.988
667.00,40.148
668.00,40.130
669.00,40.270
670.00,40.357
671.00,40.382
672.00,40.552
673.00,40.559
674.00,40.769
675.00,40.888
676.00,40.794
677.00,41.119
678.00,41.172
679.00,41.234
680.00,41.358
681.00,41.496
682.00,41.575
683.00,41.682
684.00,41.834
685.00,41.906
686.00,41.931
687.00,42.052
688.00,42.161
689.00,42.243
690.00,42.195
691.00,42.489
692.00,42.401
693.00,42.653
694.00,42.738
695.00,42.873
696.00,42.986
697.00,43.012
698.00,43.244
699.00,43.353
700.00,43.443
701.00,43.517
702.00,43.623
703.00,43.758
704.00,43.730
705.00,43.811
706.00,44.041
707.00,44.125
708.00,44.051
709.00,44.209
710.00,44.474
711.00,44.329
712.00,44.461
713.00,44.576
714.00,44.527
715.00,44.800
716.00,44.933
717.00,44.869
718.00,44.939
719.00,44.974
720.00,45.171
721.00,49.185
722.00,49.162
723.00,49.190
724.00,49.239
725.00,49.176
726.00,49.291
727.00,49.394
728.00,49.368
729.00,49.488
730.00,49.506
731.00,49.515
732.00,49.603
733.00,49.626
734.00,49.626
735.00,49.726
736.00,49.880
737.00,49.771
738.00,49.898
739.00,49.902
740.00,49.939
741.00,50.032
742.00,50.086
743.00,50.102
744.00,50.024
745.00,50.063
746.00,50.116
747.00,50.100
748.00,50.121
749.00,50.147
750.00,50.198
751.00,50.290
752.00,50.219
753.00,50.192
754.00,50.324
755.00,50.219
756.00,50.305
757.00,50.303
758.00,50.349
759.00,50.405
760.00,50.340
761.00,50.476
762.00,50.373
763.00,50.500
764.00,50.533
765.00,50.463
766.00,50.512
767.00,50.541
768.00,50.640
769.00,50.591
770.00,50.657
771.00,50.608
772.00,50.684
773.00,50.628
774.00,50.708
775.00,50.766
776.00,50.785
777.00,50.724
778.00,50.786
779.00,50.794
780.00,50.752
781.00,50.781
782.00,50.764
783.00,50.770
784.00,50.828
785.00,50.822
786.00,50.786
787.00,50.755
788.00,50.800
789.00,50.830
790.00,50.818
791.00,50.856
792.00,50.789
793.00,50.770
794.00,50.806
795.00,50.755
796.00,50.779
797.00,50.801
798.00,50.751
799.00,50.737
800.00,50.699
801.00,50.771
802.00,50.761
803.00,50.768
804.00,50.791
805.00,50.718
806.00,50.759
807.00,50.763
808.00,50.733
809.00,50.625
810.00,50.695
811.00,50.667
812.00,50.712
813.00,50.711
814.00,50.634
815.00,50.683
816.00,50.699
817.00,50.611
818.00,50.564
819.00,50.650
820.00,50.667
821.00,50.614
822.00,50.613
823.00,50.457
824.00,50.592
825.00,50.491
826.00,50.606
827.00,50.647
828.00,50.537
829.00,50.568
830.00,50.634
831.00,53.011
832.00,52.995
833.00,52.959
834.00,52.980
835.00,52.965
836.00,52.944
837.00,52.954
838.00,52.934
839.00,52.937
840.00,52.877
841.00,52.924
842.00,52.878
843.00,52.860
844.00,52.872
845.00,52.824
846.00,52.840
847.00,52.774
848.00,52.768
849.00,52.760
850.00,52.706
851.00,52.668
852.00,52.623
853.00,52.609
854.00,52.590
855.00,52.571
856.00,52.550
857.00,52.522
858.00,52.507
859.00,52.496
860.00,52.496
861.00,52.508
862.00,52.433
863.00,52.444
864.00,52.355
865.00,52.401
866.00,52.380
867.00,52.414
868.00,52.371
869.00,52.354
870.00,52.337
871.00,52.330
872.00,52.353
873.00,52.329
874.00,52.330
875.00,52.318
876.00,52.291
877.00,52.316
878.00,52.313
879.00,52.266
880.00,52.263
881.00,52.247
882.00,52.215
883.00,52.295
884.00,52.189
885.00,52.145
886.00,52.180
887.00,52.133
888.00,52.114
889.00,52.092
890.00,52.094
891.00,52.086
892.00,52.045
893.00,52.022
894.00,52.040
895.00,51.998
896.00,51.961
897.00,51.964
898.00,51.935
899.00,51.923
900.00,51.919
901.00,51.911
902.00,51.915
903.00,51.899
904.00,51.881
905.00,51.863
906.00,51.865
907.00,51.820
908.00,51.809
909.00,51.792
910.00,51.760
911.00,51.746
912.00,51.759
913.00,51.711
914.00,51.696
915.00,51.683
916.00,51.649
917.00,51.611
918.00,51.590
919.00,51.585
920.00,51.582
921.00,51.563
922.00,51.559
923.00,51.539
924.00,51.513
925.00,51.516
926.00,51.490
927.00,51.453
928.00,51.441
929.00,51.442
930.00,51.377
931.00,51.395
932.00,51.370
933.00,51.363
934.00,51.355
935.00,51.326
936.00,51.310
937.00,51.273
938.00,51.312
939.00,51.266
940.00,51.218
941.00,51.226
942.00,51.195
943.00,51.190
944.00,51.154
945.00,51.157
946.00,51.131
947.00,51.093
948.00,51.091
949.00,51.059
950.00,51.030
951.00,51.023
952.00,50.975
953.00,50.972
954.00,50.990
955.00,50.903
956.00,50.916
957.00,50.879
958.00,50.896
959.00,50.844
960.00,50.825
961.00,50.807
962.00,50.825
963.00,50.782
964.00,50.765
965.00,50.752
966.00,50.741
967.00,50.752
968.00,50.723
969.00,50.750
970.00,50.734
971.00,50.737
972.00,50.720
973.00,50.737
974.00,50.765
975.00,50.736
976.00,50.760
977.00,50.732
978.00,50.772
979.00,50.730
980.00,50.737
981.00,50.752
982.00,50.704
983.00,50.723
984.00,50.733
985.00,50.722
986.00,50.680
987.00,50.702
988.00,50.679
989.00,50.647
990.00,50.654
991.00,50.631
992.00,50.655
993.00,50.609
994.00,50.596
995.00,50.604
996.00,50.596
997.00,50.591
998.00,50.543
999.00,50.565
1000.00,50.521
1001.00,50.534
1002.00,50.526
1003.00,50.512
1004.00,50.478
1005.00,50.462
1006.00,50.490
1007.00,50.449
1008.00,50.432
1009.00,50.430
1010.00,50.400
1011.00,50.400
1012.00,50.358
1013.00,50.361
1014.00,50.330
1015.00,50.349
1016.00,50.313
1017.00,50.302
1018.00,50.285
1019.00,50.252
1020.00,50.249
1021.00,50.237
1022.00,50.221
1023.00,50.188
1024.00,50.185
1025.00,50.190
1026.00,50.180
1027.00,50.135
1028.00,50.156
1029.00,50.125
1030.00,50.089
1031.00,50.103
1032.00,50.059
1033.00,50.056
1034.00,50.020
1035.00,49.996
1036.00,49.990
1037.00,49.973
1038.00,49.951
1039.00,49.928
1040.00,49.926
1041.00,49.880
1042.00,49.896
1043.00,49.853
1044.00,49.892
1045.00,49.855
1046.00,49.846
1047.00,49.858
1048.00,49.864
1049.00,49.866
1050.00,49.887
1051.00,49.910
1052.00,49.938
1053.00,49.932
1054.00,49.926
1055.00,49.941
1056.00,49.945
1057.00,49.958
1058.00,49.948
1059.00,49.933
1060.00,49.941
1061.00,49.929
1062.00,49.915
1063.00,49.933
1064.00,49.909
1065.00,49.897
1066.00,49.893
1067.00,49.886
1068.00,49.916
1069.00,49.858
1070.00,49.851
1071.00,49.825
1072.00,49.838
1073.00,49.824
1074.00,49.811
1075.00,49.804
1076.00,49.782
1077.00,49.781
1078.00,49.761
1079.00,49.752
1080.00,49.770
1081.00,49.733
1082.00,49.741
1083.00,49.740
1084.00,49.731
1085.00,49.722
1086.00,49.713
1087.00,49.718
1088.00,49.698
1089.00,49.685
1090.00,49.674
1091.00,49.673
1092.00,49.658
1093.00,49.676
1094.00,49.635
1095.00,49.623
1096.00,49.608
1097.00,49.595
1098.00,49.595
1099.00,49.574
1100.00,49.568
1101.00,49.557
1102.00,49.560
1103.00,49.542
1104.00,49.534
1105.00,49.539
1106.00,49.534
1107.00,49.497
1108.00,49.498
1109.00,49.488
1110.00,49.486
1111.00,49.472
1112.00,49.467
1113.00,49.467
1114.00,49.466
1115.00,49.454
1116.00,49.444
1117.00,49.424
1118.00,49.430
1119.00,49.425
1120.00,49.413
1121.00,49.386
1122.00,49.393
1123.00,49.370
1124.00,49.382
1125.00,49.363
1126.00,49.357
1127.00,49.377
1128.00,49.346
1129.00,49.337
1130.00,49.331
1131.00,49.318
1132.00,49.312
1133.00,49.299
1134.00,49.307
1135.00,49.296
1136.00,49.286
1137.00,49.269
1138.00,49.282
1139.00,49.276
1140.00,49.264
1141.00,49.259
1142.00,49.252
1143.00,49.260
1144.00,49.242
1145.00,49.234
1146.00,49.235
1147.00,49.235
1148.00,49.227
1149.00,49.244
1150.00,49.235
1151.00,49.229
1152.00,49.220
1153.00,49.220
1154.00,49.208
1155.00,49.206
1156.00,49.189
1157.00,49.216
1158.00,49.199
1159.00,49.195
1160.00,49.209
1161.00,49.186
1162.00,49.167
1163.00,49.188
1164.00,49.177
1165.00,49.152
1166.00,49.156
1167.00,49.151
1168.00,49.168
1169.00,49.172
1170.00,49.135
1171.00,49.154
1172.00,49.157
1173.00,49.138
1174.00,49.145
1175.00,49.150
1176.00,49.146
1177.00,49.131
1178.00,49.138
1179.00,49.150
1180.00,49.127
1181.00,49.143
1182.00,49.151
1183.00,49.129
1184.00,49.119
1185.00,49.140
1186.00,49.117
1187.00,49.132
1188.00,49.112
1189.00,49.101
1190.00,49.113
1191.00,49.102
1192.00,49.119
1193.00,49.103
1194.00,49.119
1195.00,49.095
1196.00,49.104
1197.00,49.110
1198.00,49.105
1199.00,49.098
1200.00,49.095
1201.00,49.095
1202.00,49.082
1203.00,49.067
1204.00,49.078
1205.00,49.099
1206.00,49.096
1207.00,49.087
1208.00,49.064
1209.00,49.067
1210.00,49.063
1211.00,49.071
1212.00,49.086
1213.00,49.051
1214.00,49.062
1215.00,49.068
1216.00,49.065
1217.00,49.066
1218.00,49.063
1219.00,49.072
1220.00,49.059
1221.00,49.071
1222.00,49.060
1223.00,49.074
1224.00,49.066
1225.00,49.053
1226.00,49.078
1227.00,49.059
1228.00,49.077
1229.00,49.052
1230.00,49.105
1231.00,49.112
1232.00,49.104
1233.00,49.145
1234.00,49.119
1235.00,49.099
1236.00,49.100
1237.00,49.103
1238.00,49.100
1239.00,49.111
1240.00,49.098
1241.00,49.099
1242.00,49.094
1243.00,49.119
1244.00,49.102
1245.00,49.119
1246.00,49.127
1247.00,49.122
1248.00,49.123
1249.00,49.123
1250.00,49.118
1251.00,49.128
1252.00,49.136
1253.00,49.124
1254.00,49.145
1255.00,49.144
1256.00,49.128
1257.00,49.098
1258.00,49.154
1259.00,49.162
1260.00,49.175
1261.00,49.168
1262.00,49.163
1263.00,49.161
1264.00,49.161
1265.00,49.171
1266.00,49.176
1267.00,49.191
1268.00,49.185
1269.00,49.175
1270.00,49.193
1271.00,49.186
1272.00,49.187
1273.00,49.191
1274.00,49.190
1275.00,49.196
1276.00,49.202
1277.00,49.203
1278.00,49.217
1279.00,49.220
1280.00,49.221
1281.00,49.243
1282.00,49.243
1283.00,49.220
1284.00,49.233
1285.00,49.215
1286.00,49.230
1287.00,49.221
1288.00,49.233
1289.00,49.235
1290.00,49.242
1291.00,49.253
1292.00,49.268
1293.00,49.249
1294.00,49.261
1295.00,49.282
1296.00,49.275
1297.00,49.276
1298.00,49.297
1299.00,49.276
1300.00,49.304
1301.00,49.297
1302.00,49.293
1303.00,49.324
1304.00,49.289
1305.00,49.314
1306.00,49.324
1307.00,49.331
1308.00,49.332
1309.00,49.332
1310.00,49.338
1311.00,49.341
1312.00,49.331
1313.00,49.329
1314.00,49.357
1315.00,49.357
1316.00,49.354
1317.00,49.379
1318.00,49.355
1319.00,49.377
1320.00,49.390
1321.00,49.565
1322.00,49.576
1323.00,49.567
1324.00,49.568
1325.00,49.531
1326.00,49.568
1327.00,49.550
1328.00,49.561
1329.00,49.568
1330.00,49.563
1331.00,49.563
1332.00,49.571
1333.00,49.558
1334.00,49.589
1335.00,49.613
1336.00,49.630
1337.00,49.667
1338.00,49.724
1339.00,49.767
1340.00,49.821
1341.00,49.873
1342.00,49.942
1343.00,49.996
1344.00,50.041
1345.00,50.093
1346.00,50.142
1347.00,50.156
1348.00,50.189
1349.00,50.217
1350.00,50.219
1351.00,50.237
1352.00,50.229
1353.00,50.244
1354.00,50.244
1355.00,50.209
1356.00,50.262
1357.00,50.260
1358.00,50.268
1359.00,50.294
1360.00,50.305
1361.00,50.231
1362.00,50.269
1363.00,50.345
1364.00,50.268
1365.00,50.268
1366.00,50.299
1367.00,50.264
1368.00,50.225
1369.00,50.256
1370.00,50.241
1371.00,50.210
1372.00,50.235
1373.00,50.237
1374.00,50.255
1375.00,50.229
1376.00,50.241
1377.00,50.226
1378.00,50.276
1379.00,50.233
1380.00,50.235
1381.00,50.233
1382.00,50.199
1383.00,50.225
1384.00,50.180
1385.00,50.192
1386.00,50.237
1387.00,50.178
1388.00,50.169
1389.00,50.184
1390.00,50.245
1391.00,50.180
1392.00,50.200
1393.00,50.205
1394.00,50.185
1395.00,50.188
1396.00,50.155
1397.00,50.169
1398.00,50.214
1399.00,50.156
1400.00,50.370
1401.00,50.212
1402.00,50.285
1403.00,50.200
1404.00,50.218
1405.00,50.249
1406.00,50.253
1407.00,50.267
1408.00,50.234
1409.00,50.246
1410.00,50.269
1411.00,50.267
1412.00,50.292
1413.00,50.252
1414.00,50.267
1415.00,50.308
1416.00,50.318
1417.00,50.329
1418.00,50.329
1419.00,50.318
1420.00,50.342
1421.00,50.358
1422.00,50.357
1423.00,50.365
1424.00,50.387
1425.00,50.393
1426.00,50.409
1427.00,50.424
1428.00,50.446
1429.00,50.461
1430.00,50.474
1431.00,50.479
1432.00,50.491
1433.00,50.529
1434.00,50.526
1435.00,50.557
1436.00,50.566
1437.00,50.565
1438.00,50.575
1439.00,50.606
1440.00,50.610
1441.00,50.612
1442.00,50.624
1443.00,50.658
1444.00,50.681
1445.00,50.668
1446.00,50.672
1447.00,50.716
1448.00,50.731
1449.00,50.738
1450.00,50.740
1451.00,50.752
1452.00,50.758
1453.00,50.789
1454.00,50.786
1455.00,50.814
1456.00,50.839
1457.00,50.824
1458.00,50.860
1459.00,50.867
1460.00,50.887
1461.00,50.913
1462.00,50.914
1463.00,50.940
1464.00,50.933
1465.00,50.950
1466.00,50.958
1467.00,50.994
1468.00,51.013
1469.00,51.013
1470.00,51.030
1471.00,51.038
1472.00,51.058
1473.00,51.057
1474.00,51.083
1475.00,51.087
1476.00,51.085
1477.00,51.093
1478.00,51.107
1479.00,51.124
1480.00,51.138
1481.00,51.156
1482.00,51.185
1483.00,51.179
1484.00,51.183
1485.00,51.201
1486.00,51.211
1487.00,51.222
1488.00,51.237
1489.00,51.237
1490.00,51.252
1491.00,51.264
1492.00,51.275
1493.00,51.278
1494.00,51.307
1495.00,51.309
1496.00,51.304
1497.00,51.310
1498.00,51.309
1499.00,51.329
1500.00,51.362
1501.00, 
1502.00, 
1503.00, 
1504.00, 
1505.00, 
1506.00, 
1507.00, 
1508.00, 
1509.00, 
1510.00, 
1511.00, 
1512.00, 
1513.00, 
1514.00, 
1515.00, 
1516.00, 
1517.00, 
1518.00, 
1519.00, 
1520.00, 
1521.00, 
1522.00, 
1523.00, 
1524.00, 
1525.00, 
1526.00, 
1527.00, 
1528.00, 
1529.00, 
1530.00, 
1531.00, 
1532.00, 
1533.00, 
1534.00, 
1535.00, 
1536.00, 
1537.00, 
1538.00, 
1539.00, 
1540.00, 
1541.00, 
1542.00, 
1543.00, 
1544.00, 
1545.00, 
1546.00, 
1547.00, 
1548.00, 
1549.00, 
1550.00, 
1551.00, 
1552.00, 
1553.00, 
1554.00, 
1555.00, 
1556.00, 
1557.00, 
1558.00, 
1559.00, 
1560.00, 
1561.00, 
1562.00, 
1563.00, 
1564.00, 
1565.00, 
1566.00, 
1567.00, 
1568.00, 
1569.00, 
1570.00, 
1571.00, 
1572.00, 
1573.00, 
1574.00, 
1575.00, 
1576.00, 
1577.00, 
1578.00, 
1579.00, 
1580.00, 
1581.00, 
1582.00, 
1583.00, 
1584.00, 
1585.00, 
1586.00, 
1587.00, 
1588.00, 
1589.00, 
1590.00, 
1591.00, 
1592.00, 
1593.00, 
1594.00, 
1595.00, 
1596.00, 
1597.00, 
1598.00, 
1599.00, 
1600.00, 
1601.00, 
1602.00, 
1603.00, 
1604.00, 
1605.00, 
1606.00, 
1607.00, 
1608.00, 
1609.00, 
1610.00, 
1611.00, 
1612.00, 
1613.00, 
1614.00, 
1615.00, 
1616.00, 
1617.00, 
1618.00, 
1619.00, 
1620.00, 
1621.00, 
1622.00, 
1623.00, 
1624.00, 
1625.00, 
1626.00, 
1627.00, 
1628.00, 
1629.00, 
1630.00, 
1631.00, 
1632.00, 
1633.00, 
1634.00, 
1635.00, 
1636.00, 
1637.00, 
1638.00, 
1639.00, 
1640.00, 
1641.00, 
1642.00, 
1643.00, 
1644.00, 
1645.00, 
1646.00, 
1647.00, 
1648.00, 
1649.00, 
1650.00, 
1651.00, 
1652.00, 
1653.00, 
1654.00, 
1655.00, 
1656.00, 
1657.00, 
1658.00, 
1659.00, 
1660.00, 
1661.00, 
1662.00, 
1663.00, 
1664.00, 
1665.00, 
1666.00, 
1667.00, 
1668.00, 
1669.00, 
1670.00, 
1671.00, 
1672.00, 
1673.00, 
1674.00, 
1675.00, 
1676.00, 
1677.00, 
1678.00, 
1679.00, 
1680.00, 
1681.00, 
1682.00, 
1683.00, 
1684.00, 
1685.00, 
1686.00, 
1687.00, 
1688.00, 
1689.00, 
1690.00, 
1691.00, 
1692.00, 
1693.00, 
1694.00, 
1695.00, 
1696.00, 
1697.00, 
1698.00, 
1699.00, 
1700.00, 
1701.00, 
1702.00, 
1703.00, 
1704.00, 
1705.00, 
1706.00, 
1707.00, 
1708.00, 
1709.00, 
1710.00, 
1711.00, 
1712.00, 
1713.00, 
1714.00, 
1715.00, 
1716.00, 
1717.00, 
1718.00, 
1719.00, 
1720.00, 
1721.00, 
1722.00, 
1723.00, 
1724.00, 
1725.00, 
1726.00, 
1727.00, 
1728.00, 
1729.00, 
1730.00, 
1731.00, 
1732.00, 
1733.00, 
1734.00, 
1735.00, 
1736.00, 
1737.00, 
1738.00, 
1739.00, 
1740.00, 
1741.00, 
1742.00, 
1743.00, 
1744.00, 
1745.00, 
1746.00, 
1747.00, 
1748.00, 
1749.00, 
1750.00, 
1751.00, 
1752.00, 
1753.00, 
1754.00, 
1755.00, 
1756.00, 
1757.00, 
1758.00, 
1759.00, 
1760.00, 
1761.00, 
1762.00, 
1763.00, 
1764.00, 
1765.00, 
1766.00, 
1767.00, 
1768.00, 
1769.00, 
1770.00, 
1771.00, 
1772.00, 
1773.00, 
1774.00, 
1775.00, 
1776.00, 
1777.00, 
1778.00, 
1779.00, 
1780.00, 
1781.00, 
1782.00, 
1783.00, 
1784.00, 
1785.00, 
1786.00, 
1787.00, 
1788.00, 
1789.00, 
1790.00, 
1791.00, 
1792.00, 
1793.00, 
1794.00, 
1795.00, 
1796.00, 
1797.00, 
1798.00, 
1799.00, 
1800.00, 
1801.00, 
1802.00, 
1803.00, 
1804.00, 
1805.00, 
1806.00, 
1807.00, 
1808.00, 
1809.00, 
1810.00, 
1811.00, 
1812.00, 
1813.00, 
1814.00, 
1815.00, 
1816.00, 
1817.00, 
1818.00, 
1819.00, 
1820.00, 
1821.00, 
1822.00, 
1823.00, 
1824.00, 
1825.00, 
1826.00, 
1827.00, 
1828.00, 
1829.00, 
1830.00, 
1831.00, 
1832.00, 
1833.00, 
1834.00, 
1835.00, 
1836.00, 
1837.00, 
1838.00, 
1839.00, 
1840.00, 
1841.00, 
1842.00, 
1843.00, 
1844.00, 
1845.00, 
1846.00, 
1847.00, 
1848.00, 
1849.00, 
1850.00, 
1851.00, 
1852.00, 
1853.00, 
1854.00, 
1855.00, 
1856.00, 
1857.00, 
1858.00, 
1859.00, 
1860.00, 
1861.00, 
1862.00, 
1863.00, 
1864.00, 
1865.00, 
1866.00, 
1867.00, 
1868.00, 
1869.00, 
1870.00, 
1871.00, 
1872.00, 
1873.00, 
1874.00, 
1875.00, 
1876.00, 
1877.00, 
1878.00, 
1879.00, 
1880.00, 
1881.00, 
1882.00, 
1883.00, 
1884.00, 
1885.00, 
1886.00, 
1887.00, 
1888.00, 
1889.00, 
1890.00, 
1891.00, 
1892.00, 
1893.00, 
1894.00, 
1895.00, 
1896.00, 
1897.00, 
1898.00, 
1899.00, 
1900.00, 
1901.00, 
1902.00, 
1903.00, 
1904.00, 
1905.00, 
1906.00, 
1907.00, 
1908.00, 
1909.00, 
1910.00, 
1911.00, 
1912.00, 
1913.00, 
1914.00, 
1915.00, 
1916.00, 
1917.00, 
1918.00, 
1919.00, 
1920.00, 
1921.00, 
1922.00, 
1923.00, 
1924.00, 
1925.00, 
1926.00, 
1927.00, 
1928.00, 
1929.00, 
1930.00, 
1931.00, 
1932.00, 
1933.00, 
1934.00, 
1935.00, 
1936.00, 
1937.00, 
1938.00, 
1939.00, 
1940.00, 
1941.00, 
1942.00, 
1943.00, 
1944.00, 
1945.00, 
1946.00, 
1947.00, 
1948.00, 
1949.00, 
1950.00, 
1951.00, 
1952.00, 
1953.00, 
1954.00, 
1955.00, 
1956.00, 
1957.00, 
1958.00, 
1959.00, 
1960.00, 
1961.00, 
1962.00, 
1963.00, 
1964.00, 
1965.00, 
1966.00, 
1967.00, 
1968.00, 
1969.00, 
1970.00, 
1971.00, 
1972.00, 
1973.00, 
1974.00, 
1975.00, 
1976.00, 
1977.00, 
1978.00, 
1979.00, 
1980.00, 
1981.00, 
1982.00, 
1983.00, 
1984.00, 
1985.00, 
1986.00, 
1987.00, 
1988.00, 
1989.00, 
1990.00, 
1991.00, 
1992.00, 
1993.00, 
1994.00, 
1995.00, 
1996.00, 
1997.00, 
1998.00, 
1999.00, 
2000.00, 
2001.00, 
2002.00, 
2003.00, 
2004.00, 
2005.00, 
2006.00, 
2007.00, 
2008.00, 
2009.00, 
2010.00, 
2011.00, 
2012.00, 
2013.00, 
2014.00, 
2015.00, 
2016.00, 
2017.00, 
2018.00, 
2019.00, 
2020.00, 
2021.00, 
2022.00, 
2023.00, 
2024.00, 
2025.00, 
2026.00, 
2027.00, 
2028.00, 
2029.00, 
2030.00, 
2031.00, 
2032.00, 
2033.00, 
2034.00, 
2035.00, 
2036.00, 
2037.00, 
2038.00, 
2039.00, 
2040.00, 
2041.00, 
2042.00, 
2043.00, 
2044.00, 
2045.00, 
2046.00, 
2047.00, 
2048.00, 
2049.00, 
2050.00, 
2051.00, 
2052.00, 
2053.00, 
2054.00, 
2055.00, 
2056.00, 
2057.00, 
2058.00, 
2059.00, 
2060.00, 
2061.00, 
2062.00, 
2063.00, 
2064.00, 
2065.00, 
2066.00, 
2067.00, 
2068.00, 
2069.00, 
2070.00, 
2071.00, 
2072.00, 
2073.00, 
2074.00, 
2075.00, 
2076.00, 
2077.00, 
2078.00, 
2079.00, 
2080.00, 
2081.00, 
2082.00, 
2083.00, 
2084.00, 
2085.00, 
2086.00, 
2087.00, 
2088.00, 
2089.00, 
2090.00, 
2091.00, 
2092.00, 
2093.00, 
2094.00, 
2095.00, 
2096.00, 
2097.00, 
2098.00, 
2099.00, 
2100.00, 
2101.00, 
2102.00, 
2103.00, 
2104.00, 
2105.00, 
2106.00, 
2107.00, 
2108.00, 
2109.00, 
2110.00, 
2111.00, 
2112.00, 
2113.00, 
2114.00, 
2115.00, 
2116.00, 
2117.00, 
2118.00, 
2119.00, 
2120.00, 
2121.00, 
2122.00, 
2123.00, 
2124.00, 
2125.00, 
2126.00, 
2127.00, 
2128.00, 
2129.00, 
2130.00, 
2131.00, 
2132.00, 
2133.00, 
2134.00, 
2135.00, 
2136.00, 
2137.00, 
2138.00, 
2139.00, 
2140.00, 
2141.00, 
2142.00, 
2143.00, 
2144.00, 
2145.00, 
2146.00, 
2147.00, 
2148.00, 
2149.00, 
2150.00, 
2151.00, 
2152.00, 
2153.00, 
2154.00, 
2155.00, 
2156.00, 
2157.00, 
2158.00, 
2159.00, 
2160.00, 
2161.00, 
2162.00, 
2163.00, 
2164.00, 
2165.00, 
2166.00, 
2167.00, 
2168.00, 
2169.00, 
2170.00, 
2171.00, 
2172.00, 
2173.00, 
2174.00, 
2175.00, 
2176.00, 
2177.00, 
2178.00, 
2179.00, 
2180.00, 
2181.00, 
2182.00, 
2183.00, 
2184.00, 
2185.00, 
2186.00, 
2187.00, 
2188.00, 
2189.00, 
2190.00, 
2191.00, 
2192.00, 
2193.00, 
2194.00, 
2195.00, 
2196.00, 
2197.00, 
2198.00, 
2199.00, 
2200.00, 
2201.00, 
2202.00, 
2203.00, 
2204.00, 
2205.00, 
2206.00, 
2207.00, 
2208.00, 
2209.00, 
2210.00, 
2211.00, 
2212.00, 
2213.00, 
2214.00, 
2215.00, 
2216.00, 
2217.00, 
2218.00, 
2219.00, 
2220.00, 
2221.00, 
2222.00, 
2223.00, 
2224.00, 
2225.00, 
2226.00, 
2227.00, 
2228.00, 
2229.00, 
2230.00, 
2231.00, 
2232.00, 
2233.00, 
2234.00, 
2235.00, 
2236.00, 
2237.00, 
2238.00, 
2239.00, 
2240.00, 
2241.00, 
2242.00, 
2243.00, 
2244.00, 
2245.00, 
2246.00, 
2247.00, 
2248.00, 
2249.00, 
2250.00, 
2251.00, 
2252.00, 
2253.00, 
2254.00, 
2255.00, 
2256.00, 
2257.00, 
2258.00, 
2259.00, 
2260.00, 
2261.00, 
2262.00, 
2263.00, 
2264.00, 
2265.00, 
2266.00, 
2267.00, 
2268.00, 
2269.00, 
2270.00, 
2271.00, 
2272.00, 
2273.00, 
2274.00, 
2275.00, 
2276.00, 
2277.00, 
2278.00, 
2279.00, 
2280.00, 
2281.00, 
2282.00, 
2283.00, 
2284.00, 
2285.00, 
2286.00, 
2287.00, 
2288.00, 
2289.00, 
2290.00, 
2291.00, 
2292.00, 
2293.00, 
2294.00, 
2295.00, 
2296.00, 
2297.00, 
2298.00, 
2299.00, 
2300.00, 
2301.00, 
2302.00, 
2303.00, 
2304.00, 
2305.00, 
2306.00, 
2307.00, 
2308.00, 
2309.00, 
2310.00, 
2311.00, 
2312.00, 
2313.00, 
2314.00, 
2315.00, 
2316.00, 
2317.00, 
2318.00, 
2319.00, 
2320.00, 
2321.00, 
2322.00, 
2323.00, 
2324.00, 
2325.00, 
2326.00, 
2327.00, 
2328.00, 
2329.00, 
2330.00, 
2331.00, 
2332.00, 
2333.00, 
2334.00, 
2335.00, 
2336.00, 
2337.00, 
2338.00, 
2339.00, 
2340.00, 
2341.00, 
2342.00, 
2343.00, 
2344.00, 
2345.00, 
2346.00, 
2347.00, 
2348.00, 
2349.00, 
2350.00, 
2351.00, 
2352.00, 
2353.00, 
2354.00, 
2355.00, 
2356.00, 
2357.00, 
2358.00, 
2359.00, 
2360.00, 
2361.00, 
2362.00, 
2363.00, 
2364.00, 
2365.00, 
2366.00, 
2367.00, 
2368.00, 
2369.00, 
2370.00, 
2371.00, 
2372.00, 
2373.00, 
2374.00, 
2375.00, 
2376.00, 
2377.00, 
2378.00, 
2379.00, 
2380.00, 
2381.00, 
2382.00, 
2383.00, 
2384.00, 
2385.00, 
2386.00, 
2387.00, 
2388.00, 
2389.00, 
2390.00, 
2391.00, 
2392.00, 
2393.00, 
2394.00, 
2395.00, 
2396.00, 
2397.00, 
2398.00, 
2399.00, 
2400.00, 
2401.00, 
2402.00, 
2403.00, 
2404.00, 
2405.00, 
2406.00, 
2407.00, 
2408.00, 
2409.00, 
2410.00, 
2411.00, 
2412.00, 
2413.00, 
2414.00, 
2415.00, 
2416.00, 
2417.00, 
2418.00, 
2419.00, 
2420.00, 
2421.00, 
2422.00, 
2423.00, 
2424.00, 
2425.00, 
2426.00, 
2427.00, 
2428.00, 
2429.00, 
2430.00, 
2431.00, 
2432.00, 
2433.00, 
2434.00, 
2435.00, 
2436.00, 
2437.00, 
2438.00, 
2439.00, 
2440.00, 
2441.00, 
2442.00, 
2443.00, 
2444.00, 
2445.00, 
2446.00, 
2447.00, 
2448.00, 
2449.00, 
2450.00, 
2451.00, 
2452.00, 
2453.00, 
2454.00, 
2455.00, 
2456.00, 
2457.00, 
2458.00, 
2459.00, 
2460.00, 
2461.00, 
2462.00, 
2463.00, 
2464.00, 
2465.00, 
2466.00, 
2467.00, 
2468.00, 
2469.00, 
2470.00, 
2471.00, 
2472.00, 
2473.00, 
2474.00, 
2475.00, 
2476.00, 
2477.00, 
2478.00, 
2479.00, 
2480.00, 
2481.00, 
2482.00, 
2483.00, 
2484.00, 
2485.00, 
2486.00, 
2487.00, 
2488.00, 
2489.00, 
2490.00, 
2491.00, 
2492.00, 
2493.00, 
2494.00, 
2495.00, 
2496.00, 
2497.00, 
2498.00, 
2499.00, 
2500.00, 
2501.00, 
2502.00, 
2503.00, 
2504.00, 
2505.00, 
2506.00, 
2507.00, 
2508.00, 
2509.00, 
2510.00, 
2511.00, 
2512.00, 
2513.00, 
2514.00, 
2515.00, 
2516.00, 
2517.00, 
2518.00, 
2519.00, 
2520.00, 
2521.00, 
2522.00, 
2523.00, 
2524.00, 
2525.00, 
2526.00, 
2527.00, 
2528.00, 
2529.00, 
2530.00, 
2531.00, 
2532.00, 
2533.00, 
2534.00, 
2535.00, 
2536.00, 
2537.00, 
2538.00, 
2539.00, 
2540.00, 
2541.00, 
2542.00, 
2543.00, 
2544.00, 
2545.00, 
2546.00, 
2547.00, 
2548.00, 
2549.00, 
2550.00, 
2551.00, 
2552.00, 
2553.00, 
2554.00, 
2555.00, 
2556.00, 
2557.00, 
2558.00, 
2559.00, 
2560.00, 
2561.00, 
2562.00, 
2563.00, 
2564.00, 
2565.00, 
2566.00, 
2567.00, 
2568.00, 
2569.00, 
2570.00, 
2571.00, 
2572.00, 
2573.00, 
2574.00, 
2575.00, 
2576.00, 
2577.00, 
2578.00, 
2579.00, 
2580.00, 
2581.00, 
2582.00, 
2583.00, 
2584.00, 
2585.00, 
2586.00, 
2587.00, 
2588.00, 
2589.00, 
2590.00, 
2591.00, 
2592.00, 
2593.00, 
2594.00, 
2595.00, 
2596.00, 
2597.00, 
2598.00, 
2599.00, 
2600.00, 
