"2cP4 - RawData"
"Wavelength nm.","T%"
200.00,0.001
201.00,0.002
202.00,-0.003
203.00,0.002
204.00,0.003
205.00,0.003
206.00,0.001
207.00,0.001
208.00,-0.000
209.00,-0.001
210.00,0.002
211.00,0.003
212.00,0.003
213.00,0.002
214.00,-0.001
215.00,0.002
216.00,0.002
217.00,-0.003
218.00,0.006
219.00,0.000
220.00,-0.001
221.00,0.001
222.00,-0.000
223.00,0.001
224.00,0.001
225.00,-0.000
226.00,0.001
227.00,-0.001
228.00,-0.000
229.00,0.000
230.00,0.002
231.00,0.001
232.00,0.001
233.00,0.000
234.00,-0.000
235.00,0.001
236.00,-0.001
237.00,-0.000
238.00,0.001
239.00,-0.000
240.00,0.002
241.00,-0.000
242.00,0.002
243.00,0.002
244.00,0.002
245.00,0.002
246.00,0.002
247.00,-0.001
248.00,0.000
249.00,0.002
250.00,0.003
251.00,0.001
252.00,0.000
253.00,-0.001
254.00,-0.000
255.00,0.000
256.00,-0.000
257.00,0.001
258.00,0.000
259.00,0.000
260.00,-0.001
261.00,0.000
262.00,0.001
263.00,-0.000
264.00,-0.000
265.00,0.003
266.00,0.001
267.00,-0.000
268.00,-0.000
269.00,0.000
270.00,0.001
271.00,-0.000
272.00,0.001
273.00,0.001
274.00,0.001
275.00,0.001
276.00,0.001
277.00,0.001
278.00,0.001
279.00,0.001
280.00,0.001
281.00,0.000
282.00,0.001
283.00,0.000
284.00,0.000
285.00,0.001
286.00,0.001
287.00,0.000
288.00,0.001
289.00,0.001
290.00,0.000
291.00,-0.001
292.00,0.002
293.00,0.001
294.00,-0.000
295.00,0.001
296.00,-0.000
297.00,-0.000
298.00,0.000
299.00,0.003
300.00,0.001
301.00,0.005
302.00,0.005
303.00,0.008
304.00,0.012
305.00,0.022
306.00,0.031
307.00,0.045
308.00,0.071
309.00,0.112
310.00,0.161
311.00,0.218
312.00,0.296
313.00,0.399
314.00,0.520
315.00,0.680
316.00,0.855
317.00,1.090
318.00,1.340
319.00,1.663
320.00,2.026
321.00,2.420
322.00,2.872
323.00,3.375
324.00,3.882
325.00,4.452
326.00,5.015
327.00,5.667
328.00,6.316
329.00,7.020
330.00,7.693
331.00,8.429
332.00,9.172
333.00,9.931
334.00,10.640
335.00,11.415
336.00,12.162
337.00,12.936
338.00,13.669
339.00,14.346
340.00,14.973
341.00,15.712
342.00,16.384
343.00,16.973
344.00,17.559
345.00,18.131
346.00,18.671
347.00,19.227
348.00,19.693
349.00,20.156
350.00,20.601
351.00,20.963
352.00,21.329
353.00,21.717
354.00,22.036
355.00,22.361
356.00,22.642
357.00,22.831
358.00,23.177
359.00,23.463
360.00,23.711
361.00,23.883
362.00,24.072
363.00,24.297
364.00,24.420
365.00,24.569
366.00,24.690
367.00,24.801
368.00,24.798
369.00,24.896
370.00,24.987
371.00,25.042
372.00,25.076
373.00,25.104
374.00,25.101
375.00,25.137
376.00,25.032
377.00,25.083
378.00,24.992
379.00,24.965
380.00,24.936
381.00,24.962
382.00,25.012
383.00,24.995
384.00,25.025
385.00,25.071
386.00,25.112
387.00,25.228
388.00,25.291
389.00,25.308
390.00,25.372
391.00,25.410
392.00,25.438
393.00,25.446
394.00,25.523
395.00,25.516
396.00,25.525
397.00,25.554
398.00,25.545
399.00,25.602
400.00,25.594
401.00,25.653
402.00,25.642
403.00,25.619
404.00,25.593
405.00,25.629
406.00,25.615
407.00,25.645
408.00,25.646
409.00,25.590
410.00,25.559
411.00,25.542
412.00,25.515
413.00,25.544
414.00,25.570
415.00,25.558
416.00,25.589
417.00,25.574
418.00,25.612
419.00,25.692
420.00,25.742
421.00,25.802
422.00,25.797
423.00,25.855
424.00,25.888
425.00,25.935
426.00,25.989
427.00,26.044
428.00,26.083
429.00,26.111
430.00,26.214
431.00,26.268
432.00,26.295
433.00,26.347
434.00,26.429
435.00,26.520
436.00,26.603
437.00,26.647
438.00,26.728
439.00,26.781
440.00,26.818
441.00,26.932
442.00,27.020
443.00,27.105
444.00,27.216
445.00,27.298
446.00,27.404
447.00,27.474
448.00,27.570
449.00,27.724
450.00,27.816
451.00,27.901
452.00,27.975
453.00,28.118
454.00,28.201
455.00,28.330
456.00,28.441
457.00,28.561
458.00,28.657
459.00,28.801
460.00,28.935
461.00,29.047
462.00,29.138
463.00,29.297
464.00,29.432
465.00,29.575
466.00,29.697
467.00,29.824
468.00,29.907
469.00,29.996
470.00,30.109
471.00,30.199
472.00,30.345
473.00,30.371
474.00,30.540
475.00,30.625
476.00,30.723
477.00,30.860
478.00,30.943
479.00,31.186
480.00,31.222
481.00,31.348
482.00,31.588
483.00,31.599
484.00,31.852
485.00,31.953
486.00,32.129
487.00,32.246
488.00,32.369
489.00,32.503
490.00,32.692
491.00,32.796
492.00,32.895
493.00,33.140
494.00,33.253
495.00,33.238
496.00,33.402
497.00,33.502
498.00,33.640
499.00,33.747
500.00,33.947
501.00,34.010
502.00,34.148
503.00,34.251
504.00,34.283
505.00,34.434
506.00,34.539
507.00,34.662
508.00,34.763
509.00,34.881
510.00,35.011
511.00,35.039
512.00,35.225
513.00,35.393
514.00,35.486
515.00,35.639
516.00,35.710
517.00,35.764
518.00,35.922
519.00,35.944
520.00,35.961
521.00,36.109
522.00,36.211
523.00,36.219
524.00,36.275
525.00,36.394
526.00,36.509
527.00,36.553
528.00,36.565
529.00,36.727
530.00,36.907
531.00,37.010
532.00,37.124
533.00,37.197
534.00,37.298
535.00,37.341
536.00,37.415
537.00,37.505
538.00,37.521
539.00,37.601
540.00,37.667
541.00,37.702
542.00,37.728
543.00,37.781
544.00,37.918
545.00,37.966
546.00,37.944
547.00,38.088
548.00,38.190
549.00,38.250
550.00,38.378
551.00,38.423
552.00,38.404
553.00,38.386
554.00,38.540
555.00,38.600
556.00,38.655
557.00,38.683
558.00,38.713
559.00,38.797
560.00,38.871
561.00,38.889
562.00,38.998
563.00,38.979
564.00,39.048
565.00,39.080
566.00,39.129
567.00,39.138
568.00,39.168
569.00,39.249
570.00,39.292
571.00,39.323
572.00,39.353
573.00,39.290
574.00,39.389
575.00,39.410
576.00,39.387
577.00,39.444
578.00,39.621
579.00,39.670
580.00,39.695
581.00,39.860
582.00,39.910
583.00,39.886
584.00,39.984
585.00,40.053
586.00,40.086
587.00,40.132
588.00,40.160
589.00,40.090
590.00,40.197
591.00,40.266
592.00,40.240
593.00,40.279
594.00,40.354
595.00,40.491
596.00,40.541
597.00,40.615
598.00,40.703
599.00,40.644
600.00,40.656
601.00,40.582
602.00,40.685
603.00,40.745
604.00,40.783
605.00,40.858
606.00,40.945
607.00,40.889
608.00,40.899
609.00,40.991
610.00,41.121
611.00,41.046
612.00,41.202
613.00,41.185
614.00,41.210
615.00,41.349
616.00,41.370
617.00,41.351
618.00,41.329
619.00,41.446
620.00,41.512
621.00,41.518
622.00,41.637
623.00,41.696
624.00,41.741
625.00,41.771
626.00,41.791
627.00,41.865
628.00,41.915
629.00,41.982
630.00,41.985
631.00,42.093
632.00,42.151
633.00,42.267
634.00,42.276
635.00,42.347
636.00,42.452
637.00,42.485
638.00,42.492
639.00,42.571
640.00,42.624
641.00,42.650
642.00,42.781
643.00,42.815
644.00,42.898
645.00,43.000
646.00,43.133
647.00,43.171
648.00,43.207
649.00,43.197
650.00,43.218
651.00,43.404
652.00,43.523
653.00,43.483
654.00,43.534
655.00,43.763
656.00,44.003
657.00,43.826
658.00,43.821
659.00,44.020
660.00,44.106
661.00,44.005
662.00,44.149
663.00,44.245
664.00,44.554
665.00,44.642
666.00,44.565
667.00,44.576
668.00,44.540
669.00,44.774
670.00,45.084
671.00,44.916
672.00,45.119
673.00,45.047
674.00,45.096
675.00,45.211
676.00,45.365
677.00,45.600
678.00,45.421
679.00,45.530
680.00,45.648
681.00,45.844
682.00,45.777
683.00,45.831
684.00,45.980
685.00,46.008
686.00,46.074
687.00,46.149
688.00,46.114
689.00,46.118
690.00,46.348
691.00,46.618
692.00,46.472
693.00,46.440
694.00,46.630
695.00,46.701
696.00,46.612
697.00,46.511
698.00,46.951
699.00,47.437
700.00,47.237
701.00,47.062
702.00,47.122
703.00,47.403
704.00,47.354
705.00,47.199
706.00,47.360
707.00,47.514
708.00,47.306
709.00,47.706
710.00,48.145
711.00,47.565
712.00,47.681
713.00,47.937
714.00,48.052
715.00,47.974
716.00,47.835
717.00,48.196
718.00,48.148
719.00,48.142
720.00,48.257
721.00,52.816
722.00,52.769
723.00,52.913
724.00,52.867
725.00,52.905
726.00,52.911
727.00,52.934
728.00,52.929
729.00,52.867
730.00,52.956
731.00,52.967
732.00,52.979
733.00,53.008
734.00,53.066
735.00,53.051
736.00,53.011
737.00,53.063
738.00,53.084
739.00,53.173
740.00,53.135
741.00,53.162
742.00,53.192
743.00,53.203
744.00,53.161
745.00,53.165
746.00,53.181
747.00,53.123
748.00,53.134
749.00,53.130
750.00,53.186
751.00,53.095
752.00,53.059
753.00,53.162
754.00,53.103
755.00,53.058
756.00,53.076
757.00,53.118
758.00,53.133
759.00,53.133
760.00,53.165
761.00,53.151
762.00,53.213
763.00,53.150
764.00,53.141
765.00,53.107
766.00,53.211
767.00,53.219
768.00,53.202
769.00,53.180
770.00,53.236
771.00,53.196
772.00,53.169
773.00,53.151
774.00,53.201
775.00,53.239
776.00,53.162
777.00,53.176
778.00,53.228
779.00,53.233
780.00,53.098
781.00,53.149
782.00,53.225
783.00,53.136
784.00,53.154
785.00,53.215
786.00,53.265
787.00,53.133
788.00,53.075
789.00,53.111
790.00,53.062
791.00,53.156
792.00,53.076
793.00,53.059
794.00,53.023
795.00,53.051
796.00,52.982
797.00,52.903
798.00,52.976
799.00,52.882
800.00,52.889
801.00,52.891
802.00,52.843
803.00,52.828
804.00,52.868
805.00,52.880
806.00,52.830
807.00,52.793
808.00,52.846
809.00,52.808
810.00,52.763
811.00,52.772
812.00,52.728
813.00,52.659
814.00,52.662
815.00,52.668
816.00,52.714
817.00,52.611
818.00,52.605
819.00,52.581
820.00,52.579
821.00,52.598
822.00,52.532
823.00,52.512
824.00,52.574
825.00,52.503
826.00,52.508
827.00,52.558
828.00,52.398
829.00,52.375
830.00,52.537
831.00,54.518
832.00,54.541
833.00,54.456
834.00,54.468
835.00,54.431
836.00,54.437
837.00,54.423
838.00,54.424
839.00,54.408
840.00,54.361
841.00,54.400
842.00,54.338
843.00,54.351
844.00,54.339
845.00,54.278
846.00,54.298
847.00,54.260
848.00,54.236
849.00,54.171
850.00,54.139
851.00,54.097
852.00,54.118
853.00,54.051
854.00,53.978
855.00,54.097
856.00,53.983
857.00,53.948
858.00,53.874
859.00,53.882
860.00,53.884
861.00,53.882
862.00,53.843
863.00,53.857
864.00,53.795
865.00,53.833
866.00,53.766
867.00,53.788
868.00,53.729
869.00,53.726
870.00,53.730
871.00,53.708
872.00,53.673
873.00,53.679
874.00,53.662
875.00,53.663
876.00,53.646
877.00,53.642
878.00,53.635
879.00,53.598
880.00,53.597
881.00,53.579
882.00,53.627
883.00,53.558
884.00,53.505
885.00,53.517
886.00,53.514
887.00,53.467
888.00,53.441
889.00,53.451
890.00,53.427
891.00,53.388
892.00,53.378
893.00,53.346
894.00,53.344
895.00,53.303
896.00,53.283
897.00,53.278
898.00,53.270
899.00,53.204
900.00,53.240
901.00,53.210
902.00,53.201
903.00,53.176
904.00,53.152
905.00,53.166
906.00,53.147
907.00,53.118
908.00,53.061
909.00,53.060
910.00,53.046
911.00,52.999
912.00,53.009
913.00,53.027
914.00,52.951
915.00,52.940
916.00,52.919
917.00,52.912
918.00,52.901
919.00,52.844
920.00,52.825
921.00,52.838
922.00,52.833
923.00,52.762
924.00,52.751
925.00,52.779
926.00,52.764
927.00,52.708
928.00,52.782
929.00,52.671
930.00,52.664
931.00,52.637
932.00,52.631
933.00,52.633
934.00,52.601
935.00,52.590
936.00,52.558
937.00,52.541
938.00,52.510
939.00,52.501
940.00,52.480
941.00,52.472
942.00,52.417
943.00,52.415
944.00,52.390
945.00,52.393
946.00,52.384
947.00,52.359
948.00,52.323
949.00,52.302
950.00,52.282
951.00,52.267
952.00,52.240
953.00,52.215
954.00,52.188
955.00,52.151
956.00,52.139
957.00,52.108
958.00,52.115
959.00,52.068
960.00,52.073
961.00,52.064
962.00,52.047
963.00,51.987
964.00,51.977
965.00,51.996
966.00,51.972
967.00,51.966
968.00,51.972
969.00,51.963
970.00,51.937
971.00,51.948
972.00,51.922
973.00,51.954
974.00,51.975
975.00,51.940
976.00,51.964
977.00,51.933
978.00,51.974
979.00,51.936
980.00,51.939
981.00,51.944
982.00,51.930
983.00,51.940
984.00,51.917
985.00,51.925
986.00,51.890
987.00,51.896
988.00,51.837
989.00,51.846
990.00,51.851
991.00,51.832
992.00,51.848
993.00,51.833
994.00,51.817
995.00,51.799
996.00,51.797
997.00,51.789
998.00,51.769
999.00,51.778
1000.00,51.729
1001.00,51.737
1002.00,51.707
1003.00,51.701
1004.00,51.691
1005.00,51.660
1006.00,51.682
1007.00,51.652
1008.00,51.636
1009.00,51.626
1010.00,51.611
1011.00,51.606
1012.00,51.571
1013.00,51.569
1014.00,51.552
1015.00,51.555
1016.00,51.507
1017.00,51.523
1018.00,51.567
1019.00,51.465
1020.00,51.456
1021.00,51.442
1022.00,51.440
1023.00,51.391
1024.00,51.393
1025.00,51.385
1026.00,51.373
1027.00,51.351
1028.00,51.345
1029.00,51.334
1030.00,51.299
1031.00,51.311
1032.00,51.257
1033.00,51.262
1034.00,51.225
1035.00,51.181
1036.00,51.163
1037.00,51.152
1038.00,51.150
1039.00,51.122
1040.00,51.116
1041.00,51.077
1042.00,51.082
1043.00,51.054
1044.00,51.075
1045.00,51.066
1046.00,51.039
1047.00,51.061
1048.00,51.072
1049.00,51.100
1050.00,51.100
1051.00,51.123
1052.00,51.132
1053.00,51.125
1054.00,51.104
1055.00,51.129
1056.00,51.157
1057.00,51.162
1058.00,51.136
1059.00,51.129
1060.00,51.127
1061.00,51.117
1062.00,51.100
1063.00,51.116
1064.00,51.128
1065.00,51.110
1066.00,51.084
1067.00,51.085
1068.00,51.097
1069.00,51.059
1070.00,51.035
1071.00,51.027
1072.00,51.047
1073.00,51.016
1074.00,51.016
1075.00,51.020
1076.00,51.007
1077.00,50.983
1078.00,50.967
1079.00,50.952
1080.00,50.955
1081.00,50.938
1082.00,50.946
1083.00,50.939
1084.00,50.921
1085.00,50.922
1086.00,50.900
1087.00,50.891
1088.00,50.866
1089.00,50.876
1090.00,50.872
1091.00,50.843
1092.00,50.844
1093.00,50.833
1094.00,50.822
1095.00,50.806
1096.00,50.795
1097.00,50.794
1098.00,50.781
1099.00,50.767
1100.00,50.763
1101.00,50.748
1102.00,50.742
1103.00,50.740
1104.00,50.733
1105.00,50.726
1106.00,50.714
1107.00,50.714
1108.00,50.733
1109.00,50.713
1110.00,50.707
1111.00,50.717
1112.00,50.680
1113.00,50.665
1114.00,50.661
1115.00,50.669
1116.00,50.654
1117.00,50.638
1118.00,50.626
1119.00,50.633
1120.00,50.625
1121.00,50.604
1122.00,50.604
1123.00,50.598
1124.00,50.578
1125.00,50.578
1126.00,50.581
1127.00,50.573
1128.00,50.554
1129.00,50.543
1130.00,50.547
1131.00,50.534
1132.00,50.531
1133.00,50.532
1134.00,50.513
1135.00,50.487
1136.00,50.497
1137.00,50.501
1138.00,50.487
1139.00,50.491
1140.00,50.485
1141.00,50.489
1142.00,50.472
1143.00,50.477
1144.00,50.454
1145.00,50.447
1146.00,50.448
1147.00,50.435
1148.00,50.437
1149.00,50.442
1150.00,50.445
1151.00,50.438
1152.00,50.423
1153.00,50.409
1154.00,50.400
1155.00,50.420
1156.00,50.395
1157.00,50.398
1158.00,50.399
1159.00,50.398
1160.00,50.384
1161.00,50.383
1162.00,50.381
1163.00,50.386
1164.00,50.376
1165.00,50.378
1166.00,50.393
1167.00,50.362
1168.00,50.366
1169.00,50.372
1170.00,50.361
1171.00,50.344
1172.00,50.362
1173.00,50.351
1174.00,50.358
1175.00,50.343
1176.00,50.346
1177.00,50.342
1178.00,50.328
1179.00,50.337
1180.00,50.333
1181.00,50.351
1182.00,50.337
1183.00,50.325
1184.00,50.334
1185.00,50.339
1186.00,50.313
1187.00,50.323
1188.00,50.327
1189.00,50.315
1190.00,50.318
1191.00,50.319
1192.00,50.345
1193.00,50.333
1194.00,50.335
1195.00,50.322
1196.00,50.346
1197.00,50.337
1198.00,50.322
1199.00,50.318
1200.00,50.309
1201.00,50.329
1202.00,50.310
1203.00,50.307
1204.00,50.312
1205.00,50.323
1206.00,50.321
1207.00,50.325
1208.00,50.296
1209.00,50.298
1210.00,50.306
1211.00,50.290
1212.00,50.299
1213.00,50.268
1214.00,50.301
1215.00,50.292
1216.00,50.293
1217.00,50.299
1218.00,50.300
1219.00,50.291
1220.00,50.275
1221.00,50.288
1222.00,50.249
1223.00,50.277
1224.00,50.290
1225.00,50.289
1226.00,50.288
1227.00,50.272
1228.00,50.298
1229.00,50.291
1230.00,50.316
1231.00,50.322
1232.00,50.352
1233.00,50.356
1234.00,50.334
1235.00,50.340
1236.00,50.330
1237.00,50.341
1238.00,50.343
1239.00,50.347
1240.00,50.341
1241.00,50.322
1242.00,50.341
1243.00,50.348
1244.00,50.333
1245.00,50.370
1246.00,50.374
1247.00,50.386
1248.00,50.375
1249.00,50.364
1250.00,50.375
1251.00,50.378
1252.00,50.383
1253.00,50.359
1254.00,50.393
1255.00,50.374
1256.00,50.341
1257.00,50.329
1258.00,50.381
1259.00,50.373
1260.00,50.388
1261.00,50.396
1262.00,50.385
1263.00,50.384
1264.00,50.387
1265.00,50.399
1266.00,50.394
1267.00,50.398
1268.00,50.406
1269.00,50.394
1270.00,50.413
1271.00,50.401
1272.00,50.409
1273.00,50.424
1274.00,50.405
1275.00,50.414
1276.00,50.415
1277.00,50.428
1278.00,50.460
1279.00,50.470
1280.00,50.443
1281.00,50.458
1282.00,50.462
1283.00,50.448
1284.00,50.473
1285.00,50.448
1286.00,50.466
1287.00,50.468
1288.00,50.461
1289.00,50.456
1290.00,50.482
1291.00,50.507
1292.00,50.484
1293.00,50.496
1294.00,50.524
1295.00,50.531
1296.00,50.518
1297.00,50.534
1298.00,50.561
1299.00,50.535
1300.00,50.536
1301.00,50.520
1302.00,50.548
1303.00,50.555
1304.00,50.528
1305.00,50.562
1306.00,50.572
1307.00,50.569
1308.00,50.572
1309.00,50.591
1310.00,50.586
1311.00,50.569
1312.00,50.574
1313.00,50.600
1314.00,50.613
1315.00,50.614
1316.00,50.625
1317.00,50.663
1318.00,50.651
1319.00,50.656
1320.00,50.656
1321.00,50.801
1322.00,50.799
1323.00,50.796
1324.00,50.757
1325.00,50.744
1326.00,50.775
1327.00,50.766
1328.00,50.764
1329.00,50.775
1330.00,50.783
1331.00,50.781
1332.00,50.778
1333.00,50.780
1334.00,50.819
1335.00,50.825
1336.00,50.842
1337.00,50.886
1338.00,50.939
1339.00,50.980
1340.00,51.041
1341.00,51.097
1342.00,51.160
1343.00,51.203
1344.00,51.246
1345.00,51.320
1346.00,51.342
1347.00,51.359
1348.00,51.379
1349.00,51.419
1350.00,51.441
1351.00,51.464
1352.00,51.457
1353.00,51.508
1354.00,51.462
1355.00,51.408
1356.00,51.484
1357.00,51.472
1358.00,51.495
1359.00,51.550
1360.00,51.533
1361.00,51.496
1362.00,51.525
1363.00,51.526
1364.00,51.542
1365.00,51.526
1366.00,51.503
1367.00,51.525
1368.00,51.499
1369.00,51.467
1370.00,51.511
1371.00,51.507
1372.00,51.487
1373.00,51.471
1374.00,51.492
1375.00,51.483
1376.00,51.476
1377.00,51.463
1378.00,51.503
1379.00,51.483
1380.00,51.458
1381.00,51.477
1382.00,51.371
1383.00,51.495
1384.00,51.443
1385.00,51.431
1386.00,51.465
1387.00,51.430
1388.00,51.427
1389.00,51.427
1390.00,51.449
1391.00,51.385
1392.00,51.477
1393.00,51.417
1394.00,51.437
1395.00,51.404
1396.00,51.399
1397.00,51.431
1398.00,51.628
1399.00,51.490
1400.00,51.397
1401.00,51.438
1402.00,51.562
1403.00,51.429
1404.00,51.487
1405.00,51.471
1406.00,51.524
1407.00,51.517
1408.00,51.513
1409.00,51.535
1410.00,51.563
1411.00,51.384
1412.00,51.703
1413.00,51.520
1414.00,51.522
1415.00,51.567
1416.00,51.577
1417.00,51.619
1418.00,51.591
1419.00,51.580
1420.00,51.596
1421.00,51.621
1422.00,51.646
1423.00,51.633
1424.00,51.656
1425.00,51.658
1426.00,51.671
1427.00,51.687
1428.00,51.689
1429.00,51.705
1430.00,51.721
1431.00,51.725
1432.00,51.750
1433.00,51.765
1434.00,51.762
1435.00,51.804
1436.00,51.813
1437.00,51.798
1438.00,51.806
1439.00,51.832
1440.00,51.851
1441.00,51.841
1442.00,51.832
1443.00,51.914
1444.00,52.023
1445.00,51.964
1446.00,51.908
1447.00,51.948
1448.00,51.986
1449.00,51.966
1450.00,51.973
1451.00,51.998
1452.00,52.018
1453.00,52.020
1454.00,52.039
1455.00,52.082
1456.00,52.087
1457.00,52.100
1458.00,52.116
1459.00,52.144
1460.00,52.161
1461.00,52.152
1462.00,52.189
1463.00,52.202
1464.00,52.211
1465.00,52.222
1466.00,52.225
1467.00,52.238
1468.00,52.284
1469.00,52.274
1470.00,52.288
1471.00,52.303
1472.00,52.321
1473.00,52.325
1474.00,52.351
1475.00,52.362
1476.00,52.377
1477.00,52.375
1478.00,52.390
1479.00,52.406
1480.00,52.397
1481.00,52.406
1482.00,52.433
1483.00,52.443
1484.00,52.456
1485.00,52.471
1486.00,52.482
1487.00,52.495
1488.00,52.522
1489.00,52.511
1490.00,52.523
1491.00,52.531
1492.00,52.553
1493.00,52.551
1494.00,52.564
1495.00,52.573
1496.00,52.579
1497.00,52.583
1498.00,52.587
1499.00,52.616
1500.00,52.638
1501.00, 
1502.00, 
1503.00, 
1504.00, 
1505.00, 
1506.00, 
1507.00, 
1508.00, 
1509.00, 
1510.00, 
1511.00, 
1512.00, 
1513.00, 
1514.00, 
1515.00, 
1516.00, 
1517.00, 
1518.00, 
1519.00, 
1520.00, 
1521.00, 
1522.00, 
1523.00, 
1524.00, 
1525.00, 
1526.00, 
1527.00, 
1528.00, 
1529.00, 
1530.00, 
1531.00, 
1532.00, 
1533.00, 
1534.00, 
1535.00, 
1536.00, 
1537.00, 
1538.00, 
1539.00, 
1540.00, 
1541.00, 
1542.00, 
1543.00, 
1544.00, 
1545.00, 
1546.00, 
1547.00, 
1548.00, 
1549.00, 
1550.00, 
1551.00, 
1552.00, 
1553.00, 
1554.00, 
1555.00, 
1556.00, 
1557.00, 
1558.00, 
1559.00, 
1560.00, 
1561.00, 
1562.00, 
1563.00, 
1564.00, 
1565.00, 
1566.00, 
1567.00, 
1568.00, 
1569.00, 
1570.00, 
1571.00, 
1572.00, 
1573.00, 
1574.00, 
1575.00, 
1576.00, 
1577.00, 
1578.00, 
1579.00, 
1580.00, 
1581.00, 
1582.00, 
1583.00, 
1584.00, 
1585.00, 
1586.00, 
1587.00, 
1588.00, 
1589.00, 
1590.00, 
1591.00, 
1592.00, 
1593.00, 
1594.00, 
1595.00, 
1596.00, 
1597.00, 
1598.00, 
1599.00, 
1600.00, 
1601.00, 
1602.00, 
1603.00, 
1604.00, 
1605.00, 
1606.00, 
1607.00, 
1608.00, 
1609.00, 
1610.00, 
1611.00, 
1612.00, 
1613.00, 
1614.00, 
1615.00, 
1616.00, 
1617.00, 
1618.00, 
1619.00, 
1620.00, 
1621.00, 
1622.00, 
1623.00, 
1624.00, 
1625.00, 
1626.00, 
1627.00, 
1628.00, 
1629.00, 
1630.00, 
1631.00, 
1632.00, 
1633.00, 
1634.00, 
1635.00, 
1636.00, 
1637.00, 
1638.00, 
1639.00, 
1640.00, 
1641.00, 
1642.00, 
1643.00, 
1644.00, 
1645.00, 
1646.00, 
1647.00, 
1648.00, 
1649.00, 
1650.00, 
1651.00, 
1652.00, 
1653.00, 
1654.00, 
1655.00, 
1656.00, 
1657.00, 
1658.00, 
1659.00, 
1660.00, 
1661.00, 
1662.00, 
1663.00, 
1664.00, 
1665.00, 
1666.00, 
1667.00, 
1668.00, 
1669.00, 
1670.00, 
1671.00, 
1672.00, 
1673.00, 
1674.00, 
1675.00, 
1676.00, 
1677.00, 
1678.00, 
1679.00, 
1680.00, 
1681.00, 
1682.00, 
1683.00, 
1684.00, 
1685.00, 
1686.00, 
1687.00, 
1688.00, 
1689.00, 
1690.00, 
1691.00, 
1692.00, 
1693.00, 
1694.00, 
1695.00, 
1696.00, 
1697.00, 
1698.00, 
1699.00, 
1700.00, 
1701.00, 
1702.00, 
1703.00, 
1704.00, 
1705.00, 
1706.00, 
1707.00, 
1708.00, 
1709.00, 
1710.00, 
1711.00, 
1712.00, 
1713.00, 
1714.00, 
1715.00, 
1716.00, 
1717.00, 
1718.00, 
1719.00, 
1720.00, 
1721.00, 
1722.00, 
1723.00, 
1724.00, 
1725.00, 
1726.00, 
1727.00, 
1728.00, 
1729.00, 
1730.00, 
1731.00, 
1732.00, 
1733.00, 
1734.00, 
1735.00, 
1736.00, 
1737.00, 
1738.00, 
1739.00, 
1740.00, 
1741.00, 
1742.00, 
1743.00, 
1744.00, 
1745.00, 
1746.00, 
1747.00, 
1748.00, 
1749.00, 
1750.00, 
1751.00, 
1752.00, 
1753.00, 
1754.00, 
1755.00, 
1756.00, 
1757.00, 
1758.00, 
1759.00, 
1760.00, 
1761.00, 
1762.00, 
1763.00, 
1764.00, 
1765.00, 
1766.00, 
1767.00, 
1768.00, 
1769.00, 
1770.00, 
1771.00, 
1772.00, 
1773.00, 
1774.00, 
1775.00, 
1776.00, 
1777.00, 
1778.00, 
1779.00, 
1780.00, 
1781.00, 
1782.00, 
1783.00, 
1784.00, 
1785.00, 
1786.00, 
1787.00, 
1788.00, 
1789.00, 
1790.00, 
1791.00, 
1792.00, 
1793.00, 
1794.00, 
1795.00, 
1796.00, 
1797.00, 
1798.00, 
1799.00, 
1800.00, 
1801.00, 
1802.00, 
1803.00, 
1804.00, 
1805.00, 
1806.00, 
1807.00, 
1808.00, 
1809.00, 
1810.00, 
1811.00, 
1812.00, 
1813.00, 
1814.00, 
1815.00, 
1816.00, 
1817.00, 
1818.00, 
1819.00, 
1820.00, 
1821.00, 
1822.00, 
1823.00, 
1824.00, 
1825.00, 
1826.00, 
1827.00, 
1828.00, 
1829.00, 
1830.00, 
1831.00, 
1832.00, 
1833.00, 
1834.00, 
1835.00, 
1836.00, 
1837.00, 
1838.00, 
1839.00, 
1840.00, 
1841.00, 
1842.00, 
1843.00, 
1844.00, 
1845.00, 
1846.00, 
1847.00, 
1848.00, 
1849.00, 
1850.00, 
1851.00, 
1852.00, 
1853.00, 
1854.00, 
1855.00, 
1856.00, 
1857.00, 
1858.00, 
1859.00, 
1860.00, 
1861.00, 
1862.00, 
1863.00, 
1864.00, 
1865.00, 
1866.00, 
1867.00, 
1868.00, 
1869.00, 
1870.00, 
1871.00, 
1872.00, 
1873.00, 
1874.00, 
1875.00, 
1876.00, 
1877.00, 
1878.00, 
1879.00, 
1880.00, 
1881.00, 
1882.00, 
1883.00, 
1884.00, 
1885.00, 
1886.00, 
1887.00, 
1888.00, 
1889.00, 
1890.00, 
1891.00, 
1892.00, 
1893.00, 
1894.00, 
1895.00, 
1896.00, 
1897.00, 
1898.00, 
1899.00, 
1900.00, 
1901.00, 
1902.00, 
1903.00, 
1904.00, 
1905.00, 
1906.00, 
1907.00, 
1908.00, 
1909.00, 
1910.00, 
1911.00, 
1912.00, 
1913.00, 
1914.00, 
1915.00, 
1916.00, 
1917.00, 
1918.00, 
1919.00, 
1920.00, 
1921.00, 
1922.00, 
1923.00, 
1924.00, 
1925.00, 
1926.00, 
1927.00, 
1928.00, 
1929.00, 
1930.00, 
1931.00, 
1932.00, 
1933.00, 
1934.00, 
1935.00, 
1936.00, 
1937.00, 
1938.00, 
1939.00, 
1940.00, 
1941.00, 
1942.00, 
1943.00, 
1944.00, 
1945.00, 
1946.00, 
1947.00, 
1948.00, 
1949.00, 
1950.00, 
1951.00, 
1952.00, 
1953.00, 
1954.00, 
1955.00, 
1956.00, 
1957.00, 
1958.00, 
1959.00, 
1960.00, 
1961.00, 
1962.00, 
1963.00, 
1964.00, 
1965.00, 
1966.00, 
1967.00, 
1968.00, 
1969.00, 
1970.00, 
1971.00, 
1972.00, 
1973.00, 
1974.00, 
1975.00, 
1976.00, 
1977.00, 
1978.00, 
1979.00, 
1980.00, 
1981.00, 
1982.00, 
1983.00, 
1984.00, 
1985.00, 
1986.00, 
1987.00, 
1988.00, 
1989.00, 
1990.00, 
1991.00, 
1992.00, 
1993.00, 
1994.00, 
1995.00, 
1996.00, 
1997.00, 
1998.00, 
1999.00, 
2000.00, 
2001.00, 
2002.00, 
2003.00, 
2004.00, 
2005.00, 
2006.00, 
2007.00, 
2008.00, 
2009.00, 
2010.00, 
2011.00, 
2012.00, 
2013.00, 
2014.00, 
2015.00, 
2016.00, 
2017.00, 
2018.00, 
2019.00, 
2020.00, 
2021.00, 
2022.00, 
2023.00, 
2024.00, 
2025.00, 
2026.00, 
2027.00, 
2028.00, 
2029.00, 
2030.00, 
2031.00, 
2032.00, 
2033.00, 
2034.00, 
2035.00, 
2036.00, 
2037.00, 
2038.00, 
2039.00, 
2040.00, 
2041.00, 
2042.00, 
2043.00, 
2044.00, 
2045.00, 
2046.00, 
2047.00, 
2048.00, 
2049.00, 
2050.00, 
2051.00, 
2052.00, 
2053.00, 
2054.00, 
2055.00, 
2056.00, 
2057.00, 
2058.00, 
2059.00, 
2060.00, 
2061.00, 
2062.00, 
2063.00, 
2064.00, 
2065.00, 
2066.00, 
2067.00, 
2068.00, 
2069.00, 
2070.00, 
2071.00, 
2072.00, 
2073.00, 
2074.00, 
2075.00, 
2076.00, 
2077.00, 
2078.00, 
2079.00, 
2080.00, 
2081.00, 
2082.00, 
2083.00, 
2084.00, 
2085.00, 
2086.00, 
2087.00, 
2088.00, 
2089.00, 
2090.00, 
2091.00, 
2092.00, 
2093.00, 
2094.00, 
2095.00, 
2096.00, 
2097.00, 
2098.00, 
2099.00, 
2100.00, 
2101.00, 
2102.00, 
2103.00, 
2104.00, 
2105.00, 
2106.00, 
2107.00, 
2108.00, 
2109.00, 
2110.00, 
2111.00, 
2112.00, 
2113.00, 
2114.00, 
2115.00, 
2116.00, 
2117.00, 
2118.00, 
2119.00, 
2120.00, 
2121.00, 
2122.00, 
2123.00, 
2124.00, 
2125.00, 
2126.00, 
2127.00, 
2128.00, 
2129.00, 
2130.00, 
2131.00, 
2132.00, 
2133.00, 
2134.00, 
2135.00, 
2136.00, 
2137.00, 
2138.00, 
2139.00, 
2140.00, 
2141.00, 
2142.00, 
2143.00, 
2144.00, 
2145.00, 
2146.00, 
2147.00, 
2148.00, 
2149.00, 
2150.00, 
2151.00, 
2152.00, 
2153.00, 
2154.00, 
2155.00, 
2156.00, 
2157.00, 
2158.00, 
2159.00, 
2160.00, 
2161.00, 
2162.00, 
2163.00, 
2164.00, 
2165.00, 
2166.00, 
2167.00, 
2168.00, 
2169.00, 
2170.00, 
2171.00, 
2172.00, 
2173.00, 
2174.00, 
2175.00, 
2176.00, 
2177.00, 
2178.00, 
2179.00, 
2180.00, 
2181.00, 
2182.00, 
2183.00, 
2184.00, 
2185.00, 
2186.00, 
2187.00, 
2188.00, 
2189.00, 
2190.00, 
2191.00, 
2192.00, 
2193.00, 
2194.00, 
2195.00, 
2196.00, 
2197.00, 
2198.00, 
2199.00, 
2200.00, 
2201.00, 
2202.00, 
2203.00, 
2204.00, 
2205.00, 
2206.00, 
2207.00, 
2208.00, 
2209.00, 
2210.00, 
2211.00, 
2212.00, 
2213.00, 
2214.00, 
2215.00, 
2216.00, 
2217.00, 
2218.00, 
2219.00, 
2220.00, 
2221.00, 
2222.00, 
2223.00, 
2224.00, 
2225.00, 
2226.00, 
2227.00, 
2228.00, 
2229.00, 
2230.00, 
2231.00, 
2232.00, 
2233.00, 
2234.00, 
2235.00, 
2236.00, 
2237.00, 
2238.00, 
2239.00, 
2240.00, 
2241.00, 
2242.00, 
2243.00, 
2244.00, 
2245.00, 
2246.00, 
2247.00, 
2248.00, 
2249.00, 
2250.00, 
2251.00, 
2252.00, 
2253.00, 
2254.00, 
2255.00, 
2256.00, 
2257.00, 
2258.00, 
2259.00, 
2260.00, 
2261.00, 
2262.00, 
2263.00, 
2264.00, 
2265.00, 
2266.00, 
2267.00, 
2268.00, 
2269.00, 
2270.00, 
2271.00, 
2272.00, 
2273.00, 
2274.00, 
2275.00, 
2276.00, 
2277.00, 
2278.00, 
2279.00, 
2280.00, 
2281.00, 
2282.00, 
2283.00, 
2284.00, 
2285.00, 
2286.00, 
2287.00, 
2288.00, 
2289.00, 
2290.00, 
2291.00, 
2292.00, 
2293.00, 
2294.00, 
2295.00, 
2296.00, 
2297.00, 
2298.00, 
2299.00, 
2300.00, 
2301.00, 
2302.00, 
2303.00, 
2304.00, 
2305.00, 
2306.00, 
2307.00, 
2308.00, 
2309.00, 
2310.00, 
2311.00, 
2312.00, 
2313.00, 
2314.00, 
2315.00, 
2316.00, 
2317.00, 
2318.00, 
2319.00, 
2320.00, 
2321.00, 
2322.00, 
2323.00, 
2324.00, 
2325.00, 
2326.00, 
2327.00, 
2328.00, 
2329.00, 
2330.00, 
2331.00, 
2332.00, 
2333.00, 
2334.00, 
2335.00, 
2336.00, 
2337.00, 
2338.00, 
2339.00, 
2340.00, 
2341.00, 
2342.00, 
2343.00, 
2344.00, 
2345.00, 
2346.00, 
2347.00, 
2348.00, 
2349.00, 
2350.00, 
2351.00, 
2352.00, 
2353.00, 
2354.00, 
2355.00, 
2356.00, 
2357.00, 
2358.00, 
2359.00, 
2360.00, 
2361.00, 
2362.00, 
2363.00, 
2364.00, 
2365.00, 
2366.00, 
2367.00, 
2368.00, 
2369.00, 
2370.00, 
2371.00, 
2372.00, 
2373.00, 
2374.00, 
2375.00, 
2376.00, 
2377.00, 
2378.00, 
2379.00, 
2380.00, 
2381.00, 
2382.00, 
2383.00, 
2384.00, 
2385.00, 
2386.00, 
2387.00, 
2388.00, 
2389.00, 
2390.00, 
2391.00, 
2392.00, 
2393.00, 
2394.00, 
2395.00, 
2396.00, 
2397.00, 
2398.00, 
2399.00, 
2400.00, 
2401.00, 
2402.00, 
2403.00, 
2404.00, 
2405.00, 
2406.00, 
2407.00, 
2408.00, 
2409.00, 
2410.00, 
2411.00, 
2412.00, 
2413.00, 
2414.00, 
2415.00, 
2416.00, 
2417.00, 
2418.00, 
2419.00, 
2420.00, 
2421.00, 
2422.00, 
2423.00, 
2424.00, 
2425.00, 
2426.00, 
2427.00, 
2428.00, 
2429.00, 
2430.00, 
2431.00, 
2432.00, 
2433.00, 
2434.00, 
2435.00, 
2436.00, 
2437.00, 
2438.00, 
2439.00, 
2440.00, 
2441.00, 
2442.00, 
2443.00, 
2444.00, 
2445.00, 
2446.00, 
2447.00, 
2448.00, 
2449.00, 
2450.00, 
2451.00, 
2452.00, 
2453.00, 
2454.00, 
2455.00, 
2456.00, 
2457.00, 
2458.00, 
2459.00, 
2460.00, 
2461.00, 
2462.00, 
2463.00, 
2464.00, 
2465.00, 
2466.00, 
2467.00, 
2468.00, 
2469.00, 
2470.00, 
2471.00, 
2472.00, 
2473.00, 
2474.00, 
2475.00, 
2476.00, 
2477.00, 
2478.00, 
2479.00, 
2480.00, 
2481.00, 
2482.00, 
2483.00, 
2484.00, 
2485.00, 
2486.00, 
2487.00, 
2488.00, 
2489.00, 
2490.00, 
2491.00, 
2492.00, 
2493.00, 
2494.00, 
2495.00, 
2496.00, 
2497.00, 
2498.00, 
2499.00, 
2500.00, 
2501.00, 
2502.00, 
2503.00, 
2504.00, 
2505.00, 
2506.00, 
2507.00, 
2508.00, 
2509.00, 
2510.00, 
2511.00, 
2512.00, 
2513.00, 
2514.00, 
2515.00, 
2516.00, 
2517.00, 
2518.00, 
2519.00, 
2520.00, 
2521.00, 
2522.00, 
2523.00, 
2524.00, 
2525.00, 
2526.00, 
2527.00, 
2528.00, 
2529.00, 
2530.00, 
2531.00, 
2532.00, 
2533.00, 
2534.00, 
2535.00, 
2536.00, 
2537.00, 
2538.00, 
2539.00, 
2540.00, 
2541.00, 
2542.00, 
2543.00, 
2544.00, 
2545.00, 
2546.00, 
2547.00, 
2548.00, 
2549.00, 
2550.00, 
2551.00, 
2552.00, 
2553.00, 
2554.00, 
2555.00, 
2556.00, 
2557.00, 
2558.00, 
2559.00, 
2560.00, 
2561.00, 
2562.00, 
2563.00, 
2564.00, 
2565.00, 
2566.00, 
2567.00, 
2568.00, 
2569.00, 
2570.00, 
2571.00, 
2572.00, 
2573.00, 
2574.00, 
2575.00, 
2576.00, 
2577.00, 
2578.00, 
2579.00, 
2580.00, 
2581.00, 
2582.00, 
2583.00, 
2584.00, 
2585.00, 
2586.00, 
2587.00, 
2588.00, 
2589.00, 
2590.00, 
2591.00, 
2592.00, 
2593.00, 
2594.00, 
2595.00, 
2596.00, 
2597.00, 
2598.00, 
2599.00, 
2600.00, 
