"1cP3 - RawData"
"Wavelength nm.","T%"
200.00,-0.002
201.00,0.002
202.00,-0.002
203.00,0.005
204.00,-0.002
205.00,0.002
206.00,0.001
207.00,0.002
208.00,0.002
209.00,-0.001
210.00,0.001
211.00,0.004
212.00,0.003
213.00,-0.001
214.00,-0.001
215.00,0.001
216.00,0.002
217.00,0.001
218.00,-0.002
219.00,0.002
220.00,0.003
221.00,0.003
222.00,-0.001
223.00,-0.000
224.00,0.002
225.00,-0.000
226.00,0.000
227.00,0.003
228.00,-0.000
229.00,0.002
230.00,0.001
231.00,0.002
232.00,0.001
233.00,-0.001
234.00,0.001
235.00,-0.000
236.00,-0.001
237.00,-0.000
238.00,0.001
239.00,0.001
240.00,0.000
241.00,0.001
242.00,0.002
243.00,-0.000
244.00,-0.001
245.00,0.001
246.00,0.001
247.00,-0.000
248.00,0.001
249.00,0.001
250.00,0.001
251.00,0.002
252.00,0.001
253.00,0.001
254.00,-0.001
255.00,0.000
256.00,0.001
257.00,0.001
258.00,-0.001
259.00,0.001
260.00,-0.001
261.00,-0.000
262.00,0.002
263.00,-0.001
264.00,-0.001
265.00,0.003
266.00,0.002
267.00,0.000
268.00,-0.000
269.00,0.001
270.00,0.001
271.00,-0.000
272.00,-0.000
273.00,0.000
274.00,0.000
275.00,0.001
276.00,-0.000
277.00,0.000
278.00,0.001
279.00,0.002
280.00,0.000
281.00,-0.001
282.00,0.003
283.00,-0.000
284.00,0.000
285.00,-0.001
286.00,0.000
287.00,0.002
288.00,-0.001
289.00,0.001
290.00,0.001
291.00,-0.001
292.00,0.001
293.00,-0.002
294.00,-0.000
295.00,0.000
296.00,-0.000
297.00,-0.001
298.00,0.001
299.00,0.001
300.00,-0.000
301.00,0.001
302.00,0.001
303.00,-0.001
304.00,0.003
305.00,-0.000
306.00,0.001
307.00,0.003
308.00,0.008
309.00,0.011
310.00,0.018
311.00,0.028
312.00,0.041
313.00,0.070
314.00,0.105
315.00,0.155
316.00,0.226
317.00,0.323
318.00,0.441
319.00,0.586
320.00,0.777
321.00,1.020
322.00,1.287
323.00,1.644
324.00,2.039
325.00,2.465
326.00,2.905
327.00,3.462
328.00,4.056
329.00,4.662
330.00,5.353
331.00,6.054
332.00,6.794
333.00,7.645
334.00,8.327
335.00,9.268
336.00,10.085
337.00,10.991
338.00,11.837
339.00,12.612
340.00,13.466
341.00,14.321
342.00,15.124
343.00,15.867
344.00,16.641
345.00,17.420
346.00,18.069
347.00,18.734
348.00,19.339
349.00,19.911
350.00,20.474
351.00,21.015
352.00,21.489
353.00,21.975
354.00,22.415
355.00,22.876
356.00,23.276
357.00,23.580
358.00,23.942
359.00,24.307
360.00,24.667
361.00,24.871
362.00,25.135
363.00,25.375
364.00,25.507
365.00,25.675
366.00,25.832
367.00,26.001
368.00,26.055
369.00,26.204
370.00,26.313
371.00,26.350
372.00,26.277
373.00,26.344
374.00,26.315
375.00,26.368
376.00,26.256
377.00,26.199
378.00,26.112
379.00,25.990
380.00,26.001
381.00,25.995
382.00,25.995
383.00,26.064
384.00,26.103
385.00,26.241
386.00,26.300
387.00,26.400
388.00,26.564
389.00,26.571
390.00,26.662
391.00,26.715
392.00,26.774
393.00,26.840
394.00,26.854
395.00,26.941
396.00,26.940
397.00,27.027
398.00,27.035
399.00,27.004
400.00,27.051
401.00,27.052
402.00,27.053
403.00,27.047
404.00,27.120
405.00,27.007
406.00,27.018
407.00,26.968
408.00,26.996
409.00,26.908
410.00,26.851
411.00,26.867
412.00,26.833
413.00,26.849
414.00,26.810
415.00,26.797
416.00,26.837
417.00,26.777
418.00,26.831
419.00,26.896
420.00,26.963
421.00,26.943
422.00,26.941
423.00,26.990
424.00,27.028
425.00,27.019
426.00,27.072
427.00,27.135
428.00,27.172
429.00,27.210
430.00,27.230
431.00,27.324
432.00,27.305
433.00,27.368
434.00,27.415
435.00,27.475
436.00,27.525
437.00,27.552
438.00,27.656
439.00,27.674
440.00,27.737
441.00,27.807
442.00,27.888
443.00,27.908
444.00,28.028
445.00,28.076
446.00,28.172
447.00,28.241
448.00,28.367
449.00,28.456
450.00,28.581
451.00,28.616
452.00,28.695
453.00,28.836
454.00,28.904
455.00,29.078
456.00,29.120
457.00,29.225
458.00,29.358
459.00,29.469
460.00,29.582
461.00,29.703
462.00,29.796
463.00,29.935
464.00,30.056
465.00,30.192
466.00,30.332
467.00,30.407
468.00,30.501
469.00,30.607
470.00,30.688
471.00,30.760
472.00,30.902
473.00,30.955
474.00,31.032
475.00,31.184
476.00,31.225
477.00,31.352
478.00,31.473
479.00,31.668
480.00,31.802
481.00,31.906
482.00,32.003
483.00,32.114
484.00,32.264
485.00,32.392
486.00,32.567
487.00,32.691
488.00,32.823
489.00,32.966
490.00,33.138
491.00,33.235
492.00,33.434
493.00,33.579
494.00,33.523
495.00,33.680
496.00,33.778
497.00,33.883
498.00,34.015
499.00,34.167
500.00,34.306
501.00,34.342
502.00,34.524
503.00,34.639
504.00,34.655
505.00,34.826
506.00,34.953
507.00,34.995
508.00,35.095
509.00,35.273
510.00,35.431
511.00,35.466
512.00,35.693
513.00,35.746
514.00,35.849
515.00,36.115
516.00,36.210
517.00,36.188
518.00,36.299
519.00,36.371
520.00,36.360
521.00,36.513
522.00,36.585
523.00,36.605
524.00,36.764
525.00,36.867
526.00,36.992
527.00,37.000
528.00,37.096
529.00,37.285
530.00,37.411
531.00,37.549
532.00,37.600
533.00,37.680
534.00,37.811
535.00,37.891
536.00,37.960
537.00,38.040
538.00,38.130
539.00,38.141
540.00,38.217
541.00,38.293
542.00,38.394
543.00,38.387
544.00,38.487
545.00,38.582
546.00,38.598
547.00,38.757
548.00,38.867
549.00,38.877
550.00,39.023
551.00,39.115
552.00,39.136
553.00,39.177
554.00,39.271
555.00,39.290
556.00,39.340
557.00,39.411
558.00,39.460
559.00,39.555
560.00,39.663
561.00,39.714
562.00,39.782
563.00,39.786
564.00,39.907
565.00,39.871
566.00,39.926
567.00,40.072
568.00,40.006
569.00,40.009
570.00,40.107
571.00,40.206
572.00,40.079
573.00,40.099
574.00,40.238
575.00,40.131
576.00,40.230
577.00,40.274
578.00,40.409
579.00,40.496
580.00,40.502
581.00,40.749
582.00,40.764
583.00,40.727
584.00,40.836
585.00,40.923
586.00,40.976
587.00,41.044
588.00,41.017
589.00,40.978
590.00,41.083
591.00,41.102
592.00,41.072
593.00,41.132
594.00,41.191
595.00,41.357
596.00,41.451
597.00,41.364
598.00,41.351
599.00,41.452
600.00,41.470
601.00,41.540
602.00,41.496
603.00,41.560
604.00,41.504
605.00,41.700
606.00,41.891
607.00,41.790
608.00,41.954
609.00,41.999
610.00,41.867
611.00,41.891
612.00,41.959
613.00,42.100
614.00,42.039
615.00,42.074
616.00,42.290
617.00,42.317
618.00,42.246
619.00,42.296
620.00,42.344
621.00,42.424
622.00,42.500
623.00,42.509
624.00,42.614
625.00,42.644
626.00,42.703
627.00,42.726
628.00,42.723
629.00,42.788
630.00,42.798
631.00,42.859
632.00,42.893
633.00,43.004
634.00,43.124
635.00,43.176
636.00,43.214
637.00,43.194
638.00,43.279
639.00,43.405
640.00,43.402
641.00,43.404
642.00,43.551
643.00,43.529
644.00,43.612
645.00,43.660
646.00,43.768
647.00,43.823
648.00,43.890
649.00,43.857
650.00,43.838
651.00,44.064
652.00,44.113
653.00,44.108
654.00,44.155
655.00,44.368
656.00,44.551
657.00,44.444
658.00,44.564
659.00,44.649
660.00,44.548
661.00,44.620
662.00,44.750
663.00,44.766
664.00,45.123
665.00,45.172
666.00,45.018
667.00,45.103
668.00,45.060
669.00,45.334
670.00,45.526
671.00,45.484
672.00,45.543
673.00,45.533
674.00,45.628
675.00,45.624
676.00,45.812
677.00,46.029
678.00,45.793
679.00,45.953
680.00,45.998
681.00,46.070
682.00,46.123
683.00,46.091
684.00,46.331
685.00,46.461
686.00,46.263
687.00,46.307
688.00,46.455
689.00,46.473
690.00,46.710
691.00,46.880
692.00,46.606
693.00,46.564
694.00,46.804
695.00,46.940
696.00,46.956
697.00,47.004
698.00,47.051
699.00,47.314
700.00,47.266
701.00,47.212
702.00,47.305
703.00,47.487
704.00,47.518
705.00,47.279
706.00,47.497
707.00,47.348
708.00,47.415
709.00,48.131
710.00,47.379
711.00,47.301
712.00,48.051
713.00,48.131
714.00,48.000
715.00,47.988
716.00,47.863
717.00,48.069
718.00,48.097
719.00,48.032
720.00,48.211
721.00,52.896
722.00,52.675
723.00,52.767
724.00,52.804
725.00,52.803
726.00,52.713
727.00,52.738
728.00,52.763
729.00,52.754
730.00,52.784
731.00,52.804
732.00,52.737
733.00,52.787
734.00,52.722
735.00,52.894
736.00,52.820
737.00,52.905
738.00,52.891
739.00,52.873
740.00,52.856
741.00,52.893
742.00,52.867
743.00,52.871
744.00,52.795
745.00,52.847
746.00,52.826
747.00,52.843
748.00,52.754
749.00,52.859
750.00,52.785
751.00,52.714
752.00,52.741
753.00,52.771
754.00,52.741
755.00,52.692
756.00,52.680
757.00,52.788
758.00,52.800
759.00,52.649
760.00,52.700
761.00,52.699
762.00,52.695
763.00,52.825
764.00,52.716
765.00,52.682
766.00,52.779
767.00,52.723
768.00,52.767
769.00,52.722
770.00,52.740
771.00,52.722
772.00,52.791
773.00,52.671
774.00,52.742
775.00,52.759
776.00,52.629
777.00,52.660
778.00,52.628
779.00,52.651
780.00,52.589
781.00,52.721
782.00,52.678
783.00,52.599
784.00,52.712
785.00,52.609
786.00,52.579
787.00,52.542
788.00,52.500
789.00,52.491
790.00,52.489
791.00,52.523
792.00,52.458
793.00,52.445
794.00,52.380
795.00,52.438
796.00,52.426
797.00,52.265
798.00,52.395
799.00,52.275
800.00,52.326
801.00,52.353
802.00,52.237
803.00,52.242
804.00,52.136
805.00,52.252
806.00,52.165
807.00,52.229
808.00,52.167
809.00,52.110
810.00,52.055
811.00,52.111
812.00,52.102
813.00,52.000
814.00,51.992
815.00,52.025
816.00,52.039
817.00,52.004
818.00,51.911
819.00,51.891
820.00,51.820
821.00,51.925
822.00,51.913
823.00,51.968
824.00,51.891
825.00,51.772
826.00,51.646
827.00,51.813
828.00,51.864
829.00,51.839
830.00,51.745
831.00,54.148
832.00,54.128
833.00,54.073
834.00,54.070
835.00,54.013
836.00,54.058
837.00,53.987
838.00,53.977
839.00,53.973
840.00,53.880
841.00,53.907
842.00,53.836
843.00,53.885
844.00,53.834
845.00,53.806
846.00,53.804
847.00,53.783
848.00,53.759
849.00,53.692
850.00,53.693
851.00,53.600
852.00,53.626
853.00,53.537
854.00,53.509
855.00,53.469
856.00,53.491
857.00,53.446
858.00,53.407
859.00,53.388
860.00,53.419
861.00,53.374
862.00,53.309
863.00,53.326
864.00,53.278
865.00,53.286
866.00,53.372
867.00,53.291
868.00,53.237
869.00,53.258
870.00,53.219
871.00,53.194
872.00,53.217
873.00,53.169
874.00,53.175
875.00,53.140
876.00,53.168
877.00,53.129
878.00,53.119
879.00,53.088
880.00,53.128
881.00,52.993
882.00,53.092
883.00,53.058
884.00,53.005
885.00,53.025
886.00,52.988
887.00,52.860
888.00,52.926
889.00,52.937
890.00,52.915
891.00,52.858
892.00,52.824
893.00,52.890
894.00,52.823
895.00,52.765
896.00,52.757
897.00,52.727
898.00,52.713
899.00,52.700
900.00,52.685
901.00,52.684
902.00,52.679
903.00,52.603
904.00,52.587
905.00,52.657
906.00,52.575
907.00,52.551
908.00,52.522
909.00,52.505
910.00,52.488
911.00,52.490
912.00,52.451
913.00,52.405
914.00,52.378
915.00,52.351
916.00,52.329
917.00,52.339
918.00,52.290
919.00,52.259
920.00,52.259
921.00,52.247
922.00,52.260
923.00,52.217
924.00,52.190
925.00,52.193
926.00,52.181
927.00,52.144
928.00,52.142
929.00,52.124
930.00,52.077
931.00,52.058
932.00,52.090
933.00,52.055
934.00,52.006
935.00,51.981
936.00,51.967
937.00,51.949
938.00,51.912
939.00,51.932
940.00,51.885
941.00,51.868
942.00,51.840
943.00,51.823
944.00,51.793
945.00,51.799
946.00,51.766
947.00,51.723
948.00,51.710
949.00,51.683
950.00,51.673
951.00,51.652
952.00,51.632
953.00,51.607
954.00,51.585
955.00,51.544
956.00,51.545
957.00,51.496
958.00,51.510
959.00,51.442
960.00,51.432
961.00,51.444
962.00,51.428
963.00,51.365
964.00,51.366
965.00,51.384
966.00,51.347
967.00,51.357
968.00,51.315
969.00,51.355
970.00,51.332
971.00,51.341
972.00,51.316
973.00,51.348
974.00,51.348
975.00,51.321
976.00,51.327
977.00,51.317
978.00,51.336
979.00,51.298
980.00,51.331
981.00,51.319
982.00,51.288
983.00,51.294
984.00,51.279
985.00,51.279
986.00,51.245
987.00,51.267
988.00,51.245
989.00,51.234
990.00,51.201
991.00,51.217
992.00,51.212
993.00,51.131
994.00,51.153
995.00,51.144
996.00,51.149
997.00,51.127
998.00,51.103
999.00,51.124
1000.00,51.086
1001.00,51.083
1002.00,51.081
1003.00,51.065
1004.00,51.034
1005.00,51.010
1006.00,51.031
1007.00,51.001
1008.00,50.989
1009.00,50.953
1010.00,50.970
1011.00,50.952
1012.00,50.926
1013.00,50.924
1014.00,50.887
1015.00,50.901
1016.00,50.866
1017.00,50.856
1018.00,50.848
1019.00,50.821
1020.00,50.806
1021.00,50.800
1022.00,50.801
1023.00,50.730
1024.00,50.741
1025.00,50.711
1026.00,50.707
1027.00,50.697
1028.00,50.693
1029.00,50.684
1030.00,50.646
1031.00,50.648
1032.00,50.620
1033.00,50.617
1034.00,50.583
1035.00,50.565
1036.00,50.529
1037.00,50.517
1038.00,50.498
1039.00,50.477
1040.00,50.480
1041.00,50.431
1042.00,50.425
1043.00,50.423
1044.00,50.438
1045.00,50.409
1046.00,50.403
1047.00,50.429
1048.00,50.422
1049.00,50.443
1050.00,50.428
1051.00,50.472
1052.00,50.468
1053.00,50.470
1054.00,50.484
1055.00,50.502
1056.00,50.506
1057.00,50.512
1058.00,50.499
1059.00,50.491
1060.00,50.514
1061.00,50.501
1062.00,50.484
1063.00,50.497
1064.00,50.486
1065.00,50.479
1066.00,50.470
1067.00,50.451
1068.00,50.482
1069.00,50.434
1070.00,50.402
1071.00,50.394
1072.00,50.422
1073.00,50.402
1074.00,50.387
1075.00,50.367
1076.00,50.386
1077.00,50.367
1078.00,50.350
1079.00,50.358
1080.00,50.370
1081.00,50.346
1082.00,50.360
1083.00,50.346
1084.00,50.344
1085.00,50.353
1086.00,50.327
1087.00,50.330
1088.00,50.310
1089.00,50.285
1090.00,50.291
1091.00,50.292
1092.00,50.276
1093.00,50.279
1094.00,50.262
1095.00,50.248
1096.00,50.239
1097.00,50.221
1098.00,50.225
1099.00,50.220
1100.00,50.209
1101.00,50.223
1102.00,50.161
1103.00,50.166
1104.00,50.162
1105.00,50.152
1106.00,50.146
1107.00,50.132
1108.00,50.127
1109.00,50.120
1110.00,50.107
1111.00,50.083
1112.00,50.083
1113.00,50.088
1114.00,50.052
1115.00,50.084
1116.00,50.079
1117.00,50.058
1118.00,50.045
1119.00,50.045
1120.00,50.042
1121.00,50.038
1122.00,50.020
1123.00,50.026
1124.00,50.016
1125.00,50.021
1126.00,50.039
1127.00,50.014
1128.00,49.989
1129.00,49.977
1130.00,49.951
1131.00,49.960
1132.00,49.938
1133.00,49.931
1134.00,49.922
1135.00,49.923
1136.00,49.924
1137.00,49.937
1138.00,49.934
1139.00,49.943
1140.00,49.930
1141.00,49.934
1142.00,49.919
1143.00,49.943
1144.00,49.900
1145.00,49.908
1146.00,49.907
1147.00,49.883
1148.00,49.889
1149.00,49.896
1150.00,49.905
1151.00,49.900
1152.00,49.874
1153.00,49.893
1154.00,49.891
1155.00,49.873
1156.00,49.866
1157.00,49.877
1158.00,49.853
1159.00,49.866
1160.00,49.846
1161.00,49.866
1162.00,49.874
1163.00,49.840
1164.00,49.870
1165.00,49.865
1166.00,49.855
1167.00,49.846
1168.00,49.865
1169.00,49.838
1170.00,49.849
1171.00,49.834
1172.00,49.843
1173.00,49.834
1174.00,49.840
1175.00,49.834
1176.00,49.842
1177.00,49.820
1178.00,49.825
1179.00,49.852
1180.00,49.828
1181.00,49.860
1182.00,49.847
1183.00,49.842
1184.00,49.844
1185.00,49.843
1186.00,49.847
1187.00,49.872
1188.00,49.829
1189.00,49.834
1190.00,49.837
1191.00,49.818
1192.00,49.862
1193.00,49.840
1194.00,49.834
1195.00,49.820
1196.00,49.836
1197.00,49.843
1198.00,49.826
1199.00,49.810
1200.00,49.834
1201.00,49.844
1202.00,49.818
1203.00,49.819
1204.00,49.816
1205.00,49.848
1206.00,49.833
1207.00,49.844
1208.00,49.838
1209.00,49.835
1210.00,49.829
1211.00,49.824
1212.00,49.845
1213.00,49.803
1214.00,49.835
1215.00,49.813
1216.00,49.842
1217.00,49.847
1218.00,49.827
1219.00,49.845
1220.00,49.847
1221.00,49.828
1222.00,49.822
1223.00,49.879
1224.00,49.825
1225.00,49.828
1226.00,49.833
1227.00,49.833
1228.00,49.859
1229.00,49.849
1230.00,49.897
1231.00,49.876
1232.00,49.897
1233.00,49.906
1234.00,49.899
1235.00,49.890
1236.00,49.904
1237.00,49.922
1238.00,49.916
1239.00,49.917
1240.00,49.893
1241.00,49.919
1242.00,49.916
1243.00,49.919
1244.00,49.914
1245.00,49.942
1246.00,49.932
1247.00,49.942
1248.00,49.932
1249.00,49.955
1250.00,49.965
1251.00,49.946
1252.00,49.961
1253.00,49.954
1254.00,49.975
1255.00,49.959
1256.00,49.947
1257.00,49.947
1258.00,49.995
1259.00,49.968
1260.00,49.997
1261.00,49.998
1262.00,49.986
1263.00,49.998
1264.00,50.002
1265.00,50.004
1266.00,50.017
1267.00,50.034
1268.00,50.038
1269.00,50.034
1270.00,50.065
1271.00,50.068
1272.00,50.070
1273.00,50.077
1274.00,50.079
1275.00,50.091
1276.00,50.068
1277.00,50.099
1278.00,50.098
1279.00,50.086
1280.00,50.086
1281.00,50.109
1282.00,50.124
1283.00,50.123
1284.00,50.114
1285.00,50.117
1286.00,50.159
1287.00,50.140
1288.00,50.149
1289.00,50.150
1290.00,50.168
1291.00,50.177
1292.00,50.178
1293.00,50.186
1294.00,50.211
1295.00,50.217
1296.00,50.220
1297.00,50.232
1298.00,50.254
1299.00,50.233
1300.00,50.254
1301.00,50.232
1302.00,50.271
1303.00,50.259
1304.00,50.231
1305.00,50.278
1306.00,50.269
1307.00,50.288
1308.00,50.284
1309.00,50.292
1310.00,50.287
1311.00,50.253
1312.00,50.289
1313.00,50.321
1314.00,50.329
1315.00,50.353
1316.00,50.361
1317.00,50.389
1318.00,50.378
1319.00,50.379
1320.00,50.384
1321.00,50.570
1322.00,50.553
1323.00,50.522
1324.00,50.526
1325.00,50.545
1326.00,50.518
1327.00,50.539
1328.00,50.579
1329.00,50.510
1330.00,50.547
1331.00,50.534
1332.00,50.539
1333.00,50.544
1334.00,50.574
1335.00,50.594
1336.00,50.622
1337.00,50.650
1338.00,50.732
1339.00,50.774
1340.00,50.838
1341.00,50.903
1342.00,50.963
1343.00,51.017
1344.00,51.074
1345.00,51.125
1346.00,51.162
1347.00,51.186
1348.00,51.192
1349.00,51.222
1350.00,51.243
1351.00,51.244
1352.00,51.256
1353.00,51.262
1354.00,51.276
1355.00,51.235
1356.00,51.297
1357.00,51.301
1358.00,51.366
1359.00,51.352
1360.00,51.330
1361.00,51.299
1362.00,51.302
1363.00,51.402
1364.00,51.440
1365.00,51.348
1366.00,51.435
1367.00,51.317
1368.00,51.322
1369.00,51.388
1370.00,51.316
1371.00,51.419
1372.00,51.373
1373.00,51.372
1374.00,51.409
1375.00,51.357
1376.00,51.356
1377.00,51.371
1378.00,51.408
1379.00,51.363
1380.00,51.355
1381.00,51.396
1382.00,51.352
1383.00,51.387
1384.00,51.325
1385.00,51.321
1386.00,51.323
1387.00,51.392
1388.00,51.263
1389.00,51.288
1390.00,51.007
1391.00,51.370
1392.00,51.317
1393.00,51.361
1394.00,51.378
1395.00,51.287
1396.00,51.277
1397.00,51.351
1398.00,51.350
1399.00,51.322
1400.00,51.282
1401.00,51.290
1402.00,51.398
1403.00,51.399
1404.00,51.354
1405.00,51.345
1406.00,51.405
1407.00,51.440
1408.00,51.438
1409.00,51.436
1410.00,51.486
1411.00,51.441
1412.00,51.560
1413.00,51.499
1414.00,51.466
1415.00,51.496
1416.00,51.518
1417.00,51.538
1418.00,51.517
1419.00,51.522
1420.00,51.560
1421.00,51.609
1422.00,51.586
1423.00,51.620
1424.00,51.626
1425.00,51.639
1426.00,51.660
1427.00,51.687
1428.00,51.670
1429.00,51.691
1430.00,51.696
1431.00,51.719
1432.00,51.735
1433.00,51.747
1434.00,51.743
1435.00,51.808
1436.00,51.790
1437.00,51.811
1438.00,51.829
1439.00,51.857
1440.00,51.865
1441.00,51.875
1442.00,51.898
1443.00,51.924
1444.00,51.968
1445.00,51.929
1446.00,51.975
1447.00,51.993
1448.00,52.058
1449.00,52.057
1450.00,52.067
1451.00,52.082
1452.00,52.095
1453.00,52.100
1454.00,52.153
1455.00,52.158
1456.00,52.188
1457.00,52.188
1458.00,52.207
1459.00,52.235
1460.00,52.253
1461.00,52.243
1462.00,52.282
1463.00,52.294
1464.00,52.300
1465.00,52.341
1466.00,52.336
1467.00,52.355
1468.00,52.431
1469.00,52.385
1470.00,52.422
1471.00,52.442
1472.00,52.451
1473.00,52.466
1474.00,52.506
1475.00,52.507
1476.00,52.532
1477.00,52.504
1478.00,52.551
1479.00,52.566
1480.00,52.547
1481.00,52.582
1482.00,52.594
1483.00,52.601
1484.00,52.615
1485.00,52.624
1486.00,52.655
1487.00,52.668
1488.00,52.697
1489.00,52.694
1490.00,52.728
1491.00,52.724
1492.00,52.756
1493.00,52.739
1494.00,52.773
1495.00,52.780
1496.00,52.809
1497.00,52.800
1498.00,52.833
1499.00,52.826
1500.00,52.841
1501.00, 
1502.00, 
1503.00, 
1504.00, 
1505.00, 
1506.00, 
1507.00, 
1508.00, 
1509.00, 
1510.00, 
1511.00, 
1512.00, 
1513.00, 
1514.00, 
1515.00, 
1516.00, 
1517.00, 
1518.00, 
1519.00, 
1520.00, 
1521.00, 
1522.00, 
1523.00, 
1524.00, 
1525.00, 
1526.00, 
1527.00, 
1528.00, 
1529.00, 
1530.00, 
1531.00, 
1532.00, 
1533.00, 
1534.00, 
1535.00, 
1536.00, 
1537.00, 
1538.00, 
1539.00, 
1540.00, 
1541.00, 
1542.00, 
1543.00, 
1544.00, 
1545.00, 
1546.00, 
1547.00, 
1548.00, 
1549.00, 
1550.00, 
1551.00, 
1552.00, 
1553.00, 
1554.00, 
1555.00, 
1556.00, 
1557.00, 
1558.00, 
1559.00, 
1560.00, 
1561.00, 
1562.00, 
1563.00, 
1564.00, 
1565.00, 
1566.00, 
1567.00, 
1568.00, 
1569.00, 
1570.00, 
1571.00, 
1572.00, 
1573.00, 
1574.00, 
1575.00, 
1576.00, 
1577.00, 
1578.00, 
1579.00, 
1580.00, 
1581.00, 
1582.00, 
1583.00, 
1584.00, 
1585.00, 
1586.00, 
1587.00, 
1588.00, 
1589.00, 
1590.00, 
1591.00, 
1592.00, 
1593.00, 
1594.00, 
1595.00, 
1596.00, 
1597.00, 
1598.00, 
1599.00, 
1600.00, 
1601.00, 
1602.00, 
1603.00, 
1604.00, 
1605.00, 
1606.00, 
1607.00, 
1608.00, 
1609.00, 
1610.00, 
1611.00, 
1612.00, 
1613.00, 
1614.00, 
1615.00, 
1616.00, 
1617.00, 
1618.00, 
1619.00, 
1620.00, 
1621.00, 
1622.00, 
1623.00, 
1624.00, 
1625.00, 
1626.00, 
1627.00, 
1628.00, 
1629.00, 
1630.00, 
1631.00, 
1632.00, 
1633.00, 
1634.00, 
1635.00, 
1636.00, 
1637.00, 
1638.00, 
1639.00, 
1640.00, 
1641.00, 
1642.00, 
1643.00, 
1644.00, 
1645.00, 
1646.00, 
1647.00, 
1648.00, 
1649.00, 
1650.00, 
1651.00, 
1652.00, 
1653.00, 
1654.00, 
1655.00, 
1656.00, 
1657.00, 
1658.00, 
1659.00, 
1660.00, 
1661.00, 
1662.00, 
1663.00, 
1664.00, 
1665.00, 
1666.00, 
1667.00, 
1668.00, 
1669.00, 
1670.00, 
1671.00, 
1672.00, 
1673.00, 
1674.00, 
1675.00, 
1676.00, 
1677.00, 
1678.00, 
1679.00, 
1680.00, 
1681.00, 
1682.00, 
1683.00, 
1684.00, 
1685.00, 
1686.00, 
1687.00, 
1688.00, 
1689.00, 
1690.00, 
1691.00, 
1692.00, 
1693.00, 
1694.00, 
1695.00, 
1696.00, 
1697.00, 
1698.00, 
1699.00, 
1700.00, 
1701.00, 
1702.00, 
1703.00, 
1704.00, 
1705.00, 
1706.00, 
1707.00, 
1708.00, 
1709.00, 
1710.00, 
1711.00, 
1712.00, 
1713.00, 
1714.00, 
1715.00, 
1716.00, 
1717.00, 
1718.00, 
1719.00, 
1720.00, 
1721.00, 
1722.00, 
1723.00, 
1724.00, 
1725.00, 
1726.00, 
1727.00, 
1728.00, 
1729.00, 
1730.00, 
1731.00, 
1732.00, 
1733.00, 
1734.00, 
1735.00, 
1736.00, 
1737.00, 
1738.00, 
1739.00, 
1740.00, 
1741.00, 
1742.00, 
1743.00, 
1744.00, 
1745.00, 
1746.00, 
1747.00, 
1748.00, 
1749.00, 
1750.00, 
1751.00, 
1752.00, 
1753.00, 
1754.00, 
1755.00, 
1756.00, 
1757.00, 
1758.00, 
1759.00, 
1760.00, 
1761.00, 
1762.00, 
1763.00, 
1764.00, 
1765.00, 
1766.00, 
1767.00, 
1768.00, 
1769.00, 
1770.00, 
1771.00, 
1772.00, 
1773.00, 
1774.00, 
1775.00, 
1776.00, 
1777.00, 
1778.00, 
1779.00, 
1780.00, 
1781.00, 
1782.00, 
1783.00, 
1784.00, 
1785.00, 
1786.00, 
1787.00, 
1788.00, 
1789.00, 
1790.00, 
1791.00, 
1792.00, 
1793.00, 
1794.00, 
1795.00, 
1796.00, 
1797.00, 
1798.00, 
1799.00, 
1800.00, 
1801.00, 
1802.00, 
1803.00, 
1804.00, 
1805.00, 
1806.00, 
1807.00, 
1808.00, 
1809.00, 
1810.00, 
1811.00, 
1812.00, 
1813.00, 
1814.00, 
1815.00, 
1816.00, 
1817.00, 
1818.00, 
1819.00, 
1820.00, 
1821.00, 
1822.00, 
1823.00, 
1824.00, 
1825.00, 
1826.00, 
1827.00, 
1828.00, 
1829.00, 
1830.00, 
1831.00, 
1832.00, 
1833.00, 
1834.00, 
1835.00, 
1836.00, 
1837.00, 
1838.00, 
1839.00, 
1840.00, 
1841.00, 
1842.00, 
1843.00, 
1844.00, 
1845.00, 
1846.00, 
1847.00, 
1848.00, 
1849.00, 
1850.00, 
1851.00, 
1852.00, 
1853.00, 
1854.00, 
1855.00, 
1856.00, 
1857.00, 
1858.00, 
1859.00, 
1860.00, 
1861.00, 
1862.00, 
1863.00, 
1864.00, 
1865.00, 
1866.00, 
1867.00, 
1868.00, 
1869.00, 
1870.00, 
1871.00, 
1872.00, 
1873.00, 
1874.00, 
1875.00, 
1876.00, 
1877.00, 
1878.00, 
1879.00, 
1880.00, 
1881.00, 
1882.00, 
1883.00, 
1884.00, 
1885.00, 
1886.00, 
1887.00, 
1888.00, 
1889.00, 
1890.00, 
1891.00, 
1892.00, 
1893.00, 
1894.00, 
1895.00, 
1896.00, 
1897.00, 
1898.00, 
1899.00, 
1900.00, 
1901.00, 
1902.00, 
1903.00, 
1904.00, 
1905.00, 
1906.00, 
1907.00, 
1908.00, 
1909.00, 
1910.00, 
1911.00, 
1912.00, 
1913.00, 
1914.00, 
1915.00, 
1916.00, 
1917.00, 
1918.00, 
1919.00, 
1920.00, 
1921.00, 
1922.00, 
1923.00, 
1924.00, 
1925.00, 
1926.00, 
1927.00, 
1928.00, 
1929.00, 
1930.00, 
1931.00, 
1932.00, 
1933.00, 
1934.00, 
1935.00, 
1936.00, 
1937.00, 
1938.00, 
1939.00, 
1940.00, 
1941.00, 
1942.00, 
1943.00, 
1944.00, 
1945.00, 
1946.00, 
1947.00, 
1948.00, 
1949.00, 
1950.00, 
1951.00, 
1952.00, 
1953.00, 
1954.00, 
1955.00, 
1956.00, 
1957.00, 
1958.00, 
1959.00, 
1960.00, 
1961.00, 
1962.00, 
1963.00, 
1964.00, 
1965.00, 
1966.00, 
1967.00, 
1968.00, 
1969.00, 
1970.00, 
1971.00, 
1972.00, 
1973.00, 
1974.00, 
1975.00, 
1976.00, 
1977.00, 
1978.00, 
1979.00, 
1980.00, 
1981.00, 
1982.00, 
1983.00, 
1984.00, 
1985.00, 
1986.00, 
1987.00, 
1988.00, 
1989.00, 
1990.00, 
1991.00, 
1992.00, 
1993.00, 
1994.00, 
1995.00, 
1996.00, 
1997.00, 
1998.00, 
1999.00, 
2000.00, 
2001.00, 
2002.00, 
2003.00, 
2004.00, 
2005.00, 
2006.00, 
2007.00, 
2008.00, 
2009.00, 
2010.00, 
2011.00, 
2012.00, 
2013.00, 
2014.00, 
2015.00, 
2016.00, 
2017.00, 
2018.00, 
2019.00, 
2020.00, 
2021.00, 
2022.00, 
2023.00, 
2024.00, 
2025.00, 
2026.00, 
2027.00, 
2028.00, 
2029.00, 
2030.00, 
2031.00, 
2032.00, 
2033.00, 
2034.00, 
2035.00, 
2036.00, 
2037.00, 
2038.00, 
2039.00, 
2040.00, 
2041.00, 
2042.00, 
2043.00, 
2044.00, 
2045.00, 
2046.00, 
2047.00, 
2048.00, 
2049.00, 
2050.00, 
2051.00, 
2052.00, 
2053.00, 
2054.00, 
2055.00, 
2056.00, 
2057.00, 
2058.00, 
2059.00, 
2060.00, 
2061.00, 
2062.00, 
2063.00, 
2064.00, 
2065.00, 
2066.00, 
2067.00, 
2068.00, 
2069.00, 
2070.00, 
2071.00, 
2072.00, 
2073.00, 
2074.00, 
2075.00, 
2076.00, 
2077.00, 
2078.00, 
2079.00, 
2080.00, 
2081.00, 
2082.00, 
2083.00, 
2084.00, 
2085.00, 
2086.00, 
2087.00, 
2088.00, 
2089.00, 
2090.00, 
2091.00, 
2092.00, 
2093.00, 
2094.00, 
2095.00, 
2096.00, 
2097.00, 
2098.00, 
2099.00, 
2100.00, 
2101.00, 
2102.00, 
2103.00, 
2104.00, 
2105.00, 
2106.00, 
2107.00, 
2108.00, 
2109.00, 
2110.00, 
2111.00, 
2112.00, 
2113.00, 
2114.00, 
2115.00, 
2116.00, 
2117.00, 
2118.00, 
2119.00, 
2120.00, 
2121.00, 
2122.00, 
2123.00, 
2124.00, 
2125.00, 
2126.00, 
2127.00, 
2128.00, 
2129.00, 
2130.00, 
2131.00, 
2132.00, 
2133.00, 
2134.00, 
2135.00, 
2136.00, 
2137.00, 
2138.00, 
2139.00, 
2140.00, 
2141.00, 
2142.00, 
2143.00, 
2144.00, 
2145.00, 
2146.00, 
2147.00, 
2148.00, 
2149.00, 
2150.00, 
2151.00, 
2152.00, 
2153.00, 
2154.00, 
2155.00, 
2156.00, 
2157.00, 
2158.00, 
2159.00, 
2160.00, 
2161.00, 
2162.00, 
2163.00, 
2164.00, 
2165.00, 
2166.00, 
2167.00, 
2168.00, 
2169.00, 
2170.00, 
2171.00, 
2172.00, 
2173.00, 
2174.00, 
2175.00, 
2176.00, 
2177.00, 
2178.00, 
2179.00, 
2180.00, 
2181.00, 
2182.00, 
2183.00, 
2184.00, 
2185.00, 
2186.00, 
2187.00, 
2188.00, 
2189.00, 
2190.00, 
2191.00, 
2192.00, 
2193.00, 
2194.00, 
2195.00, 
2196.00, 
2197.00, 
2198.00, 
2199.00, 
2200.00, 
2201.00, 
2202.00, 
2203.00, 
2204.00, 
2205.00, 
2206.00, 
2207.00, 
2208.00, 
2209.00, 
2210.00, 
2211.00, 
2212.00, 
2213.00, 
2214.00, 
2215.00, 
2216.00, 
2217.00, 
2218.00, 
2219.00, 
2220.00, 
2221.00, 
2222.00, 
2223.00, 
2224.00, 
2225.00, 
2226.00, 
2227.00, 
2228.00, 
2229.00, 
2230.00, 
2231.00, 
2232.00, 
2233.00, 
2234.00, 
2235.00, 
2236.00, 
2237.00, 
2238.00, 
2239.00, 
2240.00, 
2241.00, 
2242.00, 
2243.00, 
2244.00, 
2245.00, 
2246.00, 
2247.00, 
2248.00, 
2249.00, 
2250.00, 
2251.00, 
2252.00, 
2253.00, 
2254.00, 
2255.00, 
2256.00, 
2257.00, 
2258.00, 
2259.00, 
2260.00, 
2261.00, 
2262.00, 
2263.00, 
2264.00, 
2265.00, 
2266.00, 
2267.00, 
2268.00, 
2269.00, 
2270.00, 
2271.00, 
2272.00, 
2273.00, 
2274.00, 
2275.00, 
2276.00, 
2277.00, 
2278.00, 
2279.00, 
2280.00, 
2281.00, 
2282.00, 
2283.00, 
2284.00, 
2285.00, 
2286.00, 
2287.00, 
2288.00, 
2289.00, 
2290.00, 
2291.00, 
2292.00, 
2293.00, 
2294.00, 
2295.00, 
2296.00, 
2297.00, 
2298.00, 
2299.00, 
2300.00, 
2301.00, 
2302.00, 
2303.00, 
2304.00, 
2305.00, 
2306.00, 
2307.00, 
2308.00, 
2309.00, 
2310.00, 
2311.00, 
2312.00, 
2313.00, 
2314.00, 
2315.00, 
2316.00, 
2317.00, 
2318.00, 
2319.00, 
2320.00, 
2321.00, 
2322.00, 
2323.00, 
2324.00, 
2325.00, 
2326.00, 
2327.00, 
2328.00, 
2329.00, 
2330.00, 
2331.00, 
2332.00, 
2333.00, 
2334.00, 
2335.00, 
2336.00, 
2337.00, 
2338.00, 
2339.00, 
2340.00, 
2341.00, 
2342.00, 
2343.00, 
2344.00, 
2345.00, 
2346.00, 
2347.00, 
2348.00, 
2349.00, 
2350.00, 
2351.00, 
2352.00, 
2353.00, 
2354.00, 
2355.00, 
2356.00, 
2357.00, 
2358.00, 
2359.00, 
2360.00, 
2361.00, 
2362.00, 
2363.00, 
2364.00, 
2365.00, 
2366.00, 
2367.00, 
2368.00, 
2369.00, 
2370.00, 
2371.00, 
2372.00, 
2373.00, 
2374.00, 
2375.00, 
2376.00, 
2377.00, 
2378.00, 
2379.00, 
2380.00, 
2381.00, 
2382.00, 
2383.00, 
2384.00, 
2385.00, 
2386.00, 
2387.00, 
2388.00, 
2389.00, 
2390.00, 
2391.00, 
2392.00, 
2393.00, 
2394.00, 
2395.00, 
2396.00, 
2397.00, 
2398.00, 
2399.00, 
2400.00, 
2401.00, 
2402.00, 
2403.00, 
2404.00, 
2405.00, 
2406.00, 
2407.00, 
2408.00, 
2409.00, 
2410.00, 
2411.00, 
2412.00, 
2413.00, 
2414.00, 
2415.00, 
2416.00, 
2417.00, 
2418.00, 
2419.00, 
2420.00, 
2421.00, 
2422.00, 
2423.00, 
2424.00, 
2425.00, 
2426.00, 
2427.00, 
2428.00, 
2429.00, 
2430.00, 
2431.00, 
2432.00, 
2433.00, 
2434.00, 
2435.00, 
2436.00, 
2437.00, 
2438.00, 
2439.00, 
2440.00, 
2441.00, 
2442.00, 
2443.00, 
2444.00, 
2445.00, 
2446.00, 
2447.00, 
2448.00, 
2449.00, 
2450.00, 
2451.00, 
2452.00, 
2453.00, 
2454.00, 
2455.00, 
2456.00, 
2457.00, 
2458.00, 
2459.00, 
2460.00, 
2461.00, 
2462.00, 
2463.00, 
2464.00, 
2465.00, 
2466.00, 
2467.00, 
2468.00, 
2469.00, 
2470.00, 
2471.00, 
2472.00, 
2473.00, 
2474.00, 
2475.00, 
2476.00, 
2477.00, 
2478.00, 
2479.00, 
2480.00, 
2481.00, 
2482.00, 
2483.00, 
2484.00, 
2485.00, 
2486.00, 
2487.00, 
2488.00, 
2489.00, 
2490.00, 
2491.00, 
2492.00, 
2493.00, 
2494.00, 
2495.00, 
2496.00, 
2497.00, 
2498.00, 
2499.00, 
2500.00, 
2501.00, 
2502.00, 
2503.00, 
2504.00, 
2505.00, 
2506.00, 
2507.00, 
2508.00, 
2509.00, 
2510.00, 
2511.00, 
2512.00, 
2513.00, 
2514.00, 
2515.00, 
2516.00, 
2517.00, 
2518.00, 
2519.00, 
2520.00, 
2521.00, 
2522.00, 
2523.00, 
2524.00, 
2525.00, 
2526.00, 
2527.00, 
2528.00, 
2529.00, 
2530.00, 
2531.00, 
2532.00, 
2533.00, 
2534.00, 
2535.00, 
2536.00, 
2537.00, 
2538.00, 
2539.00, 
2540.00, 
2541.00, 
2542.00, 
2543.00, 
2544.00, 
2545.00, 
2546.00, 
2547.00, 
2548.00, 
2549.00, 
2550.00, 
2551.00, 
2552.00, 
2553.00, 
2554.00, 
2555.00, 
2556.00, 
2557.00, 
2558.00, 
2559.00, 
2560.00, 
2561.00, 
2562.00, 
2563.00, 
2564.00, 
2565.00, 
2566.00, 
2567.00, 
2568.00, 
2569.00, 
2570.00, 
2571.00, 
2572.00, 
2573.00, 
2574.00, 
2575.00, 
2576.00, 
2577.00, 
2578.00, 
2579.00, 
2580.00, 
2581.00, 
2582.00, 
2583.00, 
2584.00, 
2585.00, 
2586.00, 
2587.00, 
2588.00, 
2589.00, 
2590.00, 
2591.00, 
2592.00, 
2593.00, 
2594.00, 
2595.00, 
2596.00, 
2597.00, 
2598.00, 
2599.00, 
2600.00, 
