"1cP4 - RawData"
"Wavelength nm.","T%"
200.00,0.002
201.00,0.003
202.00,0.005
203.00,0.001
204.00,0.004
205.00,0.001
206.00,0.004
207.00,-0.004
208.00,-0.000
209.00,0.002
210.00,-0.001
211.00,0.001
212.00,0.000
213.00,-0.000
214.00,0.001
215.00,0.001
216.00,0.001
217.00,0.001
218.00,0.003
219.00,0.002
220.00,-0.001
221.00,0.001
222.00,0.000
223.00,-0.001
224.00,0.001
225.00,0.001
226.00,-0.000
227.00,-0.001
228.00,0.001
229.00,0.001
230.00,-0.001
231.00,0.000
232.00,-0.001
233.00,-0.001
234.00,0.001
235.00,0.000
236.00,0.001
237.00,0.001
238.00,0.001
239.00,-0.000
240.00,0.001
241.00,-0.001
242.00,0.001
243.00,0.000
244.00,0.001
245.00,-0.000
246.00,0.001
247.00,0.001
248.00,-0.000
249.00,0.000
250.00,0.002
251.00,-0.001
252.00,-0.000
253.00,-0.001
254.00,0.001
255.00,-0.000
256.00,0.000
257.00,-0.001
258.00,0.000
259.00,-0.001
260.00,0.000
261.00,0.000
262.00,0.001
263.00,0.000
264.00,-0.001
265.00,-0.000
266.00,-0.001
267.00,-0.001
268.00,0.000
269.00,-0.001
270.00,-0.000
271.00,0.001
272.00,0.002
273.00,-0.000
274.00,0.000
275.00,0.000
276.00,0.001
277.00,0.001
278.00,0.001
279.00,0.001
280.00,0.001
281.00,0.002
282.00,0.001
283.00,0.000
284.00,-0.000
285.00,0.001
286.00,-0.001
287.00,-0.000
288.00,0.002
289.00,0.000
290.00,0.000
291.00,0.000
292.00,0.001
293.00,-0.001
294.00,0.002
295.00,0.000
296.00,-0.002
297.00,-0.001
298.00,0.000
299.00,0.000
300.00,-0.001
301.00,0.002
302.00,-0.000
303.00,0.001
304.00,0.003
305.00,0.000
306.00,0.003
307.00,0.006
308.00,0.004
309.00,0.012
310.00,0.018
311.00,0.030
312.00,0.039
313.00,0.063
314.00,0.090
315.00,0.134
316.00,0.192
317.00,0.274
318.00,0.372
319.00,0.498
320.00,0.664
321.00,0.864
322.00,1.101
323.00,1.394
324.00,1.718
325.00,2.070
326.00,2.453
327.00,2.905
328.00,3.411
329.00,3.930
330.00,4.480
331.00,5.065
332.00,5.697
333.00,6.381
334.00,7.017
335.00,7.732
336.00,8.386
337.00,9.107
338.00,9.847
339.00,10.471
340.00,11.187
341.00,11.885
342.00,12.513
343.00,13.094
344.00,13.718
345.00,14.354
346.00,14.901
347.00,15.409
348.00,15.893
349.00,16.339
350.00,16.823
351.00,17.243
352.00,17.595
353.00,17.979
354.00,18.332
355.00,18.692
356.00,18.959
357.00,19.210
358.00,19.463
359.00,19.762
360.00,20.029
361.00,20.149
362.00,20.368
363.00,20.526
364.00,20.605
365.00,20.750
366.00,20.861
367.00,20.955
368.00,21.000
369.00,21.025
370.00,21.136
371.00,21.145
372.00,21.041
373.00,21.097
374.00,21.100
375.00,21.070
376.00,20.971
377.00,20.917
378.00,20.807
379.00,20.715
380.00,20.684
381.00,20.658
382.00,20.649
383.00,20.645
384.00,20.728
385.00,20.811
386.00,20.821
387.00,20.924
388.00,20.993
389.00,20.974
390.00,21.070
391.00,21.097
392.00,21.130
393.00,21.182
394.00,21.187
395.00,21.240
396.00,21.216
397.00,21.246
398.00,21.257
399.00,21.240
400.00,21.269
401.00,21.258
402.00,21.253
403.00,21.251
404.00,21.308
405.00,21.199
406.00,21.186
407.00,21.157
408.00,21.163
409.00,21.112
410.00,21.046
411.00,21.014
412.00,20.994
413.00,21.010
414.00,21.031
415.00,21.004
416.00,21.078
417.00,21.001
418.00,21.070
419.00,21.149
420.00,21.191
421.00,21.211
422.00,21.198
423.00,21.245
424.00,21.312
425.00,21.299
426.00,21.360
427.00,21.413
428.00,21.455
429.00,21.457
430.00,21.527
431.00,21.590
432.00,21.610
433.00,21.676
434.00,21.723
435.00,21.801
436.00,21.832
437.00,21.889
438.00,21.999
439.00,22.033
440.00,22.079
441.00,22.184
442.00,22.243
443.00,22.358
444.00,22.438
445.00,22.543
446.00,22.641
447.00,22.746
448.00,22.835
449.00,22.929
450.00,23.025
451.00,23.134
452.00,23.238
453.00,23.353
454.00,23.487
455.00,23.586
456.00,23.710
457.00,23.806
458.00,23.923
459.00,24.059
460.00,24.187
461.00,24.351
462.00,24.419
463.00,24.574
464.00,24.720
465.00,24.845
466.00,25.001
467.00,25.103
468.00,25.254
469.00,25.345
470.00,25.427
471.00,25.517
472.00,25.672
473.00,25.747
474.00,25.899
475.00,26.039
476.00,26.094
477.00,26.267
478.00,26.366
479.00,26.572
480.00,26.734
481.00,26.828
482.00,26.954
483.00,27.100
484.00,27.264
485.00,27.423
486.00,27.585
487.00,27.712
488.00,27.834
489.00,28.027
490.00,28.161
491.00,28.283
492.00,28.541
493.00,28.689
494.00,28.680
495.00,28.859
496.00,28.939
497.00,29.014
498.00,29.230
499.00,29.311
500.00,29.576
501.00,29.658
502.00,29.784
503.00,29.905
504.00,29.946
505.00,30.087
506.00,30.239
507.00,30.349
508.00,30.487
509.00,30.643
510.00,30.787
511.00,30.834
512.00,31.023
513.00,31.170
514.00,31.289
515.00,31.501
516.00,31.585
517.00,31.571
518.00,31.747
519.00,31.793
520.00,31.800
521.00,31.953
522.00,32.071
523.00,32.076
524.00,32.200
525.00,32.353
526.00,32.438
527.00,32.474
528.00,32.553
529.00,32.736
530.00,32.906
531.00,32.993
532.00,33.053
533.00,33.167
534.00,33.263
535.00,33.382
536.00,33.438
537.00,33.535
538.00,33.596
539.00,33.642
540.00,33.730
541.00,33.804
542.00,33.874
543.00,33.905
544.00,33.985
545.00,34.048
546.00,34.102
547.00,34.212
548.00,34.309
549.00,34.341
550.00,34.441
551.00,34.558
552.00,34.564
553.00,34.642
554.00,34.747
555.00,34.769
556.00,34.836
557.00,34.880
558.00,34.960
559.00,35.041
560.00,35.116
561.00,35.172
562.00,35.208
563.00,35.263
564.00,35.354
565.00,35.358
566.00,35.406
567.00,35.509
568.00,35.431
569.00,35.499
570.00,35.543
571.00,35.629
572.00,35.585
573.00,35.575
574.00,35.652
575.00,35.656
576.00,35.652
577.00,35.712
578.00,35.825
579.00,35.930
580.00,35.888
581.00,36.120
582.00,36.153
583.00,36.096
584.00,36.276
585.00,36.290
586.00,36.304
587.00,36.404
588.00,36.437
589.00,36.394
590.00,36.477
591.00,36.556
592.00,36.440
593.00,36.536
594.00,36.644
595.00,36.620
596.00,36.671
597.00,36.782
598.00,36.862
599.00,36.875
600.00,36.811
601.00,36.810
602.00,36.698
603.00,37.048
604.00,37.199
605.00,37.165
606.00,37.194
607.00,37.250
608.00,37.416
609.00,37.445
610.00,37.309
611.00,37.410
612.00,37.431
613.00,37.508
614.00,37.542
615.00,37.642
616.00,37.725
617.00,37.738
618.00,37.738
619.00,37.815
620.00,37.880
621.00,37.907
622.00,38.030
623.00,38.088
624.00,38.150
625.00,38.215
626.00,38.235
627.00,38.308
628.00,38.309
629.00,38.392
630.00,38.449
631.00,38.482
632.00,38.590
633.00,38.697
634.00,38.774
635.00,38.884
636.00,38.906
637.00,38.957
638.00,39.040
639.00,39.179
640.00,39.195
641.00,39.256
642.00,39.308
643.00,39.308
644.00,39.464
645.00,39.506
646.00,39.612
647.00,39.690
648.00,39.741
649.00,39.767
650.00,39.844
651.00,39.991
652.00,39.993
653.00,39.971
654.00,40.238
655.00,40.092
656.00,40.651
657.00,40.121
658.00,40.668
659.00,40.682
660.00,40.695
661.00,40.852
662.00,40.941
663.00,41.047
664.00,41.290
665.00,41.503
666.00,41.410
667.00,41.499
668.00,41.461
669.00,41.720
670.00,41.997
671.00,41.960
672.00,42.053
673.00,42.108
674.00,42.191
675.00,42.244
676.00,42.482
677.00,42.688
678.00,42.559
679.00,42.677
680.00,42.770
681.00,43.017
682.00,42.946
683.00,43.004
684.00,43.190
685.00,43.390
686.00,43.225
687.00,43.342
688.00,43.470
689.00,43.452
690.00,43.623
691.00,43.951
692.00,43.790
693.00,43.809
694.00,44.032
695.00,44.136
696.00,44.180
697.00,44.167
698.00,44.287
699.00,44.549
700.00,44.667
701.00,44.627
702.00,44.762
703.00,44.961
704.00,44.949
705.00,44.769
706.00,44.903
707.00,44.929
708.00,45.112
709.00,45.740
710.00,45.354
711.00,45.234
712.00,45.395
713.00,45.550
714.00,45.650
715.00,45.729
716.00,45.644
717.00,45.927
718.00,46.077
719.00,45.988
720.00,46.034
721.00,50.481
722.00,50.429
723.00,50.549
724.00,50.515
725.00,50.551
726.00,50.567
727.00,50.623
728.00,50.647
729.00,50.648
730.00,50.685
731.00,50.718
732.00,50.743
733.00,50.841
734.00,50.791
735.00,50.937
736.00,50.996
737.00,51.002
738.00,50.950
739.00,51.045
740.00,51.019
741.00,51.081
742.00,51.104
743.00,51.092
744.00,51.103
745.00,51.163
746.00,51.158
747.00,51.141
748.00,51.095
749.00,51.187
750.00,51.172
751.00,51.167
752.00,51.159
753.00,51.181
754.00,51.102
755.00,51.172
756.00,51.248
757.00,51.244
758.00,51.265
759.00,51.247
760.00,51.339
761.00,51.288
762.00,51.323
763.00,51.435
764.00,51.327
765.00,51.350
766.00,51.410
767.00,51.412
768.00,51.419
769.00,51.352
770.00,51.451
771.00,51.463
772.00,51.569
773.00,51.441
774.00,51.528
775.00,51.532
776.00,51.450
777.00,51.533
778.00,51.429
779.00,51.498
780.00,51.513
781.00,51.620
782.00,51.558
783.00,51.489
784.00,51.575
785.00,51.484
786.00,51.504
787.00,51.503
788.00,51.446
789.00,51.487
790.00,51.453
791.00,51.505
792.00,51.430
793.00,51.456
794.00,51.378
795.00,51.433
796.00,51.444
797.00,51.234
798.00,51.471
799.00,51.301
800.00,51.326
801.00,51.390
802.00,51.314
803.00,51.279
804.00,51.254
805.00,51.335
806.00,51.242
807.00,51.324
808.00,51.191
809.00,51.201
810.00,51.230
811.00,51.266
812.00,51.229
813.00,51.175
814.00,51.182
815.00,51.204
816.00,51.130
817.00,51.106
818.00,51.085
819.00,51.094
820.00,51.055
821.00,51.098
822.00,51.104
823.00,51.012
824.00,51.083
825.00,50.958
826.00,51.013
827.00,51.004
828.00,51.007
829.00,51.047
830.00,51.011
831.00,53.265
832.00,53.294
833.00,53.235
834.00,53.208
835.00,53.242
836.00,53.195
837.00,53.162
838.00,53.153
839.00,53.124
840.00,53.101
841.00,53.123
842.00,53.094
843.00,53.067
844.00,53.084
845.00,53.009
846.00,53.036
847.00,52.993
848.00,52.985
849.00,52.904
850.00,52.918
851.00,52.847
852.00,52.873
853.00,52.792
854.00,52.803
855.00,52.739
856.00,52.789
857.00,52.710
858.00,52.697
859.00,52.696
860.00,52.699
861.00,52.654
862.00,52.624
863.00,52.647
864.00,52.600
865.00,52.593
866.00,52.669
867.00,52.622
868.00,52.543
869.00,52.555
870.00,52.550
871.00,52.523
872.00,52.501
873.00,52.501
874.00,52.538
875.00,52.402
876.00,52.509
877.00,52.620
878.00,52.455
879.00,52.412
880.00,52.459
881.00,52.306
882.00,52.428
883.00,52.373
884.00,52.340
885.00,52.321
886.00,52.335
887.00,52.266
888.00,52.254
889.00,52.280
890.00,52.240
891.00,52.215
892.00,52.203
893.00,52.176
894.00,52.183
895.00,52.127
896.00,52.128
897.00,52.100
898.00,52.071
899.00,52.051
900.00,52.064
901.00,52.043
902.00,52.078
903.00,52.034
904.00,52.011
905.00,51.952
906.00,52.099
907.00,51.976
908.00,51.945
909.00,51.924
910.00,51.910
911.00,51.906
912.00,51.860
913.00,51.819
914.00,51.815
915.00,51.798
916.00,51.777
917.00,51.781
918.00,51.768
919.00,51.691
920.00,51.682
921.00,51.690
922.00,51.685
923.00,51.635
924.00,51.604
925.00,51.633
926.00,51.597
927.00,51.555
928.00,51.556
929.00,51.567
930.00,51.519
931.00,51.483
932.00,51.573
933.00,51.491
934.00,51.459
935.00,51.422
936.00,51.424
937.00,51.414
938.00,51.399
939.00,51.394
940.00,51.375
941.00,51.343
942.00,51.314
943.00,51.302
944.00,51.261
945.00,51.269
946.00,51.224
947.00,51.194
948.00,51.190
949.00,51.179
950.00,51.154
951.00,51.136
952.00,51.088
953.00,51.067
954.00,51.056
955.00,51.007
956.00,51.021
957.00,50.973
958.00,51.004
959.00,50.928
960.00,50.939
961.00,50.929
962.00,50.938
963.00,50.885
964.00,50.882
965.00,50.897
966.00,50.841
967.00,50.855
968.00,50.830
969.00,50.876
970.00,50.839
971.00,50.844
972.00,50.818
973.00,50.841
974.00,50.858
975.00,50.851
976.00,50.846
977.00,50.828
978.00,50.933
979.00,50.831
980.00,50.865
981.00,50.846
982.00,50.817
983.00,50.829
984.00,50.801
985.00,50.812
986.00,50.791
987.00,50.811
988.00,50.782
989.00,50.773
990.00,50.768
991.00,50.742
992.00,50.723
993.00,50.731
994.00,50.689
995.00,50.670
996.00,50.650
997.00,50.640
998.00,50.611
999.00,50.631
1000.00,50.621
1001.00,50.611
1002.00,50.611
1003.00,50.602
1004.00,50.549
1005.00,50.532
1006.00,50.614
1007.00,50.525
1008.00,50.505
1009.00,50.471
1010.00,50.498
1011.00,50.483
1012.00,50.462
1013.00,50.465
1014.00,50.445
1015.00,50.461
1016.00,50.416
1017.00,50.427
1018.00,50.406
1019.00,50.382
1020.00,50.381
1021.00,50.356
1022.00,50.364
1023.00,50.302
1024.00,50.321
1025.00,50.287
1026.00,50.292
1027.00,50.258
1028.00,50.258
1029.00,50.242
1030.00,50.212
1031.00,50.236
1032.00,50.193
1033.00,50.197
1034.00,50.162
1035.00,50.142
1036.00,50.101
1037.00,50.085
1038.00,50.087
1039.00,50.052
1040.00,50.034
1041.00,49.994
1042.00,49.986
1043.00,49.960
1044.00,50.001
1045.00,49.982
1046.00,49.984
1047.00,50.016
1048.00,50.021
1049.00,50.027
1050.00,50.021
1051.00,50.063
1052.00,50.051
1053.00,50.047
1054.00,50.064
1055.00,50.057
1056.00,50.070
1057.00,50.084
1058.00,50.063
1059.00,50.069
1060.00,50.081
1061.00,50.077
1062.00,50.053
1063.00,50.075
1064.00,50.065
1065.00,50.044
1066.00,50.043
1067.00,50.031
1068.00,50.059
1069.00,50.020
1070.00,49.998
1071.00,49.986
1072.00,50.000
1073.00,49.983
1074.00,49.975
1075.00,49.961
1076.00,49.972
1077.00,49.957
1078.00,49.944
1079.00,49.946
1080.00,49.945
1081.00,49.930
1082.00,49.934
1083.00,49.918
1084.00,49.897
1085.00,49.897
1086.00,49.872
1087.00,49.871
1088.00,49.858
1089.00,49.852
1090.00,49.862
1091.00,49.853
1092.00,49.848
1093.00,49.842
1094.00,49.816
1095.00,49.802
1096.00,49.790
1097.00,49.787
1098.00,49.771
1099.00,49.786
1100.00,49.793
1101.00,49.764
1102.00,49.730
1103.00,49.745
1104.00,49.726
1105.00,49.718
1106.00,49.713
1107.00,49.708
1108.00,49.695
1109.00,49.702
1110.00,49.707
1111.00,49.687
1112.00,49.695
1113.00,49.687
1114.00,49.660
1115.00,49.680
1116.00,49.644
1117.00,49.626
1118.00,49.610
1119.00,49.603
1120.00,49.611
1121.00,49.613
1122.00,49.610
1123.00,49.623
1124.00,49.613
1125.00,49.625
1126.00,49.611
1127.00,49.603
1128.00,49.574
1129.00,49.568
1130.00,49.549
1131.00,49.540
1132.00,49.531
1133.00,49.516
1134.00,49.527
1135.00,49.521
1136.00,49.524
1137.00,49.527
1138.00,49.520
1139.00,49.528
1140.00,49.524
1141.00,49.528
1142.00,49.500
1143.00,49.519
1144.00,49.492
1145.00,49.497
1146.00,49.479
1147.00,49.472
1148.00,49.481
1149.00,49.481
1150.00,49.477
1151.00,49.489
1152.00,49.471
1153.00,49.480
1154.00,49.468
1155.00,49.469
1156.00,49.461
1157.00,49.461
1158.00,49.456
1159.00,49.460
1160.00,49.463
1161.00,49.475
1162.00,49.454
1163.00,49.453
1164.00,49.464
1165.00,49.460
1166.00,49.485
1167.00,49.472
1168.00,49.479
1169.00,49.466
1170.00,49.460
1171.00,49.447
1172.00,49.456
1173.00,49.455
1174.00,49.465
1175.00,49.450
1176.00,49.474
1177.00,49.441
1178.00,49.453
1179.00,49.458
1180.00,49.440
1181.00,49.467
1182.00,49.452
1183.00,49.450
1184.00,49.439
1185.00,49.462
1186.00,49.441
1187.00,49.451
1188.00,49.446
1189.00,49.449
1190.00,49.442
1191.00,49.441
1192.00,49.469
1193.00,49.452
1194.00,49.450
1195.00,49.430
1196.00,49.459
1197.00,49.454
1198.00,49.442
1199.00,49.435
1200.00,49.456
1201.00,49.460
1202.00,49.436
1203.00,49.441
1204.00,49.438
1205.00,49.453
1206.00,49.448
1207.00,49.446
1208.00,49.441
1209.00,49.456
1210.00,49.442
1211.00,49.428
1212.00,49.432
1213.00,49.391
1214.00,49.432
1215.00,49.423
1216.00,49.448
1217.00,49.455
1218.00,49.445
1219.00,49.466
1220.00,49.457
1221.00,49.469
1222.00,49.454
1223.00,49.492
1224.00,49.474
1225.00,49.471
1226.00,49.478
1227.00,49.464
1228.00,49.484
1229.00,49.480
1230.00,49.507
1231.00,49.490
1232.00,49.509
1233.00,49.517
1234.00,49.515
1235.00,49.522
1236.00,49.528
1237.00,49.540
1238.00,49.527
1239.00,49.547
1240.00,49.515
1241.00,49.530
1242.00,49.536
1243.00,49.541
1244.00,49.531
1245.00,49.552
1246.00,49.554
1247.00,49.556
1248.00,49.541
1249.00,49.577
1250.00,49.577
1251.00,49.570
1252.00,49.583
1253.00,49.561
1254.00,49.594
1255.00,49.566
1256.00,49.560
1257.00,49.568
1258.00,49.593
1259.00,49.597
1260.00,49.621
1261.00,49.615
1262.00,49.608
1263.00,49.610
1264.00,49.614
1265.00,49.616
1266.00,49.623
1267.00,49.636
1268.00,49.635
1269.00,49.636
1270.00,49.675
1271.00,49.672
1272.00,49.683
1273.00,49.705
1274.00,49.701
1275.00,49.705
1276.00,49.684
1277.00,49.703
1278.00,49.714
1279.00,49.707
1280.00,49.710
1281.00,49.732
1282.00,49.742
1283.00,49.737
1284.00,49.742
1285.00,49.727
1286.00,49.761
1287.00,49.752
1288.00,49.757
1289.00,49.752
1290.00,49.790
1291.00,49.789
1292.00,49.782
1293.00,49.789
1294.00,49.799
1295.00,49.802
1296.00,49.799
1297.00,49.808
1298.00,49.837
1299.00,49.810
1300.00,49.843
1301.00,49.833
1302.00,49.864
1303.00,49.869
1304.00,49.834
1305.00,49.880
1306.00,49.889
1307.00,49.887
1308.00,49.885
1309.00,49.915
1310.00,49.907
1311.00,49.872
1312.00,49.918
1313.00,49.937
1314.00,49.939
1315.00,49.949
1316.00,49.955
1317.00,49.983
1318.00,49.973
1319.00,49.990
1320.00,50.000
1321.00,50.134
1322.00,50.127
1323.00,50.092
1324.00,50.096
1325.00,50.100
1326.00,50.148
1327.00,50.098
1328.00,50.131
1329.00,50.129
1330.00,50.142
1331.00,50.130
1332.00,50.121
1333.00,50.143
1334.00,50.177
1335.00,50.199
1336.00,50.220
1337.00,50.249
1338.00,50.334
1339.00,50.378
1340.00,50.439
1341.00,50.505
1342.00,50.569
1343.00,50.615
1344.00,50.664
1345.00,50.723
1346.00,50.756
1347.00,50.771
1348.00,50.806
1349.00,50.832
1350.00,50.853
1351.00,50.843
1352.00,50.853
1353.00,50.879
1354.00,50.869
1355.00,50.845
1356.00,50.890
1357.00,50.890
1358.00,50.954
1359.00,50.923
1360.00,50.924
1361.00,50.889
1362.00,50.861
1363.00,50.943
1364.00,50.986
1365.00,50.924
1366.00,51.002
1367.00,50.925
1368.00,50.896
1369.00,50.982
1370.00,50.907
1371.00,50.847
1372.00,50.911
1373.00,50.922
1374.00,50.941
1375.00,50.930
1376.00,50.901
1377.00,50.908
1378.00,50.986
1379.00,50.924
1380.00,50.921
1381.00,50.992
1382.00,50.938
1383.00,50.956
1384.00,50.887
1385.00,50.869
1386.00,50.917
1387.00,50.918
1388.00,50.893
1389.00,50.887
1390.00,50.923
1391.00,50.909
1392.00,50.889
1393.00,50.914
1394.00,50.956
1395.00,50.884
1396.00,50.839
1397.00,50.869
1398.00,50.949
1399.00,50.936
1400.00,50.852
1401.00,50.863
1402.00,51.020
1403.00,50.955
1404.00,50.922
1405.00,50.973
1406.00,50.948
1407.00,50.967
1408.00,51.002
1409.00,50.965
1410.00,51.023
1411.00,50.979
1412.00,51.090
1413.00,51.049
1414.00,51.000
1415.00,51.040
1416.00,51.043
1417.00,51.099
1418.00,51.072
1419.00,51.079
1420.00,51.122
1421.00,51.171
1422.00,51.142
1423.00,51.163
1424.00,51.150
1425.00,51.170
1426.00,51.186
1427.00,51.219
1428.00,51.193
1429.00,51.221
1430.00,51.244
1431.00,51.250
1432.00,51.279
1433.00,51.287
1434.00,51.284
1435.00,51.334
1436.00,51.310
1437.00,51.327
1438.00,51.369
1439.00,51.401
1440.00,51.419
1441.00,51.421
1442.00,51.429
1443.00,51.431
1444.00,51.543
1445.00,51.490
1446.00,51.516
1447.00,51.530
1448.00,51.583
1449.00,51.588
1450.00,51.572
1451.00,51.599
1452.00,51.625
1453.00,51.613
1454.00,51.668
1455.00,51.677
1456.00,51.699
1457.00,51.702
1458.00,51.717
1459.00,51.745
1460.00,51.756
1461.00,51.765
1462.00,51.807
1463.00,51.809
1464.00,51.869
1465.00,51.864
1466.00,51.859
1467.00,51.878
1468.00,51.941
1469.00,51.901
1470.00,51.935
1471.00,51.967
1472.00,51.967
1473.00,51.976
1474.00,52.007
1475.00,52.008
1476.00,52.034
1477.00,52.013
1478.00,52.050
1479.00,52.068
1480.00,52.060
1481.00,52.076
1482.00,52.102
1483.00,52.116
1484.00,52.133
1485.00,52.149
1486.00,52.164
1487.00,52.181
1488.00,52.217
1489.00,52.201
1490.00,52.215
1491.00,52.225
1492.00,52.258
1493.00,52.244
1494.00,52.280
1495.00,52.277
1496.00,52.308
1497.00,52.288
1498.00,52.325
1499.00,52.323
1500.00,52.342
1501.00, 
1502.00, 
1503.00, 
1504.00, 
1505.00, 
1506.00, 
1507.00, 
1508.00, 
1509.00, 
1510.00, 
1511.00, 
1512.00, 
1513.00, 
1514.00, 
1515.00, 
1516.00, 
1517.00, 
1518.00, 
1519.00, 
1520.00, 
1521.00, 
1522.00, 
1523.00, 
1524.00, 
1525.00, 
1526.00, 
1527.00, 
1528.00, 
1529.00, 
1530.00, 
1531.00, 
1532.00, 
1533.00, 
1534.00, 
1535.00, 
1536.00, 
1537.00, 
1538.00, 
1539.00, 
1540.00, 
1541.00, 
1542.00, 
1543.00, 
1544.00, 
1545.00, 
1546.00, 
1547.00, 
1548.00, 
1549.00, 
1550.00, 
1551.00, 
1552.00, 
1553.00, 
1554.00, 
1555.00, 
1556.00, 
1557.00, 
1558.00, 
1559.00, 
1560.00, 
1561.00, 
1562.00, 
1563.00, 
1564.00, 
1565.00, 
1566.00, 
1567.00, 
1568.00, 
1569.00, 
1570.00, 
1571.00, 
1572.00, 
1573.00, 
1574.00, 
1575.00, 
1576.00, 
1577.00, 
1578.00, 
1579.00, 
1580.00, 
1581.00, 
1582.00, 
1583.00, 
1584.00, 
1585.00, 
1586.00, 
1587.00, 
1588.00, 
1589.00, 
1590.00, 
1591.00, 
1592.00, 
1593.00, 
1594.00, 
1595.00, 
1596.00, 
1597.00, 
1598.00, 
1599.00, 
1600.00, 
1601.00, 
1602.00, 
1603.00, 
1604.00, 
1605.00, 
1606.00, 
1607.00, 
1608.00, 
1609.00, 
1610.00, 
1611.00, 
1612.00, 
1613.00, 
1614.00, 
1615.00, 
1616.00, 
1617.00, 
1618.00, 
1619.00, 
1620.00, 
1621.00, 
1622.00, 
1623.00, 
1624.00, 
1625.00, 
1626.00, 
1627.00, 
1628.00, 
1629.00, 
1630.00, 
1631.00, 
1632.00, 
1633.00, 
1634.00, 
1635.00, 
1636.00, 
1637.00, 
1638.00, 
1639.00, 
1640.00, 
1641.00, 
1642.00, 
1643.00, 
1644.00, 
1645.00, 
1646.00, 
1647.00, 
1648.00, 
1649.00, 
1650.00, 
1651.00, 
1652.00, 
1653.00, 
1654.00, 
1655.00, 
1656.00, 
1657.00, 
1658.00, 
1659.00, 
1660.00, 
1661.00, 
1662.00, 
1663.00, 
1664.00, 
1665.00, 
1666.00, 
1667.00, 
1668.00, 
1669.00, 
1670.00, 
1671.00, 
1672.00, 
1673.00, 
1674.00, 
1675.00, 
1676.00, 
1677.00, 
1678.00, 
1679.00, 
1680.00, 
1681.00, 
1682.00, 
1683.00, 
1684.00, 
1685.00, 
1686.00, 
1687.00, 
1688.00, 
1689.00, 
1690.00, 
1691.00, 
1692.00, 
1693.00, 
1694.00, 
1695.00, 
1696.00, 
1697.00, 
1698.00, 
1699.00, 
1700.00, 
1701.00, 
1702.00, 
1703.00, 
1704.00, 
1705.00, 
1706.00, 
1707.00, 
1708.00, 
1709.00, 
1710.00, 
1711.00, 
1712.00, 
1713.00, 
1714.00, 
1715.00, 
1716.00, 
1717.00, 
1718.00, 
1719.00, 
1720.00, 
1721.00, 
1722.00, 
1723.00, 
1724.00, 
1725.00, 
1726.00, 
1727.00, 
1728.00, 
1729.00, 
1730.00, 
1731.00, 
1732.00, 
1733.00, 
1734.00, 
1735.00, 
1736.00, 
1737.00, 
1738.00, 
1739.00, 
1740.00, 
1741.00, 
1742.00, 
1743.00, 
1744.00, 
1745.00, 
1746.00, 
1747.00, 
1748.00, 
1749.00, 
1750.00, 
1751.00, 
1752.00, 
1753.00, 
1754.00, 
1755.00, 
1756.00, 
1757.00, 
1758.00, 
1759.00, 
1760.00, 
1761.00, 
1762.00, 
1763.00, 
1764.00, 
1765.00, 
1766.00, 
1767.00, 
1768.00, 
1769.00, 
1770.00, 
1771.00, 
1772.00, 
1773.00, 
1774.00, 
1775.00, 
1776.00, 
1777.00, 
1778.00, 
1779.00, 
1780.00, 
1781.00, 
1782.00, 
1783.00, 
1784.00, 
1785.00, 
1786.00, 
1787.00, 
1788.00, 
1789.00, 
1790.00, 
1791.00, 
1792.00, 
1793.00, 
1794.00, 
1795.00, 
1796.00, 
1797.00, 
1798.00, 
1799.00, 
1800.00, 
1801.00, 
1802.00, 
1803.00, 
1804.00, 
1805.00, 
1806.00, 
1807.00, 
1808.00, 
1809.00, 
1810.00, 
1811.00, 
1812.00, 
1813.00, 
1814.00, 
1815.00, 
1816.00, 
1817.00, 
1818.00, 
1819.00, 
1820.00, 
1821.00, 
1822.00, 
1823.00, 
1824.00, 
1825.00, 
1826.00, 
1827.00, 
1828.00, 
1829.00, 
1830.00, 
1831.00, 
1832.00, 
1833.00, 
1834.00, 
1835.00, 
1836.00, 
1837.00, 
1838.00, 
1839.00, 
1840.00, 
1841.00, 
1842.00, 
1843.00, 
1844.00, 
1845.00, 
1846.00, 
1847.00, 
1848.00, 
1849.00, 
1850.00, 
1851.00, 
1852.00, 
1853.00, 
1854.00, 
1855.00, 
1856.00, 
1857.00, 
1858.00, 
1859.00, 
1860.00, 
1861.00, 
1862.00, 
1863.00, 
1864.00, 
1865.00, 
1866.00, 
1867.00, 
1868.00, 
1869.00, 
1870.00, 
1871.00, 
1872.00, 
1873.00, 
1874.00, 
1875.00, 
1876.00, 
1877.00, 
1878.00, 
1879.00, 
1880.00, 
1881.00, 
1882.00, 
1883.00, 
1884.00, 
1885.00, 
1886.00, 
1887.00, 
1888.00, 
1889.00, 
1890.00, 
1891.00, 
1892.00, 
1893.00, 
1894.00, 
1895.00, 
1896.00, 
1897.00, 
1898.00, 
1899.00, 
1900.00, 
1901.00, 
1902.00, 
1903.00, 
1904.00, 
1905.00, 
1906.00, 
1907.00, 
1908.00, 
1909.00, 
1910.00, 
1911.00, 
1912.00, 
1913.00, 
1914.00, 
1915.00, 
1916.00, 
1917.00, 
1918.00, 
1919.00, 
1920.00, 
1921.00, 
1922.00, 
1923.00, 
1924.00, 
1925.00, 
1926.00, 
1927.00, 
1928.00, 
1929.00, 
1930.00, 
1931.00, 
1932.00, 
1933.00, 
1934.00, 
1935.00, 
1936.00, 
1937.00, 
1938.00, 
1939.00, 
1940.00, 
1941.00, 
1942.00, 
1943.00, 
1944.00, 
1945.00, 
1946.00, 
1947.00, 
1948.00, 
1949.00, 
1950.00, 
1951.00, 
1952.00, 
1953.00, 
1954.00, 
1955.00, 
1956.00, 
1957.00, 
1958.00, 
1959.00, 
1960.00, 
1961.00, 
1962.00, 
1963.00, 
1964.00, 
1965.00, 
1966.00, 
1967.00, 
1968.00, 
1969.00, 
1970.00, 
1971.00, 
1972.00, 
1973.00, 
1974.00, 
1975.00, 
1976.00, 
1977.00, 
1978.00, 
1979.00, 
1980.00, 
1981.00, 
1982.00, 
1983.00, 
1984.00, 
1985.00, 
1986.00, 
1987.00, 
1988.00, 
1989.00, 
1990.00, 
1991.00, 
1992.00, 
1993.00, 
1994.00, 
1995.00, 
1996.00, 
1997.00, 
1998.00, 
1999.00, 
2000.00, 
2001.00, 
2002.00, 
2003.00, 
2004.00, 
2005.00, 
2006.00, 
2007.00, 
2008.00, 
2009.00, 
2010.00, 
2011.00, 
2012.00, 
2013.00, 
2014.00, 
2015.00, 
2016.00, 
2017.00, 
2018.00, 
2019.00, 
2020.00, 
2021.00, 
2022.00, 
2023.00, 
2024.00, 
2025.00, 
2026.00, 
2027.00, 
2028.00, 
2029.00, 
2030.00, 
2031.00, 
2032.00, 
2033.00, 
2034.00, 
2035.00, 
2036.00, 
2037.00, 
2038.00, 
2039.00, 
2040.00, 
2041.00, 
2042.00, 
2043.00, 
2044.00, 
2045.00, 
2046.00, 
2047.00, 
2048.00, 
2049.00, 
2050.00, 
2051.00, 
2052.00, 
2053.00, 
2054.00, 
2055.00, 
2056.00, 
2057.00, 
2058.00, 
2059.00, 
2060.00, 
2061.00, 
2062.00, 
2063.00, 
2064.00, 
2065.00, 
2066.00, 
2067.00, 
2068.00, 
2069.00, 
2070.00, 
2071.00, 
2072.00, 
2073.00, 
2074.00, 
2075.00, 
2076.00, 
2077.00, 
2078.00, 
2079.00, 
2080.00, 
2081.00, 
2082.00, 
2083.00, 
2084.00, 
2085.00, 
2086.00, 
2087.00, 
2088.00, 
2089.00, 
2090.00, 
2091.00, 
2092.00, 
2093.00, 
2094.00, 
2095.00, 
2096.00, 
2097.00, 
2098.00, 
2099.00, 
2100.00, 
2101.00, 
2102.00, 
2103.00, 
2104.00, 
2105.00, 
2106.00, 
2107.00, 
2108.00, 
2109.00, 
2110.00, 
2111.00, 
2112.00, 
2113.00, 
2114.00, 
2115.00, 
2116.00, 
2117.00, 
2118.00, 
2119.00, 
2120.00, 
2121.00, 
2122.00, 
2123.00, 
2124.00, 
2125.00, 
2126.00, 
2127.00, 
2128.00, 
2129.00, 
2130.00, 
2131.00, 
2132.00, 
2133.00, 
2134.00, 
2135.00, 
2136.00, 
2137.00, 
2138.00, 
2139.00, 
2140.00, 
2141.00, 
2142.00, 
2143.00, 
2144.00, 
2145.00, 
2146.00, 
2147.00, 
2148.00, 
2149.00, 
2150.00, 
2151.00, 
2152.00, 
2153.00, 
2154.00, 
2155.00, 
2156.00, 
2157.00, 
2158.00, 
2159.00, 
2160.00, 
2161.00, 
2162.00, 
2163.00, 
2164.00, 
2165.00, 
2166.00, 
2167.00, 
2168.00, 
2169.00, 
2170.00, 
2171.00, 
2172.00, 
2173.00, 
2174.00, 
2175.00, 
2176.00, 
2177.00, 
2178.00, 
2179.00, 
2180.00, 
2181.00, 
2182.00, 
2183.00, 
2184.00, 
2185.00, 
2186.00, 
2187.00, 
2188.00, 
2189.00, 
2190.00, 
2191.00, 
2192.00, 
2193.00, 
2194.00, 
2195.00, 
2196.00, 
2197.00, 
2198.00, 
2199.00, 
2200.00, 
2201.00, 
2202.00, 
2203.00, 
2204.00, 
2205.00, 
2206.00, 
2207.00, 
2208.00, 
2209.00, 
2210.00, 
2211.00, 
2212.00, 
2213.00, 
2214.00, 
2215.00, 
2216.00, 
2217.00, 
2218.00, 
2219.00, 
2220.00, 
2221.00, 
2222.00, 
2223.00, 
2224.00, 
2225.00, 
2226.00, 
2227.00, 
2228.00, 
2229.00, 
2230.00, 
2231.00, 
2232.00, 
2233.00, 
2234.00, 
2235.00, 
2236.00, 
2237.00, 
2238.00, 
2239.00, 
2240.00, 
2241.00, 
2242.00, 
2243.00, 
2244.00, 
2245.00, 
2246.00, 
2247.00, 
2248.00, 
2249.00, 
2250.00, 
2251.00, 
2252.00, 
2253.00, 
2254.00, 
2255.00, 
2256.00, 
2257.00, 
2258.00, 
2259.00, 
2260.00, 
2261.00, 
2262.00, 
2263.00, 
2264.00, 
2265.00, 
2266.00, 
2267.00, 
2268.00, 
2269.00, 
2270.00, 
2271.00, 
2272.00, 
2273.00, 
2274.00, 
2275.00, 
2276.00, 
2277.00, 
2278.00, 
2279.00, 
2280.00, 
2281.00, 
2282.00, 
2283.00, 
2284.00, 
2285.00, 
2286.00, 
2287.00, 
2288.00, 
2289.00, 
2290.00, 
2291.00, 
2292.00, 
2293.00, 
2294.00, 
2295.00, 
2296.00, 
2297.00, 
2298.00, 
2299.00, 
2300.00, 
2301.00, 
2302.00, 
2303.00, 
2304.00, 
2305.00, 
2306.00, 
2307.00, 
2308.00, 
2309.00, 
2310.00, 
2311.00, 
2312.00, 
2313.00, 
2314.00, 
2315.00, 
2316.00, 
2317.00, 
2318.00, 
2319.00, 
2320.00, 
2321.00, 
2322.00, 
2323.00, 
2324.00, 
2325.00, 
2326.00, 
2327.00, 
2328.00, 
2329.00, 
2330.00, 
2331.00, 
2332.00, 
2333.00, 
2334.00, 
2335.00, 
2336.00, 
2337.00, 
2338.00, 
2339.00, 
2340.00, 
2341.00, 
2342.00, 
2343.00, 
2344.00, 
2345.00, 
2346.00, 
2347.00, 
2348.00, 
2349.00, 
2350.00, 
2351.00, 
2352.00, 
2353.00, 
2354.00, 
2355.00, 
2356.00, 
2357.00, 
2358.00, 
2359.00, 
2360.00, 
2361.00, 
2362.00, 
2363.00, 
2364.00, 
2365.00, 
2366.00, 
2367.00, 
2368.00, 
2369.00, 
2370.00, 
2371.00, 
2372.00, 
2373.00, 
2374.00, 
2375.00, 
2376.00, 
2377.00, 
2378.00, 
2379.00, 
2380.00, 
2381.00, 
2382.00, 
2383.00, 
2384.00, 
2385.00, 
2386.00, 
2387.00, 
2388.00, 
2389.00, 
2390.00, 
2391.00, 
2392.00, 
2393.00, 
2394.00, 
2395.00, 
2396.00, 
2397.00, 
2398.00, 
2399.00, 
2400.00, 
2401.00, 
2402.00, 
2403.00, 
2404.00, 
2405.00, 
2406.00, 
2407.00, 
2408.00, 
2409.00, 
2410.00, 
2411.00, 
2412.00, 
2413.00, 
2414.00, 
2415.00, 
2416.00, 
2417.00, 
2418.00, 
2419.00, 
2420.00, 
2421.00, 
2422.00, 
2423.00, 
2424.00, 
2425.00, 
2426.00, 
2427.00, 
2428.00, 
2429.00, 
2430.00, 
2431.00, 
2432.00, 
2433.00, 
2434.00, 
2435.00, 
2436.00, 
2437.00, 
2438.00, 
2439.00, 
2440.00, 
2441.00, 
2442.00, 
2443.00, 
2444.00, 
2445.00, 
2446.00, 
2447.00, 
2448.00, 
2449.00, 
2450.00, 
2451.00, 
2452.00, 
2453.00, 
2454.00, 
2455.00, 
2456.00, 
2457.00, 
2458.00, 
2459.00, 
2460.00, 
2461.00, 
2462.00, 
2463.00, 
2464.00, 
2465.00, 
2466.00, 
2467.00, 
2468.00, 
2469.00, 
2470.00, 
2471.00, 
2472.00, 
2473.00, 
2474.00, 
2475.00, 
2476.00, 
2477.00, 
2478.00, 
2479.00, 
2480.00, 
2481.00, 
2482.00, 
2483.00, 
2484.00, 
2485.00, 
2486.00, 
2487.00, 
2488.00, 
2489.00, 
2490.00, 
2491.00, 
2492.00, 
2493.00, 
2494.00, 
2495.00, 
2496.00, 
2497.00, 
2498.00, 
2499.00, 
2500.00, 
2501.00, 
2502.00, 
2503.00, 
2504.00, 
2505.00, 
2506.00, 
2507.00, 
2508.00, 
2509.00, 
2510.00, 
2511.00, 
2512.00, 
2513.00, 
2514.00, 
2515.00, 
2516.00, 
2517.00, 
2518.00, 
2519.00, 
2520.00, 
2521.00, 
2522.00, 
2523.00, 
2524.00, 
2525.00, 
2526.00, 
2527.00, 
2528.00, 
2529.00, 
2530.00, 
2531.00, 
2532.00, 
2533.00, 
2534.00, 
2535.00, 
2536.00, 
2537.00, 
2538.00, 
2539.00, 
2540.00, 
2541.00, 
2542.00, 
2543.00, 
2544.00, 
2545.00, 
2546.00, 
2547.00, 
2548.00, 
2549.00, 
2550.00, 
2551.00, 
2552.00, 
2553.00, 
2554.00, 
2555.00, 
2556.00, 
2557.00, 
2558.00, 
2559.00, 
2560.00, 
2561.00, 
2562.00, 
2563.00, 
2564.00, 
2565.00, 
2566.00, 
2567.00, 
2568.00, 
2569.00, 
2570.00, 
2571.00, 
2572.00, 
2573.00, 
2574.00, 
2575.00, 
2576.00, 
2577.00, 
2578.00, 
2579.00, 
2580.00, 
2581.00, 
2582.00, 
2583.00, 
2584.00, 
2585.00, 
2586.00, 
2587.00, 
2588.00, 
2589.00, 
2590.00, 
2591.00, 
2592.00, 
2593.00, 
2594.00, 
2595.00, 
2596.00, 
2597.00, 
2598.00, 
2599.00, 
2600.00, 
