"2cP1 - RawData"
"Wavelength nm.","T%"
200.00,0.000
201.00,0.002
202.00,0.005
203.00,-0.003
204.00,0.004
205.00,-0.000
206.00,0.001
207.00,0.000
208.00,0.001
209.00,0.001
210.00,0.001
211.00,0.002
212.00,-0.000
213.00,0.002
214.00,0.002
215.00,0.002
216.00,0.002
217.00,0.003
218.00,-0.002
219.00,-0.001
220.00,0.002
221.00,-0.000
222.00,0.001
223.00,0.002
224.00,0.002
225.00,0.001
226.00,-0.001
227.00,0.002
228.00,0.001
229.00,0.000
230.00,0.002
231.00,0.002
232.00,0.000
233.00,-0.001
234.00,-0.000
235.00,0.001
236.00,0.001
237.00,-0.000
238.00,0.001
239.00,0.000
240.00,0.001
241.00,0.002
242.00,0.001
243.00,0.001
244.00,-0.000
245.00,-0.001
246.00,0.001
247.00,-0.001
248.00,0.000
249.00,-0.000
250.00,0.001
251.00,0.001
252.00,0.001
253.00,0.001
254.00,0.001
255.00,0.001
256.00,0.000
257.00,0.000
258.00,0.000
259.00,-0.001
260.00,0.000
261.00,0.002
262.00,-0.000
263.00,0.001
264.00,0.000
265.00,0.000
266.00,0.001
267.00,-0.001
268.00,-0.000
269.00,-0.001
270.00,0.000
271.00,0.000
272.00,0.000
273.00,-0.001
274.00,0.000
275.00,0.000
276.00,0.000
277.00,-0.000
278.00,0.001
279.00,0.000
280.00,-0.000
281.00,-0.001
282.00,-0.000
283.00,0.001
284.00,0.000
285.00,0.001
286.00,0.001
287.00,-0.001
288.00,0.000
289.00,-0.000
290.00,-0.001
291.00,0.000
292.00,0.000
293.00,-0.001
294.00,-0.002
295.00,-0.000
296.00,-0.000
297.00,0.001
298.00,0.000
299.00,0.002
300.00,0.003
301.00,0.002
302.00,0.004
303.00,0.007
304.00,0.012
305.00,0.017
306.00,0.027
307.00,0.038
308.00,0.062
309.00,0.096
310.00,0.136
311.00,0.180
312.00,0.250
313.00,0.342
314.00,0.453
315.00,0.590
316.00,0.749
317.00,0.948
318.00,1.165
319.00,1.439
320.00,1.749
321.00,2.095
322.00,2.483
323.00,2.926
324.00,3.401
325.00,3.854
326.00,4.343
327.00,4.926
328.00,5.499
329.00,6.066
330.00,6.698
331.00,7.351
332.00,7.978
333.00,8.632
334.00,9.243
335.00,9.910
336.00,10.567
337.00,11.213
338.00,11.855
339.00,12.440
340.00,13.079
341.00,13.687
342.00,14.224
343.00,14.760
344.00,15.251
345.00,15.729
346.00,16.145
347.00,16.656
348.00,17.073
349.00,17.452
350.00,17.834
351.00,18.191
352.00,18.479
353.00,18.836
354.00,19.112
355.00,19.391
356.00,19.649
357.00,19.896
358.00,20.067
359.00,20.267
360.00,20.520
361.00,20.620
362.00,20.804
363.00,20.974
364.00,21.097
365.00,21.175
366.00,21.317
367.00,21.415
368.00,21.449
369.00,21.545
370.00,21.596
371.00,21.651
372.00,21.598
373.00,21.615
374.00,21.615
375.00,21.603
376.00,21.576
377.00,21.550
378.00,21.495
379.00,21.458
380.00,21.425
381.00,21.426
382.00,21.415
383.00,21.471
384.00,21.448
385.00,21.480
386.00,21.556
387.00,21.539
388.00,21.607
389.00,21.595
390.00,21.630
391.00,21.688
392.00,21.686
393.00,21.721
394.00,21.729
395.00,21.739
396.00,21.744
397.00,21.742
398.00,21.772
399.00,21.749
400.00,21.777
401.00,21.755
402.00,21.770
403.00,21.772
404.00,21.833
405.00,21.742
406.00,21.711
407.00,21.699
408.00,21.686
409.00,21.640
410.00,21.618
411.00,21.628
412.00,21.626
413.00,21.597
414.00,21.615
415.00,21.613
416.00,21.612
417.00,21.609
418.00,21.639
419.00,21.654
420.00,21.678
421.00,21.772
422.00,21.802
423.00,21.794
424.00,21.823
425.00,21.849
426.00,21.916
427.00,21.942
428.00,21.967
429.00,22.018
430.00,22.079
431.00,22.094
432.00,22.137
433.00,22.214
434.00,22.265
435.00,22.319
436.00,22.346
437.00,22.412
438.00,22.514
439.00,22.539
440.00,22.594
441.00,22.621
442.00,22.789
443.00,22.843
444.00,22.943
445.00,23.030
446.00,23.118
447.00,23.211
448.00,23.316
449.00,23.386
450.00,23.481
451.00,23.580
452.00,23.680
453.00,23.776
454.00,23.894
455.00,23.991
456.00,24.033
457.00,24.190
458.00,24.333
459.00,24.422
460.00,24.548
461.00,24.667
462.00,24.795
463.00,24.886
464.00,25.031
465.00,25.130
466.00,25.251
467.00,25.391
468.00,25.510
469.00,25.613
470.00,25.672
471.00,25.806
472.00,25.935
473.00,26.032
474.00,26.119
475.00,26.271
476.00,26.351
477.00,26.493
478.00,26.648
479.00,26.787
480.00,26.954
481.00,27.081
482.00,27.186
483.00,27.329
484.00,27.425
485.00,27.624
486.00,27.704
487.00,27.905
488.00,28.065
489.00,28.232
490.00,28.344
491.00,28.473
492.00,28.631
493.00,28.750
494.00,28.802
495.00,28.946
496.00,29.069
497.00,29.159
498.00,29.337
499.00,29.484
500.00,29.595
501.00,29.743
502.00,29.873
503.00,29.996
504.00,30.091
505.00,30.238
506.00,30.373
507.00,30.458
508.00,30.599
509.00,30.719
510.00,30.843
511.00,30.953
512.00,31.107
513.00,31.214
514.00,31.352
515.00,31.535
516.00,31.673
517.00,31.656
518.00,31.763
519.00,31.865
520.00,31.951
521.00,32.034
522.00,32.130
523.00,32.205
524.00,32.308
525.00,32.424
526.00,32.555
527.00,32.587
528.00,32.658
529.00,32.803
530.00,32.849
531.00,33.021
532.00,33.112
533.00,33.201
534.00,33.298
535.00,33.392
536.00,33.466
537.00,33.554
538.00,33.676
539.00,33.701
540.00,33.748
541.00,33.818
542.00,33.864
543.00,34.061
544.00,34.105
545.00,34.153
546.00,34.249
547.00,34.353
548.00,34.425
549.00,34.452
550.00,34.607
551.00,34.598
552.00,34.682
553.00,34.798
554.00,34.828
555.00,34.874
556.00,34.901
557.00,35.018
558.00,35.103
559.00,35.187
560.00,35.319
561.00,35.327
562.00,35.361
563.00,35.399
564.00,35.488
565.00,35.503
566.00,35.571
567.00,35.730
568.00,35.631
569.00,35.621
570.00,35.725
571.00,35.789
572.00,35.750
573.00,35.882
574.00,35.971
575.00,35.962
576.00,36.021
577.00,36.093
578.00,36.137
579.00,36.186
580.00,36.249
581.00,36.427
582.00,36.397
583.00,36.492
584.00,36.584
585.00,36.620
586.00,36.671
587.00,36.720
588.00,36.737
589.00,36.890
590.00,36.898
591.00,36.941
592.00,36.997
593.00,37.052
594.00,37.066
595.00,37.124
596.00,37.189
597.00,37.141
598.00,37.309
599.00,37.314
600.00,37.341
601.00,37.393
602.00,37.368
603.00,37.521
604.00,37.564
605.00,37.631
606.00,37.697
607.00,37.695
608.00,37.855
609.00,37.727
610.00,37.657
611.00,37.801
612.00,37.951
613.00,38.007
614.00,38.067
615.00,38.132
616.00,38.224
617.00,38.242
618.00,38.331
619.00,38.385
620.00,38.407
621.00,38.438
622.00,38.518
623.00,38.609
624.00,38.640
625.00,38.717
626.00,38.737
627.00,38.851
628.00,38.855
629.00,38.898
630.00,39.001
631.00,39.075
632.00,39.141
633.00,39.218
634.00,39.248
635.00,39.375
636.00,39.446
637.00,39.495
638.00,39.571
639.00,39.651
640.00,39.670
641.00,39.716
642.00,39.830
643.00,39.770
644.00,39.910
645.00,39.949
646.00,40.125
647.00,40.209
648.00,40.262
649.00,40.437
650.00,40.388
651.00,40.567
652.00,40.614
653.00,40.663
654.00,40.770
655.00,40.855
656.00,40.979
657.00,41.091
658.00,41.137
659.00,41.258
660.00,41.212
661.00,41.308
662.00,41.533
663.00,41.588
664.00,41.727
665.00,41.750
666.00,41.831
667.00,41.944
668.00,42.077
669.00,42.150
670.00,42.223
671.00,42.340
672.00,42.407
673.00,42.507
674.00,42.543
675.00,42.605
676.00,42.763
677.00,42.845
678.00,42.873
679.00,43.014
680.00,43.103
681.00,43.162
682.00,43.308
683.00,43.370
684.00,43.500
685.00,43.659
686.00,43.573
687.00,43.771
688.00,43.806
689.00,43.837
690.00,43.955
691.00,44.036
692.00,44.092
693.00,44.162
694.00,44.328
695.00,44.288
696.00,44.439
697.00,44.517
698.00,44.585
699.00,44.668
700.00,44.770
701.00,44.994
702.00,45.124
703.00,45.138
704.00,45.182
705.00,45.169
706.00,45.307
707.00,45.354
708.00,45.268
709.00,45.607
710.00,45.572
711.00,45.555
712.00,45.668
713.00,45.833
714.00,45.771
715.00,45.935
716.00,45.966
717.00,46.085
718.00,46.128
719.00,46.199
720.00,46.234
721.00,50.349
722.00,50.316
723.00,50.376
724.00,50.412
725.00,50.434
726.00,50.437
727.00,50.490
728.00,50.536
729.00,50.485
730.00,50.543
731.00,50.592
732.00,50.583
733.00,50.623
734.00,50.648
735.00,50.719
736.00,50.711
737.00,50.812
738.00,50.774
739.00,50.818
740.00,50.791
741.00,50.920
742.00,50.906
743.00,50.962
744.00,50.904
745.00,50.983
746.00,50.892
747.00,50.878
748.00,50.909
749.00,50.988
750.00,50.914
751.00,50.883
752.00,50.933
753.00,51.047
754.00,50.924
755.00,50.987
756.00,51.023
757.00,51.044
758.00,50.977
759.00,51.063
760.00,50.993
761.00,51.093
762.00,51.128
763.00,51.062
764.00,51.122
765.00,51.074
766.00,51.151
767.00,51.190
768.00,51.205
769.00,51.157
770.00,51.218
771.00,51.194
772.00,51.257
773.00,51.265
774.00,51.345
775.00,51.309
776.00,51.257
777.00,51.301
778.00,51.226
779.00,51.293
780.00,51.246
781.00,51.341
782.00,51.263
783.00,51.265
784.00,51.317
785.00,51.241
786.00,51.289
787.00,51.272
788.00,51.245
789.00,51.242
790.00,51.289
791.00,51.273
792.00,51.230
793.00,51.220
794.00,51.196
795.00,51.209
796.00,51.182
797.00,51.111
798.00,51.151
799.00,51.199
800.00,51.190
801.00,51.087
802.00,51.042
803.00,51.078
804.00,51.000
805.00,51.081
806.00,51.031
807.00,51.127
808.00,51.071
809.00,51.012
810.00,51.079
811.00,51.045
812.00,51.046
813.00,50.961
814.00,51.018
815.00,51.008
816.00,51.002
817.00,50.940
818.00,50.980
819.00,50.873
820.00,50.856
821.00,50.891
822.00,50.893
823.00,50.949
824.00,50.878
825.00,50.748
826.00,50.827
827.00,50.846
828.00,50.778
829.00,50.797
830.00,50.772
831.00,53.314
832.00,53.313
833.00,53.257
834.00,53.264
835.00,53.238
836.00,53.216
837.00,53.198
838.00,53.175
839.00,53.160
840.00,53.137
841.00,53.132
842.00,53.112
843.00,53.109
844.00,53.126
845.00,53.049
846.00,53.059
847.00,53.074
848.00,53.012
849.00,52.965
850.00,52.948
851.00,52.863
852.00,52.876
853.00,52.826
854.00,52.829
855.00,52.767
856.00,52.805
857.00,52.731
858.00,52.751
859.00,52.699
860.00,52.680
861.00,52.672
862.00,52.620
863.00,52.633
864.00,52.573
865.00,52.589
866.00,52.662
867.00,52.655
868.00,52.570
869.00,52.597
870.00,52.589
871.00,52.565
872.00,52.573
873.00,52.550
874.00,52.527
875.00,52.418
876.00,52.648
877.00,52.480
878.00,52.440
879.00,52.410
880.00,52.484
881.00,52.318
882.00,52.392
883.00,52.408
884.00,52.350
885.00,52.352
886.00,52.334
887.00,52.299
888.00,52.295
889.00,52.295
890.00,52.251
891.00,52.219
892.00,52.210
893.00,52.174
894.00,52.197
895.00,52.146
896.00,52.123
897.00,52.105
898.00,52.105
899.00,52.077
900.00,52.100
901.00,52.090
902.00,52.120
903.00,51.992
904.00,52.028
905.00,52.016
906.00,51.977
907.00,51.969
908.00,51.928
909.00,51.906
910.00,51.890
911.00,51.890
912.00,51.884
913.00,51.822
914.00,51.813
915.00,51.809
916.00,51.773
917.00,51.759
918.00,51.737
919.00,51.697
920.00,51.696
921.00,51.679
922.00,51.669
923.00,51.652
924.00,51.640
925.00,51.602
926.00,51.610
927.00,51.582
928.00,51.569
929.00,51.540
930.00,51.514
931.00,51.519
932.00,51.472
933.00,51.478
934.00,51.464
935.00,51.429
936.00,51.423
937.00,51.411
938.00,51.401
939.00,51.374
940.00,51.352
941.00,51.345
942.00,51.326
943.00,51.309
944.00,51.275
945.00,51.264
946.00,51.243
947.00,51.217
948.00,51.195
949.00,51.163
950.00,51.148
951.00,51.120
952.00,51.094
953.00,51.073
954.00,51.047
955.00,51.015
956.00,51.015
957.00,50.972
958.00,50.985
959.00,50.935
960.00,50.919
961.00,50.950
962.00,50.917
963.00,50.856
964.00,50.859
965.00,50.860
966.00,50.827
967.00,50.847
968.00,50.819
969.00,50.858
970.00,50.830
971.00,50.830
972.00,50.807
973.00,50.815
974.00,50.830
975.00,50.825
976.00,50.837
977.00,50.810
978.00,50.840
979.00,50.798
980.00,50.841
981.00,50.836
982.00,50.806
983.00,50.810
984.00,50.790
985.00,50.802
986.00,50.772
987.00,50.775
988.00,50.774
989.00,50.748
990.00,50.743
991.00,50.738
992.00,50.738
993.00,50.701
994.00,50.696
995.00,50.700
996.00,50.681
997.00,50.676
998.00,50.632
999.00,50.652
1000.00,50.610
1001.00,50.605
1002.00,50.609
1003.00,50.594
1004.00,50.584
1005.00,50.539
1006.00,50.561
1007.00,50.534
1008.00,50.527
1009.00,50.493
1010.00,50.494
1011.00,50.464
1012.00,50.456
1013.00,50.461
1014.00,50.432
1015.00,50.446
1016.00,50.403
1017.00,50.413
1018.00,50.384
1019.00,50.373
1020.00,50.345
1021.00,50.325
1022.00,50.352
1023.00,50.264
1024.00,50.280
1025.00,50.270
1026.00,50.250
1027.00,50.236
1028.00,50.239
1029.00,50.229
1030.00,50.201
1031.00,50.198
1032.00,50.164
1033.00,50.164
1034.00,50.128
1035.00,50.104
1036.00,50.082
1037.00,50.059
1038.00,50.045
1039.00,50.010
1040.00,50.012
1041.00,49.987
1042.00,49.974
1043.00,49.953
1044.00,49.973
1045.00,49.956
1046.00,49.953
1047.00,49.962
1048.00,49.968
1049.00,49.988
1050.00,49.990
1051.00,50.007
1052.00,50.021
1053.00,50.016
1054.00,50.017
1055.00,50.028
1056.00,50.029
1057.00,50.047
1058.00,50.036
1059.00,50.021
1060.00,50.033
1061.00,50.030
1062.00,50.012
1063.00,50.028
1064.00,50.004
1065.00,49.997
1066.00,49.985
1067.00,49.966
1068.00,49.983
1069.00,49.953
1070.00,49.929
1071.00,49.921
1072.00,49.941
1073.00,49.920
1074.00,49.921
1075.00,49.896
1076.00,49.902
1077.00,49.875
1078.00,49.865
1079.00,49.852
1080.00,49.855
1081.00,49.825
1082.00,49.830
1083.00,49.834
1084.00,49.808
1085.00,49.812
1086.00,49.795
1087.00,49.794
1088.00,49.772
1089.00,49.761
1090.00,49.775
1091.00,49.762
1092.00,49.752
1093.00,49.725
1094.00,49.727
1095.00,49.701
1096.00,49.700
1097.00,49.677
1098.00,49.683
1099.00,49.670
1100.00,49.658
1101.00,49.646
1102.00,49.641
1103.00,49.630
1104.00,49.624
1105.00,49.612
1106.00,49.606
1107.00,49.600
1108.00,49.595
1109.00,49.573
1110.00,49.572
1111.00,49.559
1112.00,49.553
1113.00,49.537
1114.00,49.526
1115.00,49.527
1116.00,49.511
1117.00,49.488
1118.00,49.513
1119.00,49.495
1120.00,49.501
1121.00,49.495
1122.00,49.460
1123.00,49.480
1124.00,49.479
1125.00,49.455
1126.00,49.455
1127.00,49.444
1128.00,49.438
1129.00,49.467
1130.00,49.396
1131.00,49.392
1132.00,49.387
1133.00,49.388
1134.00,49.382
1135.00,49.367
1136.00,49.368
1137.00,49.371
1138.00,49.363
1139.00,49.361
1140.00,49.357
1141.00,49.346
1142.00,49.337
1143.00,49.351
1144.00,49.332
1145.00,49.323
1146.00,49.318
1147.00,49.311
1148.00,49.308
1149.00,49.311
1150.00,49.305
1151.00,49.317
1152.00,49.300
1153.00,49.298
1154.00,49.299
1155.00,49.279
1156.00,49.281
1157.00,49.280
1158.00,49.279
1159.00,49.282
1160.00,49.263
1161.00,49.265
1162.00,49.266
1163.00,49.256
1164.00,49.248
1165.00,49.248
1166.00,49.249
1167.00,49.250
1168.00,49.251
1169.00,49.242
1170.00,49.246
1171.00,49.223
1172.00,49.234
1173.00,49.237
1174.00,49.224
1175.00,49.225
1176.00,49.235
1177.00,49.217
1178.00,49.220
1179.00,49.239
1180.00,49.210
1181.00,49.226
1182.00,49.223
1183.00,49.217
1184.00,49.209
1185.00,49.230
1186.00,49.206
1187.00,49.222
1188.00,49.190
1189.00,49.207
1190.00,49.213
1191.00,49.191
1192.00,49.209
1193.00,49.190
1194.00,49.194
1195.00,49.173
1196.00,49.189
1197.00,49.192
1198.00,49.189
1199.00,49.171
1200.00,49.179
1201.00,49.173
1202.00,49.161
1203.00,49.173
1204.00,49.151
1205.00,49.169
1206.00,49.161
1207.00,49.158
1208.00,49.145
1209.00,49.147
1210.00,49.166
1211.00,49.160
1212.00,49.168
1213.00,49.132
1214.00,49.165
1215.00,49.140
1216.00,49.145
1217.00,49.170
1218.00,49.147
1219.00,49.159
1220.00,49.151
1221.00,49.146
1222.00,49.140
1223.00,49.158
1224.00,49.150
1225.00,49.141
1226.00,49.142
1227.00,49.131
1228.00,49.154
1229.00,49.151
1230.00,49.185
1231.00,49.182
1232.00,49.179
1233.00,49.178
1234.00,49.190
1235.00,49.179
1236.00,49.180
1237.00,49.171
1238.00,49.179
1239.00,49.200
1240.00,49.178
1241.00,49.192
1242.00,49.189
1243.00,49.208
1244.00,49.191
1245.00,49.204
1246.00,49.209
1247.00,49.210
1248.00,49.202
1249.00,49.209
1250.00,49.221
1251.00,49.217
1252.00,49.225
1253.00,49.208
1254.00,49.231
1255.00,49.234
1256.00,49.212
1257.00,49.189
1258.00,49.235
1259.00,49.224
1260.00,49.252
1261.00,49.258
1262.00,49.246
1263.00,49.242
1264.00,49.253
1265.00,49.240
1266.00,49.251
1267.00,49.248
1268.00,49.268
1269.00,49.256
1270.00,49.273
1271.00,49.273
1272.00,49.279
1273.00,49.287
1274.00,49.284
1275.00,49.284
1276.00,49.283
1277.00,49.291
1278.00,49.306
1279.00,49.296
1280.00,49.307
1281.00,49.318
1282.00,49.319
1283.00,49.311
1284.00,49.308
1285.00,49.298
1286.00,49.321
1287.00,49.305
1288.00,49.325
1289.00,49.324
1290.00,49.334
1291.00,49.339
1292.00,49.343
1293.00,49.339
1294.00,49.342
1295.00,49.362
1296.00,49.388
1297.00,49.378
1298.00,49.371
1299.00,49.363
1300.00,49.383
1301.00,49.382
1302.00,49.387
1303.00,49.411
1304.00,49.377
1305.00,49.412
1306.00,49.410
1307.00,49.424
1308.00,49.426
1309.00,49.415
1310.00,49.425
1311.00,49.413
1312.00,49.409
1313.00,49.410
1314.00,49.427
1315.00,49.437
1316.00,49.449
1317.00,49.459
1318.00,49.453
1319.00,49.460
1320.00,49.492
1321.00,49.647
1322.00,49.667
1323.00,49.630
1324.00,49.640
1325.00,49.623
1326.00,49.647
1327.00,49.635
1328.00,49.640
1329.00,49.622
1330.00,49.641
1331.00,49.639
1332.00,49.637
1333.00,49.637
1334.00,49.657
1335.00,49.689
1336.00,49.717
1337.00,49.725
1338.00,49.785
1339.00,49.844
1340.00,49.927
1341.00,50.005
1342.00,50.047
1343.00,50.094
1344.00,50.131
1345.00,50.193
1346.00,50.242
1347.00,50.255
1348.00,50.265
1349.00,50.296
1350.00,50.297
1351.00,50.316
1352.00,50.311
1353.00,50.371
1354.00,50.325
1355.00,50.228
1356.00,50.356
1357.00,50.347
1358.00,50.389
1359.00,50.353
1360.00,50.423
1361.00,50.280
1362.00,50.306
1363.00,50.424
1364.00,50.412
1365.00,50.364
1366.00,50.428
1367.00,50.351
1368.00,50.307
1369.00,50.360
1370.00,50.285
1371.00,50.341
1372.00,50.357
1373.00,50.320
1374.00,50.345
1375.00,50.319
1376.00,50.318
1377.00,50.321
1378.00,50.396
1379.00,50.335
1380.00,50.337
1381.00,50.366
1382.00,50.259
1383.00,50.310
1384.00,50.255
1385.00,50.260
1386.00,50.304
1387.00,50.298
1388.00,50.268
1389.00,50.280
1390.00,50.365
1391.00,50.277
1392.00,50.286
1393.00,50.367
1394.00,50.273
1395.00,50.224
1396.00,50.242
1397.00,50.342
1398.00,50.310
1399.00,50.308
1400.00,50.200
1401.00,50.303
1402.00,50.045
1403.00,50.278
1404.00,50.282
1405.00,50.323
1406.00,50.300
1407.00,50.360
1408.00,50.320
1409.00,50.307
1410.00,50.368
1411.00,50.344
1412.00,50.406
1413.00,50.350
1414.00,50.355
1415.00,50.386
1416.00,50.449
1417.00,50.419
1418.00,50.396
1419.00,50.382
1420.00,50.432
1421.00,50.469
1422.00,50.463
1423.00,50.446
1424.00,50.477
1425.00,50.479
1426.00,50.513
1427.00,50.517
1428.00,50.514
1429.00,50.545
1430.00,50.551
1431.00,50.569
1432.00,50.587
1433.00,50.600
1434.00,50.600
1435.00,50.652
1436.00,50.636
1437.00,50.637
1438.00,50.652
1439.00,50.685
1440.00,50.685
1441.00,50.695
1442.00,50.694
1443.00,50.735
1444.00,50.763
1445.00,50.758
1446.00,50.771
1447.00,50.781
1448.00,50.815
1449.00,50.820
1450.00,50.810
1451.00,50.827
1452.00,50.827
1453.00,50.855
1454.00,50.878
1455.00,50.896
1456.00,50.905
1457.00,50.916
1458.00,50.919
1459.00,50.950
1460.00,50.948
1461.00,50.955
1462.00,51.019
1463.00,51.002
1464.00,51.023
1465.00,51.030
1466.00,51.031
1467.00,51.059
1468.00,51.093
1469.00,51.085
1470.00,51.088
1471.00,51.114
1472.00,51.126
1473.00,51.145
1474.00,51.172
1475.00,51.161
1476.00,51.186
1477.00,51.170
1478.00,51.198
1479.00,51.221
1480.00,51.210
1481.00,51.223
1482.00,51.234
1483.00,51.247
1484.00,51.262
1485.00,51.281
1486.00,51.287
1487.00,51.298
1488.00,51.325
1489.00,51.328
1490.00,51.345
1491.00,51.332
1492.00,51.353
1493.00,51.359
1494.00,51.370
1495.00,51.386
1496.00,51.387
1497.00,51.398
1498.00,51.407
1499.00,51.424
1500.00,51.440
1501.00, 
1502.00, 
1503.00, 
1504.00, 
1505.00, 
1506.00, 
1507.00, 
1508.00, 
1509.00, 
1510.00, 
1511.00, 
1512.00, 
1513.00, 
1514.00, 
1515.00, 
1516.00, 
1517.00, 
1518.00, 
1519.00, 
1520.00, 
1521.00, 
1522.00, 
1523.00, 
1524.00, 
1525.00, 
1526.00, 
1527.00, 
1528.00, 
1529.00, 
1530.00, 
1531.00, 
1532.00, 
1533.00, 
1534.00, 
1535.00, 
1536.00, 
1537.00, 
1538.00, 
1539.00, 
1540.00, 
1541.00, 
1542.00, 
1543.00, 
1544.00, 
1545.00, 
1546.00, 
1547.00, 
1548.00, 
1549.00, 
1550.00, 
1551.00, 
1552.00, 
1553.00, 
1554.00, 
1555.00, 
1556.00, 
1557.00, 
1558.00, 
1559.00, 
1560.00, 
1561.00, 
1562.00, 
1563.00, 
1564.00, 
1565.00, 
1566.00, 
1567.00, 
1568.00, 
1569.00, 
1570.00, 
1571.00, 
1572.00, 
1573.00, 
1574.00, 
1575.00, 
1576.00, 
1577.00, 
1578.00, 
1579.00, 
1580.00, 
1581.00, 
1582.00, 
1583.00, 
1584.00, 
1585.00, 
1586.00, 
1587.00, 
1588.00, 
1589.00, 
1590.00, 
1591.00, 
1592.00, 
1593.00, 
1594.00, 
1595.00, 
1596.00, 
1597.00, 
1598.00, 
1599.00, 
1600.00, 
1601.00, 
1602.00, 
1603.00, 
1604.00, 
1605.00, 
1606.00, 
1607.00, 
1608.00, 
1609.00, 
1610.00, 
1611.00, 
1612.00, 
1613.00, 
1614.00, 
1615.00, 
1616.00, 
1617.00, 
1618.00, 
1619.00, 
1620.00, 
1621.00, 
1622.00, 
1623.00, 
1624.00, 
1625.00, 
1626.00, 
1627.00, 
1628.00, 
1629.00, 
1630.00, 
1631.00, 
1632.00, 
1633.00, 
1634.00, 
1635.00, 
1636.00, 
1637.00, 
1638.00, 
1639.00, 
1640.00, 
1641.00, 
1642.00, 
1643.00, 
1644.00, 
1645.00, 
1646.00, 
1647.00, 
1648.00, 
1649.00, 
1650.00, 
1651.00, 
1652.00, 
1653.00, 
1654.00, 
1655.00, 
1656.00, 
1657.00, 
1658.00, 
1659.00, 
1660.00, 
1661.00, 
1662.00, 
1663.00, 
1664.00, 
1665.00, 
1666.00, 
1667.00, 
1668.00, 
1669.00, 
1670.00, 
1671.00, 
1672.00, 
1673.00, 
1674.00, 
1675.00, 
1676.00, 
1677.00, 
1678.00, 
1679.00, 
1680.00, 
1681.00, 
1682.00, 
1683.00, 
1684.00, 
1685.00, 
1686.00, 
1687.00, 
1688.00, 
1689.00, 
1690.00, 
1691.00, 
1692.00, 
1693.00, 
1694.00, 
1695.00, 
1696.00, 
1697.00, 
1698.00, 
1699.00, 
1700.00, 
1701.00, 
1702.00, 
1703.00, 
1704.00, 
1705.00, 
1706.00, 
1707.00, 
1708.00, 
1709.00, 
1710.00, 
1711.00, 
1712.00, 
1713.00, 
1714.00, 
1715.00, 
1716.00, 
1717.00, 
1718.00, 
1719.00, 
1720.00, 
1721.00, 
1722.00, 
1723.00, 
1724.00, 
1725.00, 
1726.00, 
1727.00, 
1728.00, 
1729.00, 
1730.00, 
1731.00, 
1732.00, 
1733.00, 
1734.00, 
1735.00, 
1736.00, 
1737.00, 
1738.00, 
1739.00, 
1740.00, 
1741.00, 
1742.00, 
1743.00, 
1744.00, 
1745.00, 
1746.00, 
1747.00, 
1748.00, 
1749.00, 
1750.00, 
1751.00, 
1752.00, 
1753.00, 
1754.00, 
1755.00, 
1756.00, 
1757.00, 
1758.00, 
1759.00, 
1760.00, 
1761.00, 
1762.00, 
1763.00, 
1764.00, 
1765.00, 
1766.00, 
1767.00, 
1768.00, 
1769.00, 
1770.00, 
1771.00, 
1772.00, 
1773.00, 
1774.00, 
1775.00, 
1776.00, 
1777.00, 
1778.00, 
1779.00, 
1780.00, 
1781.00, 
1782.00, 
1783.00, 
1784.00, 
1785.00, 
1786.00, 
1787.00, 
1788.00, 
1789.00, 
1790.00, 
1791.00, 
1792.00, 
1793.00, 
1794.00, 
1795.00, 
1796.00, 
1797.00, 
1798.00, 
1799.00, 
1800.00, 
1801.00, 
1802.00, 
1803.00, 
1804.00, 
1805.00, 
1806.00, 
1807.00, 
1808.00, 
1809.00, 
1810.00, 
1811.00, 
1812.00, 
1813.00, 
1814.00, 
1815.00, 
1816.00, 
1817.00, 
1818.00, 
1819.00, 
1820.00, 
1821.00, 
1822.00, 
1823.00, 
1824.00, 
1825.00, 
1826.00, 
1827.00, 
1828.00, 
1829.00, 
1830.00, 
1831.00, 
1832.00, 
1833.00, 
1834.00, 
1835.00, 
1836.00, 
1837.00, 
1838.00, 
1839.00, 
1840.00, 
1841.00, 
1842.00, 
1843.00, 
1844.00, 
1845.00, 
1846.00, 
1847.00, 
1848.00, 
1849.00, 
1850.00, 
1851.00, 
1852.00, 
1853.00, 
1854.00, 
1855.00, 
1856.00, 
1857.00, 
1858.00, 
1859.00, 
1860.00, 
1861.00, 
1862.00, 
1863.00, 
1864.00, 
1865.00, 
1866.00, 
1867.00, 
1868.00, 
1869.00, 
1870.00, 
1871.00, 
1872.00, 
1873.00, 
1874.00, 
1875.00, 
1876.00, 
1877.00, 
1878.00, 
1879.00, 
1880.00, 
1881.00, 
1882.00, 
1883.00, 
1884.00, 
1885.00, 
1886.00, 
1887.00, 
1888.00, 
1889.00, 
1890.00, 
1891.00, 
1892.00, 
1893.00, 
1894.00, 
1895.00, 
1896.00, 
1897.00, 
1898.00, 
1899.00, 
1900.00, 
1901.00, 
1902.00, 
1903.00, 
1904.00, 
1905.00, 
1906.00, 
1907.00, 
1908.00, 
1909.00, 
1910.00, 
1911.00, 
1912.00, 
1913.00, 
1914.00, 
1915.00, 
1916.00, 
1917.00, 
1918.00, 
1919.00, 
1920.00, 
1921.00, 
1922.00, 
1923.00, 
1924.00, 
1925.00, 
1926.00, 
1927.00, 
1928.00, 
1929.00, 
1930.00, 
1931.00, 
1932.00, 
1933.00, 
1934.00, 
1935.00, 
1936.00, 
1937.00, 
1938.00, 
1939.00, 
1940.00, 
1941.00, 
1942.00, 
1943.00, 
1944.00, 
1945.00, 
1946.00, 
1947.00, 
1948.00, 
1949.00, 
1950.00, 
1951.00, 
1952.00, 
1953.00, 
1954.00, 
1955.00, 
1956.00, 
1957.00, 
1958.00, 
1959.00, 
1960.00, 
1961.00, 
1962.00, 
1963.00, 
1964.00, 
1965.00, 
1966.00, 
1967.00, 
1968.00, 
1969.00, 
1970.00, 
1971.00, 
1972.00, 
1973.00, 
1974.00, 
1975.00, 
1976.00, 
1977.00, 
1978.00, 
1979.00, 
1980.00, 
1981.00, 
1982.00, 
1983.00, 
1984.00, 
1985.00, 
1986.00, 
1987.00, 
1988.00, 
1989.00, 
1990.00, 
1991.00, 
1992.00, 
1993.00, 
1994.00, 
1995.00, 
1996.00, 
1997.00, 
1998.00, 
1999.00, 
2000.00, 
2001.00, 
2002.00, 
2003.00, 
2004.00, 
2005.00, 
2006.00, 
2007.00, 
2008.00, 
2009.00, 
2010.00, 
2011.00, 
2012.00, 
2013.00, 
2014.00, 
2015.00, 
2016.00, 
2017.00, 
2018.00, 
2019.00, 
2020.00, 
2021.00, 
2022.00, 
2023.00, 
2024.00, 
2025.00, 
2026.00, 
2027.00, 
2028.00, 
2029.00, 
2030.00, 
2031.00, 
2032.00, 
2033.00, 
2034.00, 
2035.00, 
2036.00, 
2037.00, 
2038.00, 
2039.00, 
2040.00, 
2041.00, 
2042.00, 
2043.00, 
2044.00, 
2045.00, 
2046.00, 
2047.00, 
2048.00, 
2049.00, 
2050.00, 
2051.00, 
2052.00, 
2053.00, 
2054.00, 
2055.00, 
2056.00, 
2057.00, 
2058.00, 
2059.00, 
2060.00, 
2061.00, 
2062.00, 
2063.00, 
2064.00, 
2065.00, 
2066.00, 
2067.00, 
2068.00, 
2069.00, 
2070.00, 
2071.00, 
2072.00, 
2073.00, 
2074.00, 
2075.00, 
2076.00, 
2077.00, 
2078.00, 
2079.00, 
2080.00, 
2081.00, 
2082.00, 
2083.00, 
2084.00, 
2085.00, 
2086.00, 
2087.00, 
2088.00, 
2089.00, 
2090.00, 
2091.00, 
2092.00, 
2093.00, 
2094.00, 
2095.00, 
2096.00, 
2097.00, 
2098.00, 
2099.00, 
2100.00, 
2101.00, 
2102.00, 
2103.00, 
2104.00, 
2105.00, 
2106.00, 
2107.00, 
2108.00, 
2109.00, 
2110.00, 
2111.00, 
2112.00, 
2113.00, 
2114.00, 
2115.00, 
2116.00, 
2117.00, 
2118.00, 
2119.00, 
2120.00, 
2121.00, 
2122.00, 
2123.00, 
2124.00, 
2125.00, 
2126.00, 
2127.00, 
2128.00, 
2129.00, 
2130.00, 
2131.00, 
2132.00, 
2133.00, 
2134.00, 
2135.00, 
2136.00, 
2137.00, 
2138.00, 
2139.00, 
2140.00, 
2141.00, 
2142.00, 
2143.00, 
2144.00, 
2145.00, 
2146.00, 
2147.00, 
2148.00, 
2149.00, 
2150.00, 
2151.00, 
2152.00, 
2153.00, 
2154.00, 
2155.00, 
2156.00, 
2157.00, 
2158.00, 
2159.00, 
2160.00, 
2161.00, 
2162.00, 
2163.00, 
2164.00, 
2165.00, 
2166.00, 
2167.00, 
2168.00, 
2169.00, 
2170.00, 
2171.00, 
2172.00, 
2173.00, 
2174.00, 
2175.00, 
2176.00, 
2177.00, 
2178.00, 
2179.00, 
2180.00, 
2181.00, 
2182.00, 
2183.00, 
2184.00, 
2185.00, 
2186.00, 
2187.00, 
2188.00, 
2189.00, 
2190.00, 
2191.00, 
2192.00, 
2193.00, 
2194.00, 
2195.00, 
2196.00, 
2197.00, 
2198.00, 
2199.00, 
2200.00, 
2201.00, 
2202.00, 
2203.00, 
2204.00, 
2205.00, 
2206.00, 
2207.00, 
2208.00, 
2209.00, 
2210.00, 
2211.00, 
2212.00, 
2213.00, 
2214.00, 
2215.00, 
2216.00, 
2217.00, 
2218.00, 
2219.00, 
2220.00, 
2221.00, 
2222.00, 
2223.00, 
2224.00, 
2225.00, 
2226.00, 
2227.00, 
2228.00, 
2229.00, 
2230.00, 
2231.00, 
2232.00, 
2233.00, 
2234.00, 
2235.00, 
2236.00, 
2237.00, 
2238.00, 
2239.00, 
2240.00, 
2241.00, 
2242.00, 
2243.00, 
2244.00, 
2245.00, 
2246.00, 
2247.00, 
2248.00, 
2249.00, 
2250.00, 
2251.00, 
2252.00, 
2253.00, 
2254.00, 
2255.00, 
2256.00, 
2257.00, 
2258.00, 
2259.00, 
2260.00, 
2261.00, 
2262.00, 
2263.00, 
2264.00, 
2265.00, 
2266.00, 
2267.00, 
2268.00, 
2269.00, 
2270.00, 
2271.00, 
2272.00, 
2273.00, 
2274.00, 
2275.00, 
2276.00, 
2277.00, 
2278.00, 
2279.00, 
2280.00, 
2281.00, 
2282.00, 
2283.00, 
2284.00, 
2285.00, 
2286.00, 
2287.00, 
2288.00, 
2289.00, 
2290.00, 
2291.00, 
2292.00, 
2293.00, 
2294.00, 
2295.00, 
2296.00, 
2297.00, 
2298.00, 
2299.00, 
2300.00, 
2301.00, 
2302.00, 
2303.00, 
2304.00, 
2305.00, 
2306.00, 
2307.00, 
2308.00, 
2309.00, 
2310.00, 
2311.00, 
2312.00, 
2313.00, 
2314.00, 
2315.00, 
2316.00, 
2317.00, 
2318.00, 
2319.00, 
2320.00, 
2321.00, 
2322.00, 
2323.00, 
2324.00, 
2325.00, 
2326.00, 
2327.00, 
2328.00, 
2329.00, 
2330.00, 
2331.00, 
2332.00, 
2333.00, 
2334.00, 
2335.00, 
2336.00, 
2337.00, 
2338.00, 
2339.00, 
2340.00, 
2341.00, 
2342.00, 
2343.00, 
2344.00, 
2345.00, 
2346.00, 
2347.00, 
2348.00, 
2349.00, 
2350.00, 
2351.00, 
2352.00, 
2353.00, 
2354.00, 
2355.00, 
2356.00, 
2357.00, 
2358.00, 
2359.00, 
2360.00, 
2361.00, 
2362.00, 
2363.00, 
2364.00, 
2365.00, 
2366.00, 
2367.00, 
2368.00, 
2369.00, 
2370.00, 
2371.00, 
2372.00, 
2373.00, 
2374.00, 
2375.00, 
2376.00, 
2377.00, 
2378.00, 
2379.00, 
2380.00, 
2381.00, 
2382.00, 
2383.00, 
2384.00, 
2385.00, 
2386.00, 
2387.00, 
2388.00, 
2389.00, 
2390.00, 
2391.00, 
2392.00, 
2393.00, 
2394.00, 
2395.00, 
2396.00, 
2397.00, 
2398.00, 
2399.00, 
2400.00, 
2401.00, 
2402.00, 
2403.00, 
2404.00, 
2405.00, 
2406.00, 
2407.00, 
2408.00, 
2409.00, 
2410.00, 
2411.00, 
2412.00, 
2413.00, 
2414.00, 
2415.00, 
2416.00, 
2417.00, 
2418.00, 
2419.00, 
2420.00, 
2421.00, 
2422.00, 
2423.00, 
2424.00, 
2425.00, 
2426.00, 
2427.00, 
2428.00, 
2429.00, 
2430.00, 
2431.00, 
2432.00, 
2433.00, 
2434.00, 
2435.00, 
2436.00, 
2437.00, 
2438.00, 
2439.00, 
2440.00, 
2441.00, 
2442.00, 
2443.00, 
2444.00, 
2445.00, 
2446.00, 
2447.00, 
2448.00, 
2449.00, 
2450.00, 
2451.00, 
2452.00, 
2453.00, 
2454.00, 
2455.00, 
2456.00, 
2457.00, 
2458.00, 
2459.00, 
2460.00, 
2461.00, 
2462.00, 
2463.00, 
2464.00, 
2465.00, 
2466.00, 
2467.00, 
2468.00, 
2469.00, 
2470.00, 
2471.00, 
2472.00, 
2473.00, 
2474.00, 
2475.00, 
2476.00, 
2477.00, 
2478.00, 
2479.00, 
2480.00, 
2481.00, 
2482.00, 
2483.00, 
2484.00, 
2485.00, 
2486.00, 
2487.00, 
2488.00, 
2489.00, 
2490.00, 
2491.00, 
2492.00, 
2493.00, 
2494.00, 
2495.00, 
2496.00, 
2497.00, 
2498.00, 
2499.00, 
2500.00, 
2501.00, 
2502.00, 
2503.00, 
2504.00, 
2505.00, 
2506.00, 
2507.00, 
2508.00, 
2509.00, 
2510.00, 
2511.00, 
2512.00, 
2513.00, 
2514.00, 
2515.00, 
2516.00, 
2517.00, 
2518.00, 
2519.00, 
2520.00, 
2521.00, 
2522.00, 
2523.00, 
2524.00, 
2525.00, 
2526.00, 
2527.00, 
2528.00, 
2529.00, 
2530.00, 
2531.00, 
2532.00, 
2533.00, 
2534.00, 
2535.00, 
2536.00, 
2537.00, 
2538.00, 
2539.00, 
2540.00, 
2541.00, 
2542.00, 
2543.00, 
2544.00, 
2545.00, 
2546.00, 
2547.00, 
2548.00, 
2549.00, 
2550.00, 
2551.00, 
2552.00, 
2553.00, 
2554.00, 
2555.00, 
2556.00, 
2557.00, 
2558.00, 
2559.00, 
2560.00, 
2561.00, 
2562.00, 
2563.00, 
2564.00, 
2565.00, 
2566.00, 
2567.00, 
2568.00, 
2569.00, 
2570.00, 
2571.00, 
2572.00, 
2573.00, 
2574.00, 
2575.00, 
2576.00, 
2577.00, 
2578.00, 
2579.00, 
2580.00, 
2581.00, 
2582.00, 
2583.00, 
2584.00, 
2585.00, 
2586.00, 
2587.00, 
2588.00, 
2589.00, 
2590.00, 
2591.00, 
2592.00, 
2593.00, 
2594.00, 
2595.00, 
2596.00, 
2597.00, 
2598.00, 
2599.00, 
2600.00, 
