"2cP3 - RawData"
"Wavelength nm.","T%"
200.00,0.002
201.00,0.003
202.00,0.002
203.00,0.001
204.00,0.003
205.00,0.003
206.00,0.000
207.00,0.003
208.00,-0.000
209.00,0.003
210.00,-0.002
211.00,0.001
212.00,0.002
213.00,0.003
214.00,0.002
215.00,0.002
216.00,0.000
217.00,0.001
218.00,0.001
219.00,-0.001
220.00,0.001
221.00,0.001
222.00,0.001
223.00,0.000
224.00,0.003
225.00,0.003
226.00,0.003
227.00,0.000
228.00,0.001
229.00,-0.001
230.00,0.001
231.00,0.000
232.00,0.002
233.00,0.000
234.00,-0.000
235.00,0.001
236.00,0.000
237.00,0.000
238.00,-0.001
239.00,-0.002
240.00,0.001
241.00,0.001
242.00,0.000
243.00,-0.000
244.00,0.000
245.00,0.000
246.00,0.001
247.00,0.000
248.00,0.001
249.00,0.000
250.00,-0.002
251.00,0.002
252.00,-0.000
253.00,0.001
254.00,0.001
255.00,-0.000
256.00,-0.000
257.00,-0.000
258.00,0.000
259.00,0.002
260.00,-0.000
261.00,0.001
262.00,0.001
263.00,-0.002
264.00,0.000
265.00,-0.000
266.00,0.000
267.00,0.000
268.00,0.001
269.00,-0.000
270.00,-0.000
271.00,-0.000
272.00,-0.000
273.00,0.001
274.00,0.000
275.00,0.001
276.00,-0.000
277.00,-0.001
278.00,-0.000
279.00,0.001
280.00,0.000
281.00,0.000
282.00,-0.000
283.00,0.002
284.00,0.001
285.00,0.001
286.00,0.001
287.00,0.001
288.00,0.003
289.00,0.001
290.00,-0.002
291.00,0.000
292.00,0.000
293.00,0.000
294.00,-0.000
295.00,0.000
296.00,-0.001
297.00,0.001
298.00,0.000
299.00,0.003
300.00,0.003
301.00,0.004
302.00,0.006
303.00,0.007
304.00,0.013
305.00,0.020
306.00,0.030
307.00,0.047
308.00,0.071
309.00,0.111
310.00,0.158
311.00,0.208
312.00,0.291
313.00,0.395
314.00,0.520
315.00,0.684
316.00,0.874
317.00,1.104
318.00,1.371
319.00,1.665
320.00,2.042
321.00,2.459
322.00,2.909
323.00,3.452
324.00,4.001
325.00,4.550
326.00,5.153
327.00,5.730
328.00,6.462
329.00,7.159
330.00,7.907
331.00,8.659
332.00,9.413
333.00,10.226
334.00,10.966
335.00,11.747
336.00,12.541
337.00,13.318
338.00,14.069
339.00,14.803
340.00,15.540
341.00,16.244
342.00,16.942
343.00,17.610
344.00,18.202
345.00,18.788
346.00,19.365
347.00,19.873
348.00,20.403
349.00,20.855
350.00,21.363
351.00,21.764
352.00,22.160
353.00,22.561
354.00,22.945
355.00,23.282
356.00,23.604
357.00,23.968
358.00,24.173
359.00,24.428
360.00,24.685
361.00,24.855
362.00,25.088
363.00,25.316
364.00,25.441
365.00,25.631
366.00,25.756
367.00,25.820
368.00,26.031
369.00,26.098
370.00,26.165
371.00,26.228
372.00,26.284
373.00,26.321
374.00,26.311
375.00,26.314
376.00,26.280
377.00,26.243
378.00,26.194
379.00,26.194
380.00,26.154
381.00,26.178
382.00,26.189
383.00,26.257
384.00,26.266
385.00,26.351
386.00,26.396
387.00,26.439
388.00,26.507
389.00,26.514
390.00,26.639
391.00,26.592
392.00,26.661
393.00,26.673
394.00,26.741
395.00,26.763
396.00,26.807
397.00,26.848
398.00,26.860
399.00,26.824
400.00,26.863
401.00,26.866
402.00,26.858
403.00,26.883
404.00,26.883
405.00,26.913
406.00,26.852
407.00,26.812
408.00,26.812
409.00,26.773
410.00,26.728
411.00,26.730
412.00,26.728
413.00,26.731
414.00,26.750
415.00,26.733
416.00,26.795
417.00,26.781
418.00,26.782
419.00,26.863
420.00,26.859
421.00,26.948
422.00,26.953
423.00,26.986
424.00,27.057
425.00,27.110
426.00,27.041
427.00,27.111
428.00,27.153
429.00,27.184
430.00,27.224
431.00,27.258
432.00,27.299
433.00,27.365
434.00,27.411
435.00,27.450
436.00,27.514
437.00,27.496
438.00,27.639
439.00,27.718
440.00,27.774
441.00,27.854
442.00,27.892
443.00,27.988
444.00,28.064
445.00,28.111
446.00,28.196
447.00,28.287
448.00,28.419
449.00,28.475
450.00,28.572
451.00,28.653
452.00,28.681
453.00,28.860
454.00,28.958
455.00,29.055
456.00,29.191
457.00,29.248
458.00,29.324
459.00,29.440
460.00,29.581
461.00,29.676
462.00,29.758
463.00,29.882
464.00,29.995
465.00,30.107
466.00,30.177
467.00,30.370
468.00,30.439
469.00,30.583
470.00,30.655
471.00,30.711
472.00,30.820
473.00,30.901
474.00,31.009
475.00,31.100
476.00,31.223
477.00,31.286
478.00,31.430
479.00,31.525
480.00,31.659
481.00,31.822
482.00,31.932
483.00,32.041
484.00,32.193
485.00,32.362
486.00,32.488
487.00,32.595
488.00,32.723
489.00,32.935
490.00,32.985
491.00,33.136
492.00,33.220
493.00,33.432
494.00,33.437
495.00,33.621
496.00,33.711
497.00,33.777
498.00,33.914
499.00,34.107
500.00,34.130
501.00,34.225
502.00,34.402
503.00,34.408
504.00,34.606
505.00,34.742
506.00,34.828
507.00,34.945
508.00,35.036
509.00,35.181
510.00,35.277
511.00,35.383
512.00,35.498
513.00,35.593
514.00,35.711
515.00,35.822
516.00,35.961
517.00,36.017
518.00,36.209
519.00,36.211
520.00,36.325
521.00,36.369
522.00,36.461
523.00,36.552
524.00,36.590
525.00,36.695
526.00,36.832
527.00,36.961
528.00,37.021
529.00,37.091
530.00,37.194
531.00,37.394
532.00,37.459
533.00,37.573
534.00,37.617
535.00,37.721
536.00,37.803
537.00,37.822
538.00,37.998
539.00,38.125
540.00,38.057
541.00,38.119
542.00,38.155
543.00,38.254
544.00,38.341
545.00,38.391
546.00,38.466
547.00,38.561
548.00,38.583
549.00,38.690
550.00,38.833
551.00,38.852
552.00,38.927
553.00,39.045
554.00,39.099
555.00,39.168
556.00,39.207
557.00,39.276
558.00,39.312
559.00,39.373
560.00,39.476
561.00,39.485
562.00,39.549
563.00,39.611
564.00,39.677
565.00,39.734
566.00,39.728
567.00,39.793
568.00,39.808
569.00,39.845
570.00,39.901
571.00,39.948
572.00,39.923
573.00,39.972
574.00,40.081
575.00,40.079
576.00,40.101
577.00,40.176
578.00,40.248
579.00,40.307
580.00,40.449
581.00,40.495
582.00,40.583
583.00,40.647
584.00,40.776
585.00,40.739
586.00,40.887
587.00,41.051
588.00,40.915
589.00,40.911
590.00,40.939
591.00,40.964
592.00,41.077
593.00,41.104
594.00,41.133
595.00,41.185
596.00,41.209
597.00,41.288
598.00,41.399
599.00,41.467
600.00,41.532
601.00,41.553
602.00,41.586
603.00,41.610
604.00,41.609
605.00,41.689
606.00,41.816
607.00,41.796
608.00,41.871
609.00,41.920
610.00,41.803
611.00,41.804
612.00,41.981
613.00,42.032
614.00,42.060
615.00,42.083
616.00,42.250
617.00,42.210
618.00,42.325
619.00,42.359
620.00,42.284
621.00,42.390
622.00,42.471
623.00,42.569
624.00,42.565
625.00,42.655
626.00,42.687
627.00,42.734
628.00,42.780
629.00,42.756
630.00,42.783
631.00,42.896
632.00,42.927
633.00,43.010
634.00,43.045
635.00,43.220
636.00,43.253
637.00,43.330
638.00,43.410
639.00,43.412
640.00,43.457
641.00,43.467
642.00,43.569
643.00,43.593
644.00,43.653
645.00,43.740
646.00,43.845
647.00,43.921
648.00,43.952
649.00,44.013
650.00,44.059
651.00,44.140
652.00,44.193
653.00,44.212
654.00,44.342
655.00,44.268
656.00,44.329
657.00,44.409
658.00,44.315
659.00,44.657
660.00,44.636
661.00,44.787
662.00,44.900
663.00,45.003
664.00,45.062
665.00,45.143
666.00,45.210
667.00,45.377
668.00,45.372
669.00,45.509
670.00,45.528
671.00,45.520
672.00,45.635
673.00,45.751
674.00,45.811
675.00,45.857
676.00,45.939
677.00,45.967
678.00,45.934
679.00,46.045
680.00,46.096
681.00,46.101
682.00,46.284
683.00,46.262
684.00,46.329
685.00,46.362
686.00,46.446
687.00,46.632
688.00,46.670
689.00,46.583
690.00,46.747
691.00,46.832
692.00,46.790
693.00,46.807
694.00,46.908
695.00,47.069
696.00,46.972
697.00,47.143
698.00,47.160
699.00,47.325
700.00,47.452
701.00,47.397
702.00,47.542
703.00,47.650
704.00,47.615
705.00,47.580
706.00,47.867
707.00,47.834
708.00,47.757
709.00,47.941
710.00,48.084
711.00,47.968
712.00,47.994
713.00,48.024
714.00,47.984
715.00,48.091
716.00,48.094
717.00,48.227
718.00,48.326
719.00,48.336
720.00,48.383
721.00,52.514
722.00,52.499
723.00,52.573
724.00,52.563
725.00,52.531
726.00,52.507
727.00,52.606
728.00,52.592
729.00,52.508
730.00,52.578
731.00,52.566
732.00,52.576
733.00,52.628
734.00,52.546
735.00,52.632
736.00,52.685
737.00,52.667
738.00,52.655
739.00,52.690
740.00,52.648
741.00,52.735
742.00,52.748
743.00,52.685
744.00,52.678
745.00,52.727
746.00,52.672
747.00,52.670
748.00,52.644
749.00,52.586
750.00,52.645
751.00,52.603
752.00,52.494
753.00,52.531
754.00,52.615
755.00,52.532
756.00,52.567
757.00,52.679
758.00,52.589
759.00,52.596
760.00,52.537
761.00,52.590
762.00,52.608
763.00,52.564
764.00,52.525
765.00,52.623
766.00,52.574
767.00,52.600
768.00,52.564
769.00,52.476
770.00,52.666
771.00,52.573
772.00,52.591
773.00,52.581
774.00,52.590
775.00,52.672
776.00,52.630
777.00,52.619
778.00,52.542
779.00,52.601
780.00,52.524
781.00,52.526
782.00,52.582
783.00,52.474
784.00,52.530
785.00,52.470
786.00,52.540
787.00,52.467
788.00,52.533
789.00,52.446
790.00,52.425
791.00,52.489
792.00,52.470
793.00,52.397
794.00,52.376
795.00,52.313
796.00,52.351
797.00,52.201
798.00,52.285
799.00,52.287
800.00,52.259
801.00,52.221
802.00,52.318
803.00,52.241
804.00,52.177
805.00,52.156
806.00,52.174
807.00,52.150
808.00,52.105
809.00,52.086
810.00,52.055
811.00,52.051
812.00,52.111
813.00,51.977
814.00,52.049
815.00,52.012
816.00,51.999
817.00,51.956
818.00,51.872
819.00,51.871
820.00,51.889
821.00,51.804
822.00,51.908
823.00,51.845
824.00,51.797
825.00,51.712
826.00,51.842
827.00,51.938
828.00,51.701
829.00,51.683
830.00,51.753
831.00,54.331
832.00,54.298
833.00,54.229
834.00,54.226
835.00,54.187
836.00,54.197
837.00,54.172
838.00,54.122
839.00,54.094
840.00,54.079
841.00,54.085
842.00,54.031
843.00,54.050
844.00,54.047
845.00,53.956
846.00,54.001
847.00,53.942
848.00,53.923
849.00,53.871
850.00,53.802
851.00,53.770
852.00,53.762
853.00,53.717
854.00,53.742
855.00,53.638
856.00,53.664
857.00,53.724
858.00,53.625
859.00,53.564
860.00,53.558
861.00,53.565
862.00,53.487
863.00,53.519
864.00,53.470
865.00,53.487
866.00,53.459
867.00,53.467
868.00,53.460
869.00,53.380
870.00,53.422
871.00,53.385
872.00,53.392
873.00,53.382
874.00,53.369
875.00,53.338
876.00,53.388
877.00,53.344
878.00,53.312
879.00,53.280
880.00,53.286
881.00,53.260
882.00,53.248
883.00,53.243
884.00,53.206
885.00,53.150
886.00,53.149
887.00,53.148
888.00,53.108
889.00,53.099
890.00,53.078
891.00,53.030
892.00,53.049
893.00,53.007
894.00,52.990
895.00,52.986
896.00,52.952
897.00,52.926
898.00,52.917
899.00,52.931
900.00,52.877
901.00,52.876
902.00,52.896
903.00,52.864
904.00,52.823
905.00,52.780
906.00,52.786
907.00,52.753
908.00,52.705
909.00,52.725
910.00,52.706
911.00,52.682
912.00,52.697
913.00,52.637
914.00,52.595
915.00,52.611
916.00,52.589
917.00,52.526
918.00,52.539
919.00,52.542
920.00,52.485
921.00,52.473
922.00,52.486
923.00,52.432
924.00,52.354
925.00,52.460
926.00,52.572
927.00,52.367
928.00,52.345
929.00,52.351
930.00,52.311
931.00,52.306
932.00,52.293
933.00,52.273
934.00,52.243
935.00,52.221
936.00,52.206
937.00,52.179
938.00,52.158
939.00,52.148
940.00,52.118
941.00,52.112
942.00,52.089
943.00,52.077
944.00,52.023
945.00,52.018
946.00,52.033
947.00,51.972
948.00,51.961
949.00,51.954
950.00,51.930
951.00,51.927
952.00,51.887
953.00,51.867
954.00,51.844
955.00,51.794
956.00,51.767
957.00,51.707
958.00,51.773
959.00,51.662
960.00,51.724
961.00,51.677
962.00,51.702
963.00,51.658
964.00,51.631
965.00,51.616
966.00,51.601
967.00,51.604
968.00,51.563
969.00,51.599
970.00,51.581
971.00,51.601
972.00,51.557
973.00,51.596
974.00,51.612
975.00,51.560
976.00,51.598
977.00,51.561
978.00,51.597
979.00,51.568
980.00,51.576
981.00,51.579
982.00,51.549
983.00,51.553
984.00,51.545
985.00,51.577
986.00,51.527
987.00,51.537
988.00,51.529
989.00,51.529
990.00,51.505
991.00,51.464
992.00,51.501
993.00,51.456
994.00,51.435
995.00,51.441
996.00,51.423
997.00,51.410
998.00,51.380
999.00,51.415
1000.00,51.354
1001.00,51.365
1002.00,51.336
1003.00,51.326
1004.00,51.372
1005.00,51.310
1006.00,51.318
1007.00,51.303
1008.00,51.285
1009.00,51.277
1010.00,51.264
1011.00,51.248
1012.00,51.213
1013.00,51.199
1014.00,51.176
1015.00,51.175
1016.00,51.153
1017.00,51.143
1018.00,51.125
1019.00,51.085
1020.00,51.094
1021.00,51.075
1022.00,51.066
1023.00,51.029
1024.00,51.031
1025.00,51.015
1026.00,51.011
1027.00,50.972
1028.00,50.971
1029.00,50.964
1030.00,50.926
1031.00,50.928
1032.00,50.891
1033.00,50.899
1034.00,50.884
1035.00,50.856
1036.00,50.834
1037.00,50.813
1038.00,50.793
1039.00,50.753
1040.00,50.750
1041.00,50.707
1042.00,50.713
1043.00,50.664
1044.00,50.696
1045.00,50.680
1046.00,50.662
1047.00,50.689
1048.00,50.694
1049.00,50.707
1050.00,50.716
1051.00,50.757
1052.00,50.762
1053.00,50.774
1054.00,50.766
1055.00,50.772
1056.00,50.791
1057.00,50.785
1058.00,50.772
1059.00,50.784
1060.00,50.778
1061.00,50.768
1062.00,50.745
1063.00,50.762
1064.00,50.743
1065.00,50.724
1066.00,50.708
1067.00,50.708
1068.00,50.725
1069.00,50.689
1070.00,50.686
1071.00,50.669
1072.00,50.685
1073.00,50.665
1074.00,50.651
1075.00,50.642
1076.00,50.624
1077.00,50.613
1078.00,50.603
1079.00,50.589
1080.00,50.610
1081.00,50.578
1082.00,50.569
1083.00,50.565
1084.00,50.554
1085.00,50.545
1086.00,50.544
1087.00,50.532
1088.00,50.513
1089.00,50.503
1090.00,50.493
1091.00,50.486
1092.00,50.476
1093.00,50.453
1094.00,50.456
1095.00,50.437
1096.00,50.430
1097.00,50.419
1098.00,50.409
1099.00,50.402
1100.00,50.397
1101.00,50.377
1102.00,50.362
1103.00,50.376
1104.00,50.365
1105.00,50.354
1106.00,50.348
1107.00,50.339
1108.00,50.342
1109.00,50.318
1110.00,50.316
1111.00,50.301
1112.00,50.280
1113.00,50.269
1114.00,50.278
1115.00,50.284
1116.00,50.274
1117.00,50.253
1118.00,50.255
1119.00,50.249
1120.00,50.233
1121.00,50.231
1122.00,50.232
1123.00,50.210
1124.00,50.220
1125.00,50.194
1126.00,50.189
1127.00,50.184
1128.00,50.164
1129.00,50.144
1130.00,50.148
1131.00,50.144
1132.00,50.134
1133.00,50.131
1134.00,50.120
1135.00,50.113
1136.00,50.117
1137.00,50.107
1138.00,50.120
1139.00,50.119
1140.00,50.104
1141.00,50.108
1142.00,50.083
1143.00,50.099
1144.00,50.069
1145.00,50.062
1146.00,50.070
1147.00,50.051
1148.00,50.045
1149.00,50.062
1150.00,50.064
1151.00,50.052
1152.00,50.034
1153.00,50.018
1154.00,50.009
1155.00,50.041
1156.00,50.015
1157.00,50.026
1158.00,50.013
1159.00,50.001
1160.00,50.007
1161.00,50.015
1162.00,50.012
1163.00,50.004
1164.00,50.001
1165.00,50.001
1166.00,50.010
1167.00,49.997
1168.00,49.997
1169.00,50.010
1170.00,49.990
1171.00,49.971
1172.00,49.993
1173.00,49.957
1174.00,49.965
1175.00,49.956
1176.00,49.971
1177.00,49.971
1178.00,49.965
1179.00,49.983
1180.00,49.970
1181.00,49.979
1182.00,49.970
1183.00,49.962
1184.00,49.943
1185.00,49.970
1186.00,49.951
1187.00,49.962
1188.00,49.955
1189.00,49.936
1190.00,49.953
1191.00,49.948
1192.00,49.951
1193.00,49.935
1194.00,49.949
1195.00,49.921
1196.00,49.954
1197.00,49.933
1198.00,49.916
1199.00,49.928
1200.00,49.918
1201.00,49.938
1202.00,49.924
1203.00,49.922
1204.00,49.921
1205.00,49.933
1206.00,49.916
1207.00,49.929
1208.00,49.911
1209.00,49.904
1210.00,49.922
1211.00,49.906
1212.00,49.917
1213.00,49.884
1214.00,49.905
1215.00,49.900
1216.00,49.895
1217.00,49.907
1218.00,49.890
1219.00,49.900
1220.00,49.881
1221.00,49.914
1222.00,49.883
1223.00,49.906
1224.00,49.894
1225.00,49.879
1226.00,49.890
1227.00,49.877
1228.00,49.886
1229.00,49.897
1230.00,49.919
1231.00,49.914
1232.00,49.965
1233.00,49.951
1234.00,49.947
1235.00,49.947
1236.00,49.942
1237.00,49.947
1238.00,49.941
1239.00,49.951
1240.00,49.936
1241.00,49.943
1242.00,49.942
1243.00,49.959
1244.00,49.930
1245.00,49.956
1246.00,49.967
1247.00,49.957
1248.00,49.957
1249.00,49.966
1250.00,49.959
1251.00,49.965
1252.00,49.967
1253.00,49.949
1254.00,49.985
1255.00,49.961
1256.00,49.964
1257.00,49.953
1258.00,49.993
1259.00,49.979
1260.00,50.006
1261.00,49.999
1262.00,50.001
1263.00,49.992
1264.00,50.010
1265.00,50.020
1266.00,50.013
1267.00,50.024
1268.00,50.049
1269.00,50.022
1270.00,50.035
1271.00,50.037
1272.00,50.041
1273.00,50.045
1274.00,50.028
1275.00,50.035
1276.00,50.041
1277.00,50.037
1278.00,50.056
1279.00,50.057
1280.00,50.047
1281.00,50.059
1282.00,50.078
1283.00,50.052
1284.00,50.070
1285.00,50.044
1286.00,50.079
1287.00,50.077
1288.00,50.069
1289.00,50.076
1290.00,50.087
1291.00,50.093
1292.00,50.087
1293.00,50.099
1294.00,50.128
1295.00,50.113
1296.00,50.119
1297.00,50.124
1298.00,50.154
1299.00,50.125
1300.00,50.139
1301.00,50.140
1302.00,50.142
1303.00,50.169
1304.00,50.138
1305.00,50.151
1306.00,50.159
1307.00,50.174
1308.00,50.165
1309.00,50.183
1310.00,50.179
1311.00,50.162
1312.00,50.182
1313.00,50.195
1314.00,50.217
1315.00,50.223
1316.00,50.210
1317.00,50.242
1318.00,50.217
1319.00,50.237
1320.00,50.252
1321.00,50.379
1322.00,50.384
1323.00,50.379
1324.00,50.373
1325.00,50.359
1326.00,50.406
1327.00,50.360
1328.00,50.370
1329.00,50.371
1330.00,50.358
1331.00,50.359
1332.00,50.338
1333.00,50.477
1334.00,50.385
1335.00,50.410
1336.00,50.432
1337.00,50.479
1338.00,50.514
1339.00,50.576
1340.00,50.644
1341.00,50.696
1342.00,50.784
1343.00,50.810
1344.00,50.848
1345.00,50.907
1346.00,50.932
1347.00,50.995
1348.00,50.988
1349.00,51.025
1350.00,50.992
1351.00,51.072
1352.00,51.070
1353.00,50.945
1354.00,51.107
1355.00,51.036
1356.00,51.110
1357.00,51.079
1358.00,51.059
1359.00,51.076
1360.00,51.091
1361.00,51.272
1362.00,51.071
1363.00,51.113
1364.00,51.234
1365.00,51.073
1366.00,51.107
1367.00,51.107
1368.00,51.020
1369.00,51.052
1370.00,51.081
1371.00,51.044
1372.00,51.054
1373.00,51.066
1374.00,51.059
1375.00,51.044
1376.00,51.069
1377.00,51.039
1378.00,51.097
1379.00,51.054
1380.00,51.074
1381.00,51.088
1382.00,51.008
1383.00,51.071
1384.00,51.053
1385.00,51.059
1386.00,51.089
1387.00,51.008
1388.00,50.998
1389.00,51.001
1390.00,51.051
1391.00,51.053
1392.00,51.022
1393.00,51.058
1394.00,51.052
1395.00,51.043
1396.00,50.968
1397.00,50.987
1398.00,51.061
1399.00,51.042
1400.00,50.854
1401.00,51.031
1402.00,51.260
1403.00,51.176
1404.00,51.038
1405.00,51.105
1406.00,51.090
1407.00,51.091
1408.00,51.081
1409.00,51.033
1410.00,51.113
1411.00,51.131
1412.00,51.170
1413.00,51.061
1414.00,51.104
1415.00,51.153
1416.00,51.182
1417.00,51.191
1418.00,51.155
1419.00,51.157
1420.00,51.212
1421.00,51.232
1422.00,51.233
1423.00,51.233
1424.00,51.243
1425.00,51.263
1426.00,51.256
1427.00,51.303
1428.00,51.287
1429.00,51.309
1430.00,51.339
1431.00,51.328
1432.00,51.340
1433.00,51.375
1434.00,51.367
1435.00,51.407
1436.00,51.421
1437.00,51.388
1438.00,51.425
1439.00,51.455
1440.00,51.452
1441.00,51.472
1442.00,51.453
1443.00,51.480
1444.00,51.526
1445.00,51.463
1446.00,51.514
1447.00,51.567
1448.00,51.603
1449.00,51.589
1450.00,51.586
1451.00,51.599
1452.00,51.622
1453.00,51.637
1454.00,51.645
1455.00,51.687
1456.00,51.680
1457.00,51.700
1458.00,51.710
1459.00,51.734
1460.00,51.759
1461.00,51.758
1462.00,51.786
1463.00,51.786
1464.00,51.792
1465.00,51.796
1466.00,51.805
1467.00,51.822
1468.00,51.861
1469.00,51.868
1470.00,51.868
1471.00,51.897
1472.00,51.900
1473.00,51.907
1474.00,51.948
1475.00,51.955
1476.00,51.959
1477.00,51.969
1478.00,51.990
1479.00,52.003
1480.00,52.008
1481.00,51.994
1482.00,52.030
1483.00,52.033
1484.00,52.043
1485.00,52.056
1486.00,52.046
1487.00,52.070
1488.00,52.097
1489.00,52.107
1490.00,52.133
1491.00,52.125
1492.00,52.128
1493.00,52.134
1494.00,52.160
1495.00,52.164
1496.00,52.171
1497.00,52.188
1498.00,52.188
1499.00,52.216
1500.00,52.226
1501.00, 
1502.00, 
1503.00, 
1504.00, 
1505.00, 
1506.00, 
1507.00, 
1508.00, 
1509.00, 
1510.00, 
1511.00, 
1512.00, 
1513.00, 
1514.00, 
1515.00, 
1516.00, 
1517.00, 
1518.00, 
1519.00, 
1520.00, 
1521.00, 
1522.00, 
1523.00, 
1524.00, 
1525.00, 
1526.00, 
1527.00, 
1528.00, 
1529.00, 
1530.00, 
1531.00, 
1532.00, 
1533.00, 
1534.00, 
1535.00, 
1536.00, 
1537.00, 
1538.00, 
1539.00, 
1540.00, 
1541.00, 
1542.00, 
1543.00, 
1544.00, 
1545.00, 
1546.00, 
1547.00, 
1548.00, 
1549.00, 
1550.00, 
1551.00, 
1552.00, 
1553.00, 
1554.00, 
1555.00, 
1556.00, 
1557.00, 
1558.00, 
1559.00, 
1560.00, 
1561.00, 
1562.00, 
1563.00, 
1564.00, 
1565.00, 
1566.00, 
1567.00, 
1568.00, 
1569.00, 
1570.00, 
1571.00, 
1572.00, 
1573.00, 
1574.00, 
1575.00, 
1576.00, 
1577.00, 
1578.00, 
1579.00, 
1580.00, 
1581.00, 
1582.00, 
1583.00, 
1584.00, 
1585.00, 
1586.00, 
1587.00, 
1588.00, 
1589.00, 
1590.00, 
1591.00, 
1592.00, 
1593.00, 
1594.00, 
1595.00, 
1596.00, 
1597.00, 
1598.00, 
1599.00, 
1600.00, 
1601.00, 
1602.00, 
1603.00, 
1604.00, 
1605.00, 
1606.00, 
1607.00, 
1608.00, 
1609.00, 
1610.00, 
1611.00, 
1612.00, 
1613.00, 
1614.00, 
1615.00, 
1616.00, 
1617.00, 
1618.00, 
1619.00, 
1620.00, 
1621.00, 
1622.00, 
1623.00, 
1624.00, 
1625.00, 
1626.00, 
1627.00, 
1628.00, 
1629.00, 
1630.00, 
1631.00, 
1632.00, 
1633.00, 
1634.00, 
1635.00, 
1636.00, 
1637.00, 
1638.00, 
1639.00, 
1640.00, 
1641.00, 
1642.00, 
1643.00, 
1644.00, 
1645.00, 
1646.00, 
1647.00, 
1648.00, 
1649.00, 
1650.00, 
1651.00, 
1652.00, 
1653.00, 
1654.00, 
1655.00, 
1656.00, 
1657.00, 
1658.00, 
1659.00, 
1660.00, 
1661.00, 
1662.00, 
1663.00, 
1664.00, 
1665.00, 
1666.00, 
1667.00, 
1668.00, 
1669.00, 
1670.00, 
1671.00, 
1672.00, 
1673.00, 
1674.00, 
1675.00, 
1676.00, 
1677.00, 
1678.00, 
1679.00, 
1680.00, 
1681.00, 
1682.00, 
1683.00, 
1684.00, 
1685.00, 
1686.00, 
1687.00, 
1688.00, 
1689.00, 
1690.00, 
1691.00, 
1692.00, 
1693.00, 
1694.00, 
1695.00, 
1696.00, 
1697.00, 
1698.00, 
1699.00, 
1700.00, 
1701.00, 
1702.00, 
1703.00, 
1704.00, 
1705.00, 
1706.00, 
1707.00, 
1708.00, 
1709.00, 
1710.00, 
1711.00, 
1712.00, 
1713.00, 
1714.00, 
1715.00, 
1716.00, 
1717.00, 
1718.00, 
1719.00, 
1720.00, 
1721.00, 
1722.00, 
1723.00, 
1724.00, 
1725.00, 
1726.00, 
1727.00, 
1728.00, 
1729.00, 
1730.00, 
1731.00, 
1732.00, 
1733.00, 
1734.00, 
1735.00, 
1736.00, 
1737.00, 
1738.00, 
1739.00, 
1740.00, 
1741.00, 
1742.00, 
1743.00, 
1744.00, 
1745.00, 
1746.00, 
1747.00, 
1748.00, 
1749.00, 
1750.00, 
1751.00, 
1752.00, 
1753.00, 
1754.00, 
1755.00, 
1756.00, 
1757.00, 
1758.00, 
1759.00, 
1760.00, 
1761.00, 
1762.00, 
1763.00, 
1764.00, 
1765.00, 
1766.00, 
1767.00, 
1768.00, 
1769.00, 
1770.00, 
1771.00, 
1772.00, 
1773.00, 
1774.00, 
1775.00, 
1776.00, 
1777.00, 
1778.00, 
1779.00, 
1780.00, 
1781.00, 
1782.00, 
1783.00, 
1784.00, 
1785.00, 
1786.00, 
1787.00, 
1788.00, 
1789.00, 
1790.00, 
1791.00, 
1792.00, 
1793.00, 
1794.00, 
1795.00, 
1796.00, 
1797.00, 
1798.00, 
1799.00, 
1800.00, 
1801.00, 
1802.00, 
1803.00, 
1804.00, 
1805.00, 
1806.00, 
1807.00, 
1808.00, 
1809.00, 
1810.00, 
1811.00, 
1812.00, 
1813.00, 
1814.00, 
1815.00, 
1816.00, 
1817.00, 
1818.00, 
1819.00, 
1820.00, 
1821.00, 
1822.00, 
1823.00, 
1824.00, 
1825.00, 
1826.00, 
1827.00, 
1828.00, 
1829.00, 
1830.00, 
1831.00, 
1832.00, 
1833.00, 
1834.00, 
1835.00, 
1836.00, 
1837.00, 
1838.00, 
1839.00, 
1840.00, 
1841.00, 
1842.00, 
1843.00, 
1844.00, 
1845.00, 
1846.00, 
1847.00, 
1848.00, 
1849.00, 
1850.00, 
1851.00, 
1852.00, 
1853.00, 
1854.00, 
1855.00, 
1856.00, 
1857.00, 
1858.00, 
1859.00, 
1860.00, 
1861.00, 
1862.00, 
1863.00, 
1864.00, 
1865.00, 
1866.00, 
1867.00, 
1868.00, 
1869.00, 
1870.00, 
1871.00, 
1872.00, 
1873.00, 
1874.00, 
1875.00, 
1876.00, 
1877.00, 
1878.00, 
1879.00, 
1880.00, 
1881.00, 
1882.00, 
1883.00, 
1884.00, 
1885.00, 
1886.00, 
1887.00, 
1888.00, 
1889.00, 
1890.00, 
1891.00, 
1892.00, 
1893.00, 
1894.00, 
1895.00, 
1896.00, 
1897.00, 
1898.00, 
1899.00, 
1900.00, 
1901.00, 
1902.00, 
1903.00, 
1904.00, 
1905.00, 
1906.00, 
1907.00, 
1908.00, 
1909.00, 
1910.00, 
1911.00, 
1912.00, 
1913.00, 
1914.00, 
1915.00, 
1916.00, 
1917.00, 
1918.00, 
1919.00, 
1920.00, 
1921.00, 
1922.00, 
1923.00, 
1924.00, 
1925.00, 
1926.00, 
1927.00, 
1928.00, 
1929.00, 
1930.00, 
1931.00, 
1932.00, 
1933.00, 
1934.00, 
1935.00, 
1936.00, 
1937.00, 
1938.00, 
1939.00, 
1940.00, 
1941.00, 
1942.00, 
1943.00, 
1944.00, 
1945.00, 
1946.00, 
1947.00, 
1948.00, 
1949.00, 
1950.00, 
1951.00, 
1952.00, 
1953.00, 
1954.00, 
1955.00, 
1956.00, 
1957.00, 
1958.00, 
1959.00, 
1960.00, 
1961.00, 
1962.00, 
1963.00, 
1964.00, 
1965.00, 
1966.00, 
1967.00, 
1968.00, 
1969.00, 
1970.00, 
1971.00, 
1972.00, 
1973.00, 
1974.00, 
1975.00, 
1976.00, 
1977.00, 
1978.00, 
1979.00, 
1980.00, 
1981.00, 
1982.00, 
1983.00, 
1984.00, 
1985.00, 
1986.00, 
1987.00, 
1988.00, 
1989.00, 
1990.00, 
1991.00, 
1992.00, 
1993.00, 
1994.00, 
1995.00, 
1996.00, 
1997.00, 
1998.00, 
1999.00, 
2000.00, 
2001.00, 
2002.00, 
2003.00, 
2004.00, 
2005.00, 
2006.00, 
2007.00, 
2008.00, 
2009.00, 
2010.00, 
2011.00, 
2012.00, 
2013.00, 
2014.00, 
2015.00, 
2016.00, 
2017.00, 
2018.00, 
2019.00, 
2020.00, 
2021.00, 
2022.00, 
2023.00, 
2024.00, 
2025.00, 
2026.00, 
2027.00, 
2028.00, 
2029.00, 
2030.00, 
2031.00, 
2032.00, 
2033.00, 
2034.00, 
2035.00, 
2036.00, 
2037.00, 
2038.00, 
2039.00, 
2040.00, 
2041.00, 
2042.00, 
2043.00, 
2044.00, 
2045.00, 
2046.00, 
2047.00, 
2048.00, 
2049.00, 
2050.00, 
2051.00, 
2052.00, 
2053.00, 
2054.00, 
2055.00, 
2056.00, 
2057.00, 
2058.00, 
2059.00, 
2060.00, 
2061.00, 
2062.00, 
2063.00, 
2064.00, 
2065.00, 
2066.00, 
2067.00, 
2068.00, 
2069.00, 
2070.00, 
2071.00, 
2072.00, 
2073.00, 
2074.00, 
2075.00, 
2076.00, 
2077.00, 
2078.00, 
2079.00, 
2080.00, 
2081.00, 
2082.00, 
2083.00, 
2084.00, 
2085.00, 
2086.00, 
2087.00, 
2088.00, 
2089.00, 
2090.00, 
2091.00, 
2092.00, 
2093.00, 
2094.00, 
2095.00, 
2096.00, 
2097.00, 
2098.00, 
2099.00, 
2100.00, 
2101.00, 
2102.00, 
2103.00, 
2104.00, 
2105.00, 
2106.00, 
2107.00, 
2108.00, 
2109.00, 
2110.00, 
2111.00, 
2112.00, 
2113.00, 
2114.00, 
2115.00, 
2116.00, 
2117.00, 
2118.00, 
2119.00, 
2120.00, 
2121.00, 
2122.00, 
2123.00, 
2124.00, 
2125.00, 
2126.00, 
2127.00, 
2128.00, 
2129.00, 
2130.00, 
2131.00, 
2132.00, 
2133.00, 
2134.00, 
2135.00, 
2136.00, 
2137.00, 
2138.00, 
2139.00, 
2140.00, 
2141.00, 
2142.00, 
2143.00, 
2144.00, 
2145.00, 
2146.00, 
2147.00, 
2148.00, 
2149.00, 
2150.00, 
2151.00, 
2152.00, 
2153.00, 
2154.00, 
2155.00, 
2156.00, 
2157.00, 
2158.00, 
2159.00, 
2160.00, 
2161.00, 
2162.00, 
2163.00, 
2164.00, 
2165.00, 
2166.00, 
2167.00, 
2168.00, 
2169.00, 
2170.00, 
2171.00, 
2172.00, 
2173.00, 
2174.00, 
2175.00, 
2176.00, 
2177.00, 
2178.00, 
2179.00, 
2180.00, 
2181.00, 
2182.00, 
2183.00, 
2184.00, 
2185.00, 
2186.00, 
2187.00, 
2188.00, 
2189.00, 
2190.00, 
2191.00, 
2192.00, 
2193.00, 
2194.00, 
2195.00, 
2196.00, 
2197.00, 
2198.00, 
2199.00, 
2200.00, 
2201.00, 
2202.00, 
2203.00, 
2204.00, 
2205.00, 
2206.00, 
2207.00, 
2208.00, 
2209.00, 
2210.00, 
2211.00, 
2212.00, 
2213.00, 
2214.00, 
2215.00, 
2216.00, 
2217.00, 
2218.00, 
2219.00, 
2220.00, 
2221.00, 
2222.00, 
2223.00, 
2224.00, 
2225.00, 
2226.00, 
2227.00, 
2228.00, 
2229.00, 
2230.00, 
2231.00, 
2232.00, 
2233.00, 
2234.00, 
2235.00, 
2236.00, 
2237.00, 
2238.00, 
2239.00, 
2240.00, 
2241.00, 
2242.00, 
2243.00, 
2244.00, 
2245.00, 
2246.00, 
2247.00, 
2248.00, 
2249.00, 
2250.00, 
2251.00, 
2252.00, 
2253.00, 
2254.00, 
2255.00, 
2256.00, 
2257.00, 
2258.00, 
2259.00, 
2260.00, 
2261.00, 
2262.00, 
2263.00, 
2264.00, 
2265.00, 
2266.00, 
2267.00, 
2268.00, 
2269.00, 
2270.00, 
2271.00, 
2272.00, 
2273.00, 
2274.00, 
2275.00, 
2276.00, 
2277.00, 
2278.00, 
2279.00, 
2280.00, 
2281.00, 
2282.00, 
2283.00, 
2284.00, 
2285.00, 
2286.00, 
2287.00, 
2288.00, 
2289.00, 
2290.00, 
2291.00, 
2292.00, 
2293.00, 
2294.00, 
2295.00, 
2296.00, 
2297.00, 
2298.00, 
2299.00, 
2300.00, 
2301.00, 
2302.00, 
2303.00, 
2304.00, 
2305.00, 
2306.00, 
2307.00, 
2308.00, 
2309.00, 
2310.00, 
2311.00, 
2312.00, 
2313.00, 
2314.00, 
2315.00, 
2316.00, 
2317.00, 
2318.00, 
2319.00, 
2320.00, 
2321.00, 
2322.00, 
2323.00, 
2324.00, 
2325.00, 
2326.00, 
2327.00, 
2328.00, 
2329.00, 
2330.00, 
2331.00, 
2332.00, 
2333.00, 
2334.00, 
2335.00, 
2336.00, 
2337.00, 
2338.00, 
2339.00, 
2340.00, 
2341.00, 
2342.00, 
2343.00, 
2344.00, 
2345.00, 
2346.00, 
2347.00, 
2348.00, 
2349.00, 
2350.00, 
2351.00, 
2352.00, 
2353.00, 
2354.00, 
2355.00, 
2356.00, 
2357.00, 
2358.00, 
2359.00, 
2360.00, 
2361.00, 
2362.00, 
2363.00, 
2364.00, 
2365.00, 
2366.00, 
2367.00, 
2368.00, 
2369.00, 
2370.00, 
2371.00, 
2372.00, 
2373.00, 
2374.00, 
2375.00, 
2376.00, 
2377.00, 
2378.00, 
2379.00, 
2380.00, 
2381.00, 
2382.00, 
2383.00, 
2384.00, 
2385.00, 
2386.00, 
2387.00, 
2388.00, 
2389.00, 
2390.00, 
2391.00, 
2392.00, 
2393.00, 
2394.00, 
2395.00, 
2396.00, 
2397.00, 
2398.00, 
2399.00, 
2400.00, 
2401.00, 
2402.00, 
2403.00, 
2404.00, 
2405.00, 
2406.00, 
2407.00, 
2408.00, 
2409.00, 
2410.00, 
2411.00, 
2412.00, 
2413.00, 
2414.00, 
2415.00, 
2416.00, 
2417.00, 
2418.00, 
2419.00, 
2420.00, 
2421.00, 
2422.00, 
2423.00, 
2424.00, 
2425.00, 
2426.00, 
2427.00, 
2428.00, 
2429.00, 
2430.00, 
2431.00, 
2432.00, 
2433.00, 
2434.00, 
2435.00, 
2436.00, 
2437.00, 
2438.00, 
2439.00, 
2440.00, 
2441.00, 
2442.00, 
2443.00, 
2444.00, 
2445.00, 
2446.00, 
2447.00, 
2448.00, 
2449.00, 
2450.00, 
2451.00, 
2452.00, 
2453.00, 
2454.00, 
2455.00, 
2456.00, 
2457.00, 
2458.00, 
2459.00, 
2460.00, 
2461.00, 
2462.00, 
2463.00, 
2464.00, 
2465.00, 
2466.00, 
2467.00, 
2468.00, 
2469.00, 
2470.00, 
2471.00, 
2472.00, 
2473.00, 
2474.00, 
2475.00, 
2476.00, 
2477.00, 
2478.00, 
2479.00, 
2480.00, 
2481.00, 
2482.00, 
2483.00, 
2484.00, 
2485.00, 
2486.00, 
2487.00, 
2488.00, 
2489.00, 
2490.00, 
2491.00, 
2492.00, 
2493.00, 
2494.00, 
2495.00, 
2496.00, 
2497.00, 
2498.00, 
2499.00, 
2500.00, 
2501.00, 
2502.00, 
2503.00, 
2504.00, 
2505.00, 
2506.00, 
2507.00, 
2508.00, 
2509.00, 
2510.00, 
2511.00, 
2512.00, 
2513.00, 
2514.00, 
2515.00, 
2516.00, 
2517.00, 
2518.00, 
2519.00, 
2520.00, 
2521.00, 
2522.00, 
2523.00, 
2524.00, 
2525.00, 
2526.00, 
2527.00, 
2528.00, 
2529.00, 
2530.00, 
2531.00, 
2532.00, 
2533.00, 
2534.00, 
2535.00, 
2536.00, 
2537.00, 
2538.00, 
2539.00, 
2540.00, 
2541.00, 
2542.00, 
2543.00, 
2544.00, 
2545.00, 
2546.00, 
2547.00, 
2548.00, 
2549.00, 
2550.00, 
2551.00, 
2552.00, 
2553.00, 
2554.00, 
2555.00, 
2556.00, 
2557.00, 
2558.00, 
2559.00, 
2560.00, 
2561.00, 
2562.00, 
2563.00, 
2564.00, 
2565.00, 
2566.00, 
2567.00, 
2568.00, 
2569.00, 
2570.00, 
2571.00, 
2572.00, 
2573.00, 
2574.00, 
2575.00, 
2576.00, 
2577.00, 
2578.00, 
2579.00, 
2580.00, 
2581.00, 
2582.00, 
2583.00, 
2584.00, 
2585.00, 
2586.00, 
2587.00, 
2588.00, 
2589.00, 
2590.00, 
2591.00, 
2592.00, 
2593.00, 
2594.00, 
2595.00, 
2596.00, 
2597.00, 
2598.00, 
2599.00, 
2600.00, 
