"1cP2 - RawData"
"Wavelength nm.","T%"
200.00,0.003
201.00,0.001
202.00,0.005
203.00,-0.000
204.00,0.002
205.00,0.001
206.00,-0.000
207.00,0.000
208.00,0.000
209.00,-0.002
210.00,-0.002
211.00,0.001
212.00,0.003
213.00,0.002
214.00,0.002
215.00,-0.001
216.00,0.005
217.00,-0.000
218.00,-0.002
219.00,0.002
220.00,0.001
221.00,0.001
222.00,0.005
223.00,0.001
224.00,-0.001
225.00,-0.001
226.00,0.001
227.00,0.001
228.00,0.001
229.00,0.001
230.00,-0.001
231.00,0.002
232.00,0.002
233.00,0.003
234.00,-0.000
235.00,-0.001
236.00,0.001
237.00,0.001
238.00,0.001
239.00,0.001
240.00,0.003
241.00,-0.001
242.00,0.002
243.00,0.001
244.00,-0.001
245.00,-0.000
246.00,0.001
247.00,-0.001
248.00,0.000
249.00,0.001
250.00,0.001
251.00,-0.000
252.00,0.000
253.00,0.001
254.00,0.000
255.00,-0.001
256.00,0.000
257.00,-0.001
258.00,0.000
259.00,-0.000
260.00,-0.001
261.00,0.002
262.00,0.001
263.00,-0.002
264.00,0.001
265.00,-0.000
266.00,0.001
267.00,0.000
268.00,-0.001
269.00,0.000
270.00,0.000
271.00,-0.000
272.00,-0.000
273.00,-0.000
274.00,0.000
275.00,-0.000
276.00,-0.000
277.00,-0.000
278.00,-0.001
279.00,0.001
280.00,-0.000
281.00,0.001
282.00,-0.001
283.00,-0.000
284.00,0.001
285.00,-0.001
286.00,-0.001
287.00,0.002
288.00,0.001
289.00,0.000
290.00,0.001
291.00,-0.002
292.00,0.002
293.00,-0.001
294.00,-0.001
295.00,0.001
296.00,0.001
297.00,0.002
298.00,0.001
299.00,-0.002
300.00,0.000
301.00,0.001
302.00,-0.000
303.00,-0.000
304.00,0.002
305.00,0.003
306.00,0.004
307.00,0.005
308.00,0.008
309.00,0.013
310.00,0.023
311.00,0.035
312.00,0.057
313.00,0.086
314.00,0.129
315.00,0.194
316.00,0.273
317.00,0.395
318.00,0.526
319.00,0.719
320.00,0.938
321.00,1.239
322.00,1.590
323.00,2.022
324.00,2.500
325.00,3.017
326.00,3.582
327.00,4.261
328.00,4.986
329.00,5.748
330.00,6.593
331.00,7.496
332.00,8.453
333.00,9.466
334.00,10.395
335.00,11.429
336.00,12.525
337.00,13.601
338.00,14.671
339.00,15.685
340.00,16.742
341.00,17.836
342.00,18.790
343.00,19.768
344.00,20.695
345.00,21.698
346.00,22.539
347.00,23.314
348.00,24.067
349.00,24.849
350.00,25.572
351.00,26.274
352.00,26.886
353.00,27.499
354.00,28.058
355.00,28.604
356.00,29.084
357.00,29.633
358.00,30.066
359.00,30.525
360.00,30.928
361.00,31.172
362.00,31.595
363.00,31.881
364.00,32.094
365.00,32.347
366.00,32.546
367.00,32.763
368.00,32.899
369.00,33.047
370.00,33.169
371.00,33.241
372.00,33.245
373.00,33.277
374.00,33.353
375.00,33.275
376.00,33.196
377.00,33.046
378.00,32.971
379.00,32.847
380.00,32.916
381.00,32.931
382.00,32.951
383.00,33.058
384.00,33.182
385.00,33.233
386.00,33.348
387.00,33.458
388.00,33.786
389.00,33.672
390.00,33.830
391.00,33.933
392.00,34.011
393.00,34.028
394.00,34.169
395.00,34.258
396.00,34.221
397.00,34.284
398.00,34.309
399.00,34.344
400.00,34.328
401.00,34.315
402.00,34.394
403.00,34.385
404.00,34.362
405.00,34.353
406.00,34.343
407.00,34.248
408.00,34.244
409.00,34.167
410.00,34.106
411.00,34.085
412.00,34.013
413.00,34.047
414.00,33.937
415.00,33.960
416.00,34.057
417.00,33.963
418.00,34.043
419.00,34.146
420.00,34.195
421.00,34.076
422.00,34.075
423.00,34.123
424.00,34.138
425.00,34.184
426.00,34.196
427.00,34.264
428.00,34.217
429.00,34.247
430.00,34.254
431.00,34.350
432.00,34.303
433.00,34.381
434.00,34.392
435.00,34.466
436.00,34.526
437.00,34.534
438.00,34.582
439.00,34.623
440.00,34.646
441.00,34.699
442.00,34.773
443.00,34.754
444.00,34.908
445.00,34.934
446.00,35.044
447.00,35.121
448.00,35.203
449.00,35.272
450.00,35.395
451.00,35.425
452.00,35.472
453.00,35.608
454.00,35.646
455.00,35.747
456.00,35.855
457.00,35.894
458.00,35.917
459.00,36.100
460.00,36.221
461.00,36.315
462.00,36.378
463.00,36.468
464.00,36.565
465.00,36.653
466.00,36.790
467.00,36.890
468.00,36.858
469.00,37.011
470.00,37.000
471.00,37.061
472.00,37.207
473.00,37.153
474.00,37.206
475.00,37.363
476.00,37.374
477.00,37.500
478.00,37.579
479.00,37.755
480.00,37.848
481.00,37.897
482.00,38.024
483.00,38.144
484.00,38.256
485.00,38.383
486.00,38.550
487.00,38.649
488.00,38.759
489.00,38.882
490.00,38.989
491.00,39.079
492.00,39.351
493.00,39.457
494.00,39.352
495.00,39.447
496.00,39.541
497.00,39.565
498.00,39.706
499.00,39.824
500.00,39.934
501.00,39.998
502.00,40.100
503.00,40.253
504.00,40.197
505.00,40.328
506.00,40.404
507.00,40.465
508.00,40.546
509.00,40.719
510.00,40.810
511.00,40.810
512.00,40.988
513.00,41.115
514.00,41.156
515.00,41.305
516.00,41.310
517.00,41.424
518.00,41.513
519.00,41.519
520.00,41.575
521.00,41.618
522.00,41.712
523.00,41.687
524.00,41.801
525.00,41.910
526.00,42.021
527.00,42.062
528.00,42.071
529.00,42.276
530.00,42.416
531.00,42.457
532.00,42.517
533.00,42.634
534.00,42.650
535.00,42.732
536.00,42.785
537.00,42.803
538.00,42.952
539.00,42.951
540.00,42.959
541.00,42.873
542.00,43.017
543.00,43.069
544.00,43.154
545.00,43.257
546.00,43.211
547.00,43.384
548.00,43.484
549.00,43.507
550.00,43.570
551.00,43.682
552.00,43.722
553.00,43.759
554.00,43.758
555.00,43.782
556.00,43.898
557.00,43.938
558.00,43.956
559.00,44.042
560.00,44.070
561.00,44.140
562.00,44.223
563.00,44.227
564.00,44.281
565.00,44.247
566.00,44.277
567.00,44.242
568.00,44.345
569.00,44.412
570.00,44.381
571.00,44.362
572.00,44.410
573.00,44.295
574.00,44.440
575.00,44.411
576.00,44.380
577.00,44.434
578.00,44.610
579.00,44.641
580.00,44.577
581.00,44.741
582.00,44.839
583.00,44.759
584.00,45.022
585.00,45.039
586.00,44.919
587.00,44.963
588.00,44.959
589.00,44.920
590.00,45.125
591.00,45.170
592.00,45.053
593.00,45.123
594.00,45.216
595.00,45.222
596.00,45.280
597.00,45.347
598.00,45.405
599.00,45.434
600.00,45.412
601.00,45.316
602.00,45.208
603.00,45.517
604.00,45.682
605.00,45.596
606.00,45.621
607.00,45.603
608.00,45.808
609.00,45.816
610.00,45.632
611.00,45.629
612.00,45.709
613.00,45.753
614.00,45.735
615.00,45.887
616.00,45.948
617.00,45.878
618.00,45.920
619.00,46.083
620.00,46.083
621.00,45.957
622.00,46.072
623.00,46.054
624.00,46.095
625.00,46.163
626.00,46.219
627.00,46.150
628.00,46.085
629.00,46.181
630.00,46.204
631.00,46.251
632.00,46.231
633.00,46.402
634.00,46.415
635.00,46.458
636.00,46.516
637.00,46.498
638.00,46.493
639.00,46.613
640.00,46.636
641.00,46.575
642.00,46.682
643.00,46.667
644.00,46.683
645.00,46.719
646.00,46.908
647.00,46.907
648.00,46.821
649.00,46.843
650.00,46.848
651.00,47.003
652.00,47.032
653.00,46.963
654.00,47.027
655.00,47.205
656.00,47.452
657.00,47.236
658.00,47.153
659.00,47.330
660.00,47.307
661.00,47.308
662.00,47.297
663.00,47.369
664.00,47.583
665.00,47.763
666.00,47.434
667.00,47.525
668.00,47.779
669.00,47.821
670.00,48.027
671.00,47.771
672.00,47.793
673.00,47.926
674.00,47.986
675.00,47.992
676.00,48.174
677.00,48.263
678.00,47.934
679.00,48.048
680.00,48.166
681.00,48.286
682.00,48.241
683.00,48.155
684.00,48.272
685.00,48.430
686.00,48.240
687.00,48.341
688.00,48.376
689.00,48.262
690.00,48.572
691.00,48.783
692.00,48.323
693.00,48.321
694.00,48.552
695.00,48.697
696.00,48.639
697.00,48.596
698.00,48.649
699.00,48.900
700.00,48.783
701.00,48.739
702.00,48.841
703.00,48.971
704.00,48.980
705.00,48.827
706.00,48.772
707.00,48.788
708.00,48.939
709.00,49.466
710.00,49.007
711.00,48.878
712.00,49.015
713.00,49.087
714.00,49.155
715.00,49.059
716.00,48.887
717.00,49.093
718.00,49.327
719.00,49.211
720.00,49.132
721.00,53.929
722.00,53.848
723.00,53.804
724.00,53.771
725.00,53.724
726.00,53.812
727.00,53.737
728.00,53.694
729.00,53.646
730.00,53.706
731.00,53.677
732.00,53.593
733.00,53.719
734.00,53.635
735.00,53.613
736.00,53.561
737.00,53.552
738.00,53.635
739.00,53.513
740.00,53.535
741.00,53.548
742.00,53.521
743.00,53.546
744.00,53.406
745.00,53.520
746.00,53.433
747.00,53.367
748.00,53.335
749.00,53.280
750.00,53.239
751.00,53.194
752.00,53.175
753.00,53.104
754.00,53.133
755.00,53.021
756.00,53.023
757.00,53.062
758.00,53.008
759.00,52.965
760.00,52.979
761.00,52.864
762.00,52.937
763.00,52.923
764.00,52.841
765.00,52.851
766.00,52.880
767.00,52.847
768.00,52.885
769.00,52.773
770.00,52.837
771.00,52.789
772.00,52.703
773.00,52.750
774.00,52.680
775.00,52.733
776.00,52.642
777.00,52.707
778.00,52.635
779.00,52.674
780.00,52.600
781.00,52.585
782.00,52.616
783.00,52.450
784.00,52.618
785.00,52.386
786.00,52.504
787.00,52.383
788.00,52.378
789.00,52.429
790.00,52.248
791.00,52.332
792.00,52.235
793.00,52.188
794.00,52.300
795.00,52.167
796.00,52.186
797.00,52.054
798.00,52.135
799.00,52.048
800.00,51.979
801.00,52.010
802.00,52.006
803.00,51.941
804.00,51.875
805.00,51.950
806.00,51.777
807.00,51.815
808.00,51.876
809.00,51.816
810.00,51.728
811.00,51.719
812.00,51.667
813.00,51.623
814.00,51.583
815.00,51.554
816.00,51.568
817.00,51.596
818.00,51.418
819.00,51.494
820.00,51.473
821.00,51.434
822.00,51.423
823.00,51.354
824.00,51.407
825.00,51.298
826.00,51.280
827.00,51.419
828.00,51.352
829.00,51.196
830.00,51.315
831.00,53.680
832.00,53.707
833.00,53.582
834.00,53.614
835.00,53.549
836.00,53.564
837.00,53.502
838.00,53.463
839.00,53.490
840.00,53.397
841.00,53.396
842.00,53.359
843.00,53.355
844.00,53.347
845.00,53.287
846.00,53.277
847.00,53.265
848.00,53.265
849.00,53.143
850.00,53.165
851.00,53.046
852.00,53.083
853.00,53.009
854.00,52.993
855.00,52.898
856.00,52.977
857.00,52.780
858.00,52.836
859.00,52.835
860.00,52.792
861.00,52.860
862.00,52.724
863.00,52.769
864.00,52.695
865.00,52.704
866.00,52.668
867.00,52.661
868.00,52.640
869.00,52.567
870.00,52.641
871.00,52.597
872.00,52.598
873.00,52.502
874.00,52.743
875.00,52.530
876.00,52.536
877.00,52.506
878.00,52.499
879.00,52.438
880.00,52.459
881.00,52.414
882.00,52.427
883.00,52.383
884.00,52.351
885.00,52.309
886.00,52.345
887.00,52.269
888.00,52.256
889.00,52.251
890.00,52.277
891.00,52.204
892.00,52.195
893.00,52.175
894.00,52.168
895.00,52.111
896.00,52.077
897.00,52.063
898.00,52.016
899.00,52.028
900.00,52.001
901.00,51.989
902.00,52.030
903.00,51.935
904.00,51.949
905.00,51.904
906.00,51.912
907.00,51.866
908.00,51.821
909.00,51.831
910.00,51.794
911.00,51.774
912.00,51.772
913.00,51.711
914.00,51.737
915.00,51.710
916.00,51.691
917.00,51.627
918.00,51.633
919.00,51.614
920.00,51.557
921.00,51.578
922.00,51.538
923.00,51.526
924.00,51.459
925.00,51.487
926.00,51.440
927.00,51.465
928.00,51.376
929.00,51.450
930.00,51.344
931.00,51.373
932.00,51.321
933.00,51.343
934.00,51.304
935.00,51.284
936.00,51.230
937.00,51.234
938.00,51.205
939.00,51.214
940.00,51.153
941.00,51.166
942.00,51.127
943.00,51.108
944.00,51.009
945.00,51.072
946.00,51.075
947.00,51.001
948.00,51.019
949.00,50.985
950.00,50.971
951.00,50.939
952.00,50.951
953.00,50.876
954.00,50.881
955.00,50.806
956.00,50.809
957.00,50.775
958.00,50.787
959.00,50.700
960.00,50.727
961.00,50.721
962.00,50.727
963.00,50.674
964.00,50.652
965.00,50.666
966.00,50.646
967.00,50.648
968.00,50.608
969.00,50.636
970.00,50.590
971.00,50.607
972.00,50.550
973.00,50.605
974.00,50.623
975.00,50.555
976.00,50.605
977.00,50.599
978.00,50.635
979.00,50.584
980.00,50.570
981.00,50.607
982.00,50.546
983.00,50.588
984.00,50.553
985.00,50.590
986.00,50.524
987.00,50.558
988.00,50.505
989.00,50.486
990.00,50.494
991.00,50.516
992.00,50.490
993.00,50.446
994.00,50.424
995.00,50.430
996.00,50.420
997.00,50.409
998.00,50.370
999.00,50.400
1000.00,50.361
1001.00,50.337
1002.00,50.334
1003.00,50.325
1004.00,50.313
1005.00,50.261
1006.00,50.366
1007.00,50.270
1008.00,50.266
1009.00,50.251
1010.00,50.244
1011.00,50.230
1012.00,50.184
1013.00,50.204
1014.00,50.161
1015.00,50.177
1016.00,50.113
1017.00,50.119
1018.00,50.132
1019.00,50.091
1020.00,50.103
1021.00,50.092
1022.00,50.074
1023.00,50.028
1024.00,50.039
1025.00,50.018
1026.00,50.005
1027.00,49.966
1028.00,49.964
1029.00,49.962
1030.00,49.902
1031.00,49.935
1032.00,49.884
1033.00,49.887
1034.00,49.866
1035.00,49.823
1036.00,49.820
1037.00,49.792
1038.00,49.748
1039.00,49.715
1040.00,49.720
1041.00,49.670
1042.00,49.690
1043.00,49.672
1044.00,49.696
1045.00,49.683
1046.00,49.661
1047.00,49.706
1048.00,49.713
1049.00,49.712
1050.00,49.721
1051.00,49.758
1052.00,49.714
1053.00,49.754
1054.00,49.743
1055.00,49.767
1056.00,49.780
1057.00,49.770
1058.00,49.765
1059.00,49.763
1060.00,49.777
1061.00,49.756
1062.00,49.768
1063.00,49.761
1064.00,49.780
1065.00,49.742
1066.00,49.732
1067.00,49.725
1068.00,49.747
1069.00,49.680
1070.00,49.683
1071.00,49.652
1072.00,49.688
1073.00,49.653
1074.00,49.653
1075.00,49.658
1076.00,49.654
1077.00,49.618
1078.00,49.602
1079.00,49.600
1080.00,49.602
1081.00,49.615
1082.00,49.608
1083.00,49.598
1084.00,49.595
1085.00,49.597
1086.00,49.573
1087.00,49.587
1088.00,49.565
1089.00,49.570
1090.00,49.534
1091.00,49.555
1092.00,49.545
1093.00,49.517
1094.00,49.510
1095.00,49.549
1096.00,49.468
1097.00,49.478
1098.00,49.462
1099.00,49.458
1100.00,49.441
1101.00,49.442
1102.00,49.422
1103.00,49.443
1104.00,49.403
1105.00,49.400
1106.00,49.373
1107.00,49.380
1108.00,49.379
1109.00,49.388
1110.00,49.362
1111.00,49.354
1112.00,49.335
1113.00,49.338
1114.00,49.316
1115.00,49.318
1116.00,49.310
1117.00,49.304
1118.00,49.284
1119.00,49.294
1120.00,49.287
1121.00,49.281
1122.00,49.267
1123.00,49.257
1124.00,49.256
1125.00,49.274
1126.00,49.240
1127.00,49.263
1128.00,49.236
1129.00,49.228
1130.00,49.203
1131.00,49.204
1132.00,49.173
1133.00,49.200
1134.00,49.176
1135.00,49.182
1136.00,49.172
1137.00,49.190
1138.00,49.187
1139.00,49.212
1140.00,49.178
1141.00,49.185
1142.00,49.167
1143.00,49.185
1144.00,49.135
1145.00,49.142
1146.00,49.142
1147.00,49.160
1148.00,49.141
1149.00,49.178
1150.00,49.159
1151.00,49.150
1152.00,49.139
1153.00,49.145
1154.00,49.111
1155.00,49.141
1156.00,49.107
1157.00,49.124
1158.00,49.118
1159.00,49.121
1160.00,49.128
1161.00,49.142
1162.00,49.131
1163.00,49.127
1164.00,49.138
1165.00,49.112
1166.00,49.134
1167.00,49.094
1168.00,49.116
1169.00,49.105
1170.00,49.098
1171.00,49.111
1172.00,49.108
1173.00,49.097
1174.00,49.127
1175.00,49.105
1176.00,49.100
1177.00,49.095
1178.00,49.077
1179.00,49.118
1180.00,49.098
1181.00,49.111
1182.00,49.101
1183.00,49.103
1184.00,49.077
1185.00,49.100
1186.00,49.089
1187.00,49.092
1188.00,49.102
1189.00,49.096
1190.00,49.095
1191.00,49.081
1192.00,49.101
1193.00,49.090
1194.00,49.106
1195.00,49.067
1196.00,49.110
1197.00,49.106
1198.00,49.082
1199.00,49.091
1200.00,49.088
1201.00,49.121
1202.00,49.082
1203.00,49.087
1204.00,49.084
1205.00,49.108
1206.00,49.079
1207.00,49.082
1208.00,49.076
1209.00,49.082
1210.00,49.096
1211.00,49.068
1212.00,49.105
1213.00,49.069
1214.00,49.097
1215.00,49.079
1216.00,49.090
1217.00,49.087
1218.00,49.084
1219.00,49.124
1220.00,49.094
1221.00,49.118
1222.00,49.076
1223.00,49.112
1224.00,49.110
1225.00,49.076
1226.00,49.105
1227.00,49.095
1228.00,49.101
1229.00,49.095
1230.00,49.130
1231.00,49.111
1232.00,49.156
1233.00,49.149
1234.00,49.165
1235.00,49.165
1236.00,49.169
1237.00,49.197
1238.00,49.166
1239.00,49.173
1240.00,49.157
1241.00,49.190
1242.00,49.174
1243.00,49.187
1244.00,49.163
1245.00,49.202
1246.00,49.201
1247.00,49.180
1248.00,49.181
1249.00,49.207
1250.00,49.201
1251.00,49.181
1252.00,49.208
1253.00,49.190
1254.00,49.233
1255.00,49.239
1256.00,49.216
1257.00,49.206
1258.00,49.235
1259.00,49.223
1260.00,49.255
1261.00,49.248
1262.00,49.254
1263.00,49.260
1264.00,49.264
1265.00,49.290
1266.00,49.293
1267.00,49.309
1268.00,49.286
1269.00,49.277
1270.00,49.295
1271.00,49.316
1272.00,49.308
1273.00,49.328
1274.00,49.316
1275.00,49.330
1276.00,49.323
1277.00,49.331
1278.00,49.333
1279.00,49.341
1280.00,49.314
1281.00,49.350
1282.00,49.357
1283.00,49.337
1284.00,49.365
1285.00,49.364
1286.00,49.388
1287.00,49.389
1288.00,49.383
1289.00,49.373
1290.00,49.433
1291.00,49.401
1292.00,49.411
1293.00,49.415
1294.00,49.417
1295.00,49.428
1296.00,49.437
1297.00,49.422
1298.00,49.480
1299.00,49.432
1300.00,49.478
1301.00,49.461
1302.00,49.489
1303.00,49.480
1304.00,49.483
1305.00,49.512
1306.00,49.506
1307.00,49.524
1308.00,49.519
1309.00,49.540
1310.00,49.528
1311.00,49.514
1312.00,49.530
1313.00,49.538
1314.00,49.554
1315.00,49.584
1316.00,49.553
1317.00,49.618
1318.00,49.605
1319.00,49.599
1320.00,49.602
1321.00,49.775
1322.00,49.758
1323.00,49.752
1324.00,49.744
1325.00,49.742
1326.00,49.773
1327.00,49.749
1328.00,49.752
1329.00,49.752
1330.00,49.742
1331.00,49.778
1332.00,49.768
1333.00,49.783
1334.00,49.827
1335.00,49.828
1336.00,49.865
1337.00,49.890
1338.00,49.945
1339.00,49.986
1340.00,50.036
1341.00,50.108
1342.00,50.185
1343.00,50.203
1344.00,50.271
1345.00,50.356
1346.00,50.379
1347.00,50.391
1348.00,50.437
1349.00,50.435
1350.00,50.468
1351.00,50.458
1352.00,50.479
1353.00,50.499
1354.00,50.487
1355.00,50.443
1356.00,50.538
1357.00,50.499
1358.00,50.555
1359.00,50.548
1360.00,50.601
1361.00,50.527
1362.00,50.510
1363.00,50.586
1364.00,50.598
1365.00,50.523
1366.00,50.620
1367.00,50.537
1368.00,50.546
1369.00,50.551
1370.00,50.545
1371.00,50.475
1372.00,50.515
1373.00,50.505
1374.00,50.562
1375.00,50.533
1376.00,50.541
1377.00,50.531
1378.00,50.628
1379.00,50.537
1380.00,50.590
1381.00,50.578
1382.00,50.455
1383.00,50.569
1384.00,50.457
1385.00,50.524
1386.00,50.585
1387.00,50.526
1388.00,50.487
1389.00,50.536
1390.00,50.565
1391.00,50.555
1392.00,50.526
1393.00,50.560
1394.00,50.557
1395.00,50.464
1396.00,50.465
1397.00,50.605
1398.00,50.568
1399.00,50.491
1400.00,50.553
1401.00,50.516
1402.00,50.707
1403.00,50.645
1404.00,50.578
1405.00,50.588
1406.00,50.654
1407.00,50.603
1408.00,50.601
1409.00,50.570
1410.00,50.638
1411.00,50.639
1412.00,50.671
1413.00,50.627
1414.00,50.628
1415.00,50.637
1416.00,50.686
1417.00,50.692
1418.00,50.655
1419.00,50.693
1420.00,50.690
1421.00,50.767
1422.00,50.770
1423.00,50.793
1424.00,50.795
1425.00,50.840
1426.00,50.799
1427.00,50.846
1428.00,50.820
1429.00,50.845
1430.00,50.858
1431.00,50.892
1432.00,50.894
1433.00,50.932
1434.00,50.904
1435.00,50.989
1436.00,50.989
1437.00,50.968
1438.00,50.994
1439.00,51.027
1440.00,51.035
1441.00,51.048
1442.00,51.068
1443.00,51.070
1444.00,51.154
1445.00,51.088
1446.00,51.136
1447.00,51.163
1448.00,51.194
1449.00,51.208
1450.00,51.214
1451.00,51.215
1452.00,51.255
1453.00,51.229
1454.00,51.276
1455.00,51.300
1456.00,51.313
1457.00,51.313
1458.00,51.368
1459.00,51.354
1460.00,51.392
1461.00,51.367
1462.00,51.417
1463.00,51.410
1464.00,51.426
1465.00,51.436
1466.00,51.453
1467.00,51.448
1468.00,51.527
1469.00,51.504
1470.00,51.524
1471.00,51.555
1472.00,51.569
1473.00,51.572
1474.00,51.612
1475.00,51.618
1476.00,51.648
1477.00,51.623
1478.00,51.657
1479.00,51.675
1480.00,51.681
1481.00,51.670
1482.00,51.726
1483.00,51.733
1484.00,51.746
1485.00,51.774
1486.00,51.779
1487.00,51.792
1488.00,51.839
1489.00,51.795
1490.00,51.825
1491.00,51.840
1492.00,51.871
1493.00,51.848
1494.00,51.887
1495.00,51.857
1496.00,51.902
1497.00,51.873
1498.00,51.919
1499.00,51.934
1500.00,51.924
1501.00, 
1502.00, 
1503.00, 
1504.00, 
1505.00, 
1506.00, 
1507.00, 
1508.00, 
1509.00, 
1510.00, 
1511.00, 
1512.00, 
1513.00, 
1514.00, 
1515.00, 
1516.00, 
1517.00, 
1518.00, 
1519.00, 
1520.00, 
1521.00, 
1522.00, 
1523.00, 
1524.00, 
1525.00, 
1526.00, 
1527.00, 
1528.00, 
1529.00, 
1530.00, 
1531.00, 
1532.00, 
1533.00, 
1534.00, 
1535.00, 
1536.00, 
1537.00, 
1538.00, 
1539.00, 
1540.00, 
1541.00, 
1542.00, 
1543.00, 
1544.00, 
1545.00, 
1546.00, 
1547.00, 
1548.00, 
1549.00, 
1550.00, 
1551.00, 
1552.00, 
1553.00, 
1554.00, 
1555.00, 
1556.00, 
1557.00, 
1558.00, 
1559.00, 
1560.00, 
1561.00, 
1562.00, 
1563.00, 
1564.00, 
1565.00, 
1566.00, 
1567.00, 
1568.00, 
1569.00, 
1570.00, 
1571.00, 
1572.00, 
1573.00, 
1574.00, 
1575.00, 
1576.00, 
1577.00, 
1578.00, 
1579.00, 
1580.00, 
1581.00, 
1582.00, 
1583.00, 
1584.00, 
1585.00, 
1586.00, 
1587.00, 
1588.00, 
1589.00, 
1590.00, 
1591.00, 
1592.00, 
1593.00, 
1594.00, 
1595.00, 
1596.00, 
1597.00, 
1598.00, 
1599.00, 
1600.00, 
1601.00, 
1602.00, 
1603.00, 
1604.00, 
1605.00, 
1606.00, 
1607.00, 
1608.00, 
1609.00, 
1610.00, 
1611.00, 
1612.00, 
1613.00, 
1614.00, 
1615.00, 
1616.00, 
1617.00, 
1618.00, 
1619.00, 
1620.00, 
1621.00, 
1622.00, 
1623.00, 
1624.00, 
1625.00, 
1626.00, 
1627.00, 
1628.00, 
1629.00, 
1630.00, 
1631.00, 
1632.00, 
1633.00, 
1634.00, 
1635.00, 
1636.00, 
1637.00, 
1638.00, 
1639.00, 
1640.00, 
1641.00, 
1642.00, 
1643.00, 
1644.00, 
1645.00, 
1646.00, 
1647.00, 
1648.00, 
1649.00, 
1650.00, 
1651.00, 
1652.00, 
1653.00, 
1654.00, 
1655.00, 
1656.00, 
1657.00, 
1658.00, 
1659.00, 
1660.00, 
1661.00, 
1662.00, 
1663.00, 
1664.00, 
1665.00, 
1666.00, 
1667.00, 
1668.00, 
1669.00, 
1670.00, 
1671.00, 
1672.00, 
1673.00, 
1674.00, 
1675.00, 
1676.00, 
1677.00, 
1678.00, 
1679.00, 
1680.00, 
1681.00, 
1682.00, 
1683.00, 
1684.00, 
1685.00, 
1686.00, 
1687.00, 
1688.00, 
1689.00, 
1690.00, 
1691.00, 
1692.00, 
1693.00, 
1694.00, 
1695.00, 
1696.00, 
1697.00, 
1698.00, 
1699.00, 
1700.00, 
1701.00, 
1702.00, 
1703.00, 
1704.00, 
1705.00, 
1706.00, 
1707.00, 
1708.00, 
1709.00, 
1710.00, 
1711.00, 
1712.00, 
1713.00, 
1714.00, 
1715.00, 
1716.00, 
1717.00, 
1718.00, 
1719.00, 
1720.00, 
1721.00, 
1722.00, 
1723.00, 
1724.00, 
1725.00, 
1726.00, 
1727.00, 
1728.00, 
1729.00, 
1730.00, 
1731.00, 
1732.00, 
1733.00, 
1734.00, 
1735.00, 
1736.00, 
1737.00, 
1738.00, 
1739.00, 
1740.00, 
1741.00, 
1742.00, 
1743.00, 
1744.00, 
1745.00, 
1746.00, 
1747.00, 
1748.00, 
1749.00, 
1750.00, 
1751.00, 
1752.00, 
1753.00, 
1754.00, 
1755.00, 
1756.00, 
1757.00, 
1758.00, 
1759.00, 
1760.00, 
1761.00, 
1762.00, 
1763.00, 
1764.00, 
1765.00, 
1766.00, 
1767.00, 
1768.00, 
1769.00, 
1770.00, 
1771.00, 
1772.00, 
1773.00, 
1774.00, 
1775.00, 
1776.00, 
1777.00, 
1778.00, 
1779.00, 
1780.00, 
1781.00, 
1782.00, 
1783.00, 
1784.00, 
1785.00, 
1786.00, 
1787.00, 
1788.00, 
1789.00, 
1790.00, 
1791.00, 
1792.00, 
1793.00, 
1794.00, 
1795.00, 
1796.00, 
1797.00, 
1798.00, 
1799.00, 
1800.00, 
1801.00, 
1802.00, 
1803.00, 
1804.00, 
1805.00, 
1806.00, 
1807.00, 
1808.00, 
1809.00, 
1810.00, 
1811.00, 
1812.00, 
1813.00, 
1814.00, 
1815.00, 
1816.00, 
1817.00, 
1818.00, 
1819.00, 
1820.00, 
1821.00, 
1822.00, 
1823.00, 
1824.00, 
1825.00, 
1826.00, 
1827.00, 
1828.00, 
1829.00, 
1830.00, 
1831.00, 
1832.00, 
1833.00, 
1834.00, 
1835.00, 
1836.00, 
1837.00, 
1838.00, 
1839.00, 
1840.00, 
1841.00, 
1842.00, 
1843.00, 
1844.00, 
1845.00, 
1846.00, 
1847.00, 
1848.00, 
1849.00, 
1850.00, 
1851.00, 
1852.00, 
1853.00, 
1854.00, 
1855.00, 
1856.00, 
1857.00, 
1858.00, 
1859.00, 
1860.00, 
1861.00, 
1862.00, 
1863.00, 
1864.00, 
1865.00, 
1866.00, 
1867.00, 
1868.00, 
1869.00, 
1870.00, 
1871.00, 
1872.00, 
1873.00, 
1874.00, 
1875.00, 
1876.00, 
1877.00, 
1878.00, 
1879.00, 
1880.00, 
1881.00, 
1882.00, 
1883.00, 
1884.00, 
1885.00, 
1886.00, 
1887.00, 
1888.00, 
1889.00, 
1890.00, 
1891.00, 
1892.00, 
1893.00, 
1894.00, 
1895.00, 
1896.00, 
1897.00, 
1898.00, 
1899.00, 
1900.00, 
1901.00, 
1902.00, 
1903.00, 
1904.00, 
1905.00, 
1906.00, 
1907.00, 
1908.00, 
1909.00, 
1910.00, 
1911.00, 
1912.00, 
1913.00, 
1914.00, 
1915.00, 
1916.00, 
1917.00, 
1918.00, 
1919.00, 
1920.00, 
1921.00, 
1922.00, 
1923.00, 
1924.00, 
1925.00, 
1926.00, 
1927.00, 
1928.00, 
1929.00, 
1930.00, 
1931.00, 
1932.00, 
1933.00, 
1934.00, 
1935.00, 
1936.00, 
1937.00, 
1938.00, 
1939.00, 
1940.00, 
1941.00, 
1942.00, 
1943.00, 
1944.00, 
1945.00, 
1946.00, 
1947.00, 
1948.00, 
1949.00, 
1950.00, 
1951.00, 
1952.00, 
1953.00, 
1954.00, 
1955.00, 
1956.00, 
1957.00, 
1958.00, 
1959.00, 
1960.00, 
1961.00, 
1962.00, 
1963.00, 
1964.00, 
1965.00, 
1966.00, 
1967.00, 
1968.00, 
1969.00, 
1970.00, 
1971.00, 
1972.00, 
1973.00, 
1974.00, 
1975.00, 
1976.00, 
1977.00, 
1978.00, 
1979.00, 
1980.00, 
1981.00, 
1982.00, 
1983.00, 
1984.00, 
1985.00, 
1986.00, 
1987.00, 
1988.00, 
1989.00, 
1990.00, 
1991.00, 
1992.00, 
1993.00, 
1994.00, 
1995.00, 
1996.00, 
1997.00, 
1998.00, 
1999.00, 
2000.00, 
2001.00, 
2002.00, 
2003.00, 
2004.00, 
2005.00, 
2006.00, 
2007.00, 
2008.00, 
2009.00, 
2010.00, 
2011.00, 
2012.00, 
2013.00, 
2014.00, 
2015.00, 
2016.00, 
2017.00, 
2018.00, 
2019.00, 
2020.00, 
2021.00, 
2022.00, 
2023.00, 
2024.00, 
2025.00, 
2026.00, 
2027.00, 
2028.00, 
2029.00, 
2030.00, 
2031.00, 
2032.00, 
2033.00, 
2034.00, 
2035.00, 
2036.00, 
2037.00, 
2038.00, 
2039.00, 
2040.00, 
2041.00, 
2042.00, 
2043.00, 
2044.00, 
2045.00, 
2046.00, 
2047.00, 
2048.00, 
2049.00, 
2050.00, 
2051.00, 
2052.00, 
2053.00, 
2054.00, 
2055.00, 
2056.00, 
2057.00, 
2058.00, 
2059.00, 
2060.00, 
2061.00, 
2062.00, 
2063.00, 
2064.00, 
2065.00, 
2066.00, 
2067.00, 
2068.00, 
2069.00, 
2070.00, 
2071.00, 
2072.00, 
2073.00, 
2074.00, 
2075.00, 
2076.00, 
2077.00, 
2078.00, 
2079.00, 
2080.00, 
2081.00, 
2082.00, 
2083.00, 
2084.00, 
2085.00, 
2086.00, 
2087.00, 
2088.00, 
2089.00, 
2090.00, 
2091.00, 
2092.00, 
2093.00, 
2094.00, 
2095.00, 
2096.00, 
2097.00, 
2098.00, 
2099.00, 
2100.00, 
2101.00, 
2102.00, 
2103.00, 
2104.00, 
2105.00, 
2106.00, 
2107.00, 
2108.00, 
2109.00, 
2110.00, 
2111.00, 
2112.00, 
2113.00, 
2114.00, 
2115.00, 
2116.00, 
2117.00, 
2118.00, 
2119.00, 
2120.00, 
2121.00, 
2122.00, 
2123.00, 
2124.00, 
2125.00, 
2126.00, 
2127.00, 
2128.00, 
2129.00, 
2130.00, 
2131.00, 
2132.00, 
2133.00, 
2134.00, 
2135.00, 
2136.00, 
2137.00, 
2138.00, 
2139.00, 
2140.00, 
2141.00, 
2142.00, 
2143.00, 
2144.00, 
2145.00, 
2146.00, 
2147.00, 
2148.00, 
2149.00, 
2150.00, 
2151.00, 
2152.00, 
2153.00, 
2154.00, 
2155.00, 
2156.00, 
2157.00, 
2158.00, 
2159.00, 
2160.00, 
2161.00, 
2162.00, 
2163.00, 
2164.00, 
2165.00, 
2166.00, 
2167.00, 
2168.00, 
2169.00, 
2170.00, 
2171.00, 
2172.00, 
2173.00, 
2174.00, 
2175.00, 
2176.00, 
2177.00, 
2178.00, 
2179.00, 
2180.00, 
2181.00, 
2182.00, 
2183.00, 
2184.00, 
2185.00, 
2186.00, 
2187.00, 
2188.00, 
2189.00, 
2190.00, 
2191.00, 
2192.00, 
2193.00, 
2194.00, 
2195.00, 
2196.00, 
2197.00, 
2198.00, 
2199.00, 
2200.00, 
2201.00, 
2202.00, 
2203.00, 
2204.00, 
2205.00, 
2206.00, 
2207.00, 
2208.00, 
2209.00, 
2210.00, 
2211.00, 
2212.00, 
2213.00, 
2214.00, 
2215.00, 
2216.00, 
2217.00, 
2218.00, 
2219.00, 
2220.00, 
2221.00, 
2222.00, 
2223.00, 
2224.00, 
2225.00, 
2226.00, 
2227.00, 
2228.00, 
2229.00, 
2230.00, 
2231.00, 
2232.00, 
2233.00, 
2234.00, 
2235.00, 
2236.00, 
2237.00, 
2238.00, 
2239.00, 
2240.00, 
2241.00, 
2242.00, 
2243.00, 
2244.00, 
2245.00, 
2246.00, 
2247.00, 
2248.00, 
2249.00, 
2250.00, 
2251.00, 
2252.00, 
2253.00, 
2254.00, 
2255.00, 
2256.00, 
2257.00, 
2258.00, 
2259.00, 
2260.00, 
2261.00, 
2262.00, 
2263.00, 
2264.00, 
2265.00, 
2266.00, 
2267.00, 
2268.00, 
2269.00, 
2270.00, 
2271.00, 
2272.00, 
2273.00, 
2274.00, 
2275.00, 
2276.00, 
2277.00, 
2278.00, 
2279.00, 
2280.00, 
2281.00, 
2282.00, 
2283.00, 
2284.00, 
2285.00, 
2286.00, 
2287.00, 
2288.00, 
2289.00, 
2290.00, 
2291.00, 
2292.00, 
2293.00, 
2294.00, 
2295.00, 
2296.00, 
2297.00, 
2298.00, 
2299.00, 
2300.00, 
2301.00, 
2302.00, 
2303.00, 
2304.00, 
2305.00, 
2306.00, 
2307.00, 
2308.00, 
2309.00, 
2310.00, 
2311.00, 
2312.00, 
2313.00, 
2314.00, 
2315.00, 
2316.00, 
2317.00, 
2318.00, 
2319.00, 
2320.00, 
2321.00, 
2322.00, 
2323.00, 
2324.00, 
2325.00, 
2326.00, 
2327.00, 
2328.00, 
2329.00, 
2330.00, 
2331.00, 
2332.00, 
2333.00, 
2334.00, 
2335.00, 
2336.00, 
2337.00, 
2338.00, 
2339.00, 
2340.00, 
2341.00, 
2342.00, 
2343.00, 
2344.00, 
2345.00, 
2346.00, 
2347.00, 
2348.00, 
2349.00, 
2350.00, 
2351.00, 
2352.00, 
2353.00, 
2354.00, 
2355.00, 
2356.00, 
2357.00, 
2358.00, 
2359.00, 
2360.00, 
2361.00, 
2362.00, 
2363.00, 
2364.00, 
2365.00, 
2366.00, 
2367.00, 
2368.00, 
2369.00, 
2370.00, 
2371.00, 
2372.00, 
2373.00, 
2374.00, 
2375.00, 
2376.00, 
2377.00, 
2378.00, 
2379.00, 
2380.00, 
2381.00, 
2382.00, 
2383.00, 
2384.00, 
2385.00, 
2386.00, 
2387.00, 
2388.00, 
2389.00, 
2390.00, 
2391.00, 
2392.00, 
2393.00, 
2394.00, 
2395.00, 
2396.00, 
2397.00, 
2398.00, 
2399.00, 
2400.00, 
2401.00, 
2402.00, 
2403.00, 
2404.00, 
2405.00, 
2406.00, 
2407.00, 
2408.00, 
2409.00, 
2410.00, 
2411.00, 
2412.00, 
2413.00, 
2414.00, 
2415.00, 
2416.00, 
2417.00, 
2418.00, 
2419.00, 
2420.00, 
2421.00, 
2422.00, 
2423.00, 
2424.00, 
2425.00, 
2426.00, 
2427.00, 
2428.00, 
2429.00, 
2430.00, 
2431.00, 
2432.00, 
2433.00, 
2434.00, 
2435.00, 
2436.00, 
2437.00, 
2438.00, 
2439.00, 
2440.00, 
2441.00, 
2442.00, 
2443.00, 
2444.00, 
2445.00, 
2446.00, 
2447.00, 
2448.00, 
2449.00, 
2450.00, 
2451.00, 
2452.00, 
2453.00, 
2454.00, 
2455.00, 
2456.00, 
2457.00, 
2458.00, 
2459.00, 
2460.00, 
2461.00, 
2462.00, 
2463.00, 
2464.00, 
2465.00, 
2466.00, 
2467.00, 
2468.00, 
2469.00, 
2470.00, 
2471.00, 
2472.00, 
2473.00, 
2474.00, 
2475.00, 
2476.00, 
2477.00, 
2478.00, 
2479.00, 
2480.00, 
2481.00, 
2482.00, 
2483.00, 
2484.00, 
2485.00, 
2486.00, 
2487.00, 
2488.00, 
2489.00, 
2490.00, 
2491.00, 
2492.00, 
2493.00, 
2494.00, 
2495.00, 
2496.00, 
2497.00, 
2498.00, 
2499.00, 
2500.00, 
2501.00, 
2502.00, 
2503.00, 
2504.00, 
2505.00, 
2506.00, 
2507.00, 
2508.00, 
2509.00, 
2510.00, 
2511.00, 
2512.00, 
2513.00, 
2514.00, 
2515.00, 
2516.00, 
2517.00, 
2518.00, 
2519.00, 
2520.00, 
2521.00, 
2522.00, 
2523.00, 
2524.00, 
2525.00, 
2526.00, 
2527.00, 
2528.00, 
2529.00, 
2530.00, 
2531.00, 
2532.00, 
2533.00, 
2534.00, 
2535.00, 
2536.00, 
2537.00, 
2538.00, 
2539.00, 
2540.00, 
2541.00, 
2542.00, 
2543.00, 
2544.00, 
2545.00, 
2546.00, 
2547.00, 
2548.00, 
2549.00, 
2550.00, 
2551.00, 
2552.00, 
2553.00, 
2554.00, 
2555.00, 
2556.00, 
2557.00, 
2558.00, 
2559.00, 
2560.00, 
2561.00, 
2562.00, 
2563.00, 
2564.00, 
2565.00, 
2566.00, 
2567.00, 
2568.00, 
2569.00, 
2570.00, 
2571.00, 
2572.00, 
2573.00, 
2574.00, 
2575.00, 
2576.00, 
2577.00, 
2578.00, 
2579.00, 
2580.00, 
2581.00, 
2582.00, 
2583.00, 
2584.00, 
2585.00, 
2586.00, 
2587.00, 
2588.00, 
2589.00, 
2590.00, 
2591.00, 
2592.00, 
2593.00, 
2594.00, 
2595.00, 
2596.00, 
2597.00, 
2598.00, 
2599.00, 
2600.00, 
