"2cP1 - RawData"
"Wavelength nm.","T%"
200.00,0.002
201.00,-0.002
202.00,0.002
203.00,0.002
204.00,0.004
205.00,0.000
206.00,0.000
207.00,0.001
208.00,0.002
209.00,0.000
210.00,0.001
211.00,-0.000
212.00,0.002
213.00,0.002
214.00,-0.000
215.00,0.001
216.00,0.003
217.00,0.001
218.00,0.001
219.00,-0.000
220.00,0.000
221.00,-0.000
222.00,0.003
223.00,-0.001
224.00,0.001
225.00,0.003
226.00,0.001
227.00,-0.001
228.00,0.002
229.00,0.001
230.00,-0.000
231.00,-0.002
232.00,0.001
233.00,0.001
234.00,-0.000
235.00,-0.001
236.00,0.001
237.00,0.000
238.00,0.001
239.00,0.003
240.00,0.001
241.00,-0.000
242.00,0.001
243.00,0.002
244.00,0.001
245.00,0.001
246.00,0.001
247.00,-0.001
248.00,-0.001
249.00,0.001
250.00,0.000
251.00,0.001
252.00,0.001
253.00,0.000
254.00,0.000
255.00,0.001
256.00,0.001
257.00,0.001
258.00,0.001
259.00,-0.000
260.00,0.001
261.00,-0.000
262.00,-0.001
263.00,-0.000
264.00,-0.001
265.00,0.001
266.00,0.001
267.00,0.002
268.00,0.001
269.00,0.001
270.00,-0.000
271.00,0.001
272.00,0.001
273.00,0.001
274.00,0.002
275.00,-0.000
276.00,-0.000
277.00,0.001
278.00,-0.000
279.00,0.001
280.00,0.001
281.00,0.001
282.00,0.001
283.00,-0.002
284.00,-0.002
285.00,-0.001
286.00,0.002
287.00,0.001
288.00,-0.001
289.00,0.001
290.00,-0.000
291.00,-0.001
292.00,0.001
293.00,-0.001
294.00,-0.000
295.00,0.000
296.00,0.000
297.00,-0.000
298.00,0.001
299.00,0.001
300.00,0.001
301.00,0.003
302.00,0.003
303.00,0.008
304.00,0.010
305.00,0.014
306.00,0.024
307.00,0.035
308.00,0.053
309.00,0.083
310.00,0.118
311.00,0.164
312.00,0.212
313.00,0.298
314.00,0.389
315.00,0.509
316.00,0.645
317.00,0.818
318.00,1.016
319.00,1.243
320.00,1.525
321.00,1.820
322.00,2.148
323.00,2.523
324.00,2.935
325.00,3.332
326.00,3.754
327.00,4.244
328.00,4.769
329.00,5.246
330.00,5.805
331.00,6.323
332.00,6.892
333.00,7.453
334.00,7.991
335.00,8.567
336.00,9.137
337.00,9.685
338.00,10.230
339.00,10.713
340.00,11.288
341.00,11.781
342.00,12.233
343.00,12.718
344.00,13.154
345.00,13.575
346.00,13.962
347.00,14.347
348.00,14.664
349.00,15.010
350.00,15.305
351.00,15.661
352.00,15.881
353.00,16.167
354.00,16.408
355.00,16.596
356.00,16.829
357.00,17.086
358.00,17.204
359.00,17.366
360.00,17.508
361.00,17.618
362.00,17.774
363.00,17.871
364.00,18.001
365.00,18.100
366.00,18.160
367.00,18.206
368.00,18.258
369.00,18.310
370.00,18.346
371.00,18.343
372.00,18.350
373.00,18.297
374.00,18.339
375.00,18.292
376.00,18.295
377.00,18.239
378.00,18.175
379.00,18.096
380.00,18.111
381.00,18.101
382.00,18.087
383.00,18.065
384.00,18.104
385.00,18.097
386.00,18.092
387.00,18.183
388.00,18.206
389.00,18.118
390.00,18.115
391.00,18.200
392.00,18.198
393.00,18.203
394.00,18.214
395.00,18.227
396.00,18.199
397.00,18.172
398.00,18.201
399.00,18.193
400.00,18.153
401.00,18.154
402.00,18.206
403.00,18.172
404.00,18.140
405.00,18.140
406.00,18.112
407.00,18.079
408.00,18.068
409.00,18.047
410.00,18.024
411.00,17.989
412.00,17.993
413.00,17.992
414.00,17.984
415.00,17.998
416.00,18.008
417.00,18.003
418.00,18.028
419.00,18.038
420.00,18.052
421.00,18.133
422.00,18.153
423.00,18.172
424.00,18.176
425.00,18.217
426.00,18.261
427.00,18.303
428.00,18.347
429.00,18.362
430.00,18.426
431.00,18.475
432.00,18.481
433.00,18.558
434.00,18.591
435.00,18.662
436.00,18.704
437.00,18.789
438.00,18.842
439.00,18.886
440.00,18.970
441.00,19.044
442.00,19.124
443.00,19.133
444.00,19.250
445.00,19.333
446.00,19.425
447.00,19.549
448.00,19.624
449.00,19.655
450.00,19.831
451.00,19.925
452.00,19.993
453.00,20.146
454.00,20.242
455.00,20.318
456.00,20.468
457.00,20.561
458.00,20.615
459.00,20.755
460.00,20.885
461.00,21.009
462.00,21.115
463.00,21.249
464.00,21.287
465.00,21.505
466.00,21.598
467.00,21.756
468.00,21.829
469.00,21.975
470.00,22.037
471.00,22.163
472.00,22.305
473.00,22.401
474.00,22.505
475.00,22.656
476.00,22.746
477.00,22.896
478.00,23.034
479.00,23.179
480.00,23.307
481.00,23.462
482.00,23.620
483.00,23.775
484.00,23.899
485.00,24.085
486.00,24.211
487.00,24.348
488.00,24.491
489.00,24.644
490.00,24.789
491.00,24.906
492.00,25.126
493.00,25.216
494.00,25.303
495.00,25.430
496.00,25.563
497.00,25.677
498.00,25.842
499.00,25.966
500.00,26.091
501.00,26.263
502.00,26.351
503.00,26.560
504.00,26.648
505.00,26.757
506.00,26.874
507.00,27.005
508.00,27.097
509.00,27.231
510.00,27.352
511.00,27.388
512.00,27.707
513.00,27.814
514.00,27.989
515.00,28.098
516.00,28.188
517.00,28.340
518.00,28.476
519.00,28.506
520.00,28.625
521.00,28.738
522.00,28.833
523.00,28.917
524.00,28.996
525.00,29.123
526.00,29.227
527.00,29.316
528.00,29.386
529.00,29.508
530.00,29.597
531.00,29.758
532.00,29.849
533.00,29.927
534.00,30.068
535.00,30.142
536.00,30.258
537.00,30.344
538.00,30.449
539.00,30.433
540.00,30.586
541.00,30.645
542.00,30.760
543.00,30.821
544.00,30.923
545.00,31.018
546.00,31.057
547.00,31.170
548.00,31.255
549.00,31.324
550.00,31.454
551.00,31.442
552.00,31.594
553.00,31.640
554.00,31.717
555.00,31.780
556.00,31.856
557.00,31.936
558.00,32.006
559.00,32.047
560.00,32.117
561.00,32.191
562.00,32.288
563.00,32.295
564.00,32.393
565.00,32.437
566.00,32.434
567.00,32.507
568.00,32.556
569.00,32.603
570.00,32.643
571.00,32.718
572.00,32.774
573.00,32.776
574.00,32.846
575.00,32.890
576.00,32.911
577.00,33.030
578.00,33.098
579.00,33.132
580.00,33.219
581.00,33.337
582.00,33.407
583.00,33.520
584.00,33.602
585.00,33.615
586.00,33.614
587.00,33.743
588.00,33.765
589.00,33.809
590.00,33.901
591.00,33.968
592.00,33.973
593.00,33.988
594.00,34.051
595.00,34.113
596.00,34.195
597.00,34.200
598.00,34.319
599.00,34.296
600.00,34.388
601.00,34.501
602.00,34.550
603.00,34.603
604.00,34.618
605.00,34.707
606.00,34.771
607.00,34.794
608.00,34.873
609.00,34.830
610.00,34.849
611.00,34.932
612.00,35.035
613.00,35.085
614.00,35.124
615.00,35.251
616.00,35.294
617.00,35.326
618.00,35.451
619.00,35.582
620.00,35.597
621.00,35.553
622.00,35.647
623.00,35.724
624.00,35.764
625.00,35.796
626.00,35.914
627.00,35.983
628.00,36.044
629.00,36.171
630.00,36.245
631.00,36.291
632.00,36.340
633.00,36.403
634.00,36.503
635.00,36.564
636.00,36.658
637.00,36.834
638.00,36.897
639.00,36.967
640.00,37.066
641.00,37.092
642.00,37.178
643.00,37.228
644.00,37.291
645.00,37.386
646.00,37.496
647.00,37.607
648.00,37.699
649.00,37.825
650.00,37.863
651.00,37.959
652.00,38.059
653.00,38.159
654.00,38.288
655.00,38.353
656.00,38.464
657.00,38.469
658.00,38.547
659.00,38.708
660.00,38.783
661.00,38.909
662.00,39.081
663.00,39.157
664.00,39.292
665.00,39.368
666.00,39.448
667.00,39.543
668.00,39.702
669.00,39.840
670.00,39.937
671.00,40.058
672.00,40.048
673.00,40.218
674.00,40.362
675.00,40.425
676.00,40.557
677.00,40.658
678.00,40.725
679.00,40.831
680.00,40.967
681.00,41.040
682.00,41.138
683.00,41.313
684.00,41.420
685.00,41.601
686.00,41.625
687.00,41.736
688.00,41.750
689.00,41.768
690.00,42.002
691.00,42.101
692.00,42.075
693.00,42.333
694.00,42.344
695.00,42.392
696.00,42.472
697.00,42.589
698.00,42.689
699.00,43.039
700.00,43.104
701.00,43.175
702.00,43.221
703.00,43.342
704.00,43.461
705.00,43.386
706.00,43.610
707.00,43.690
708.00,43.502
709.00,43.917
710.00,44.222
711.00,44.058
712.00,44.167
713.00,44.194
714.00,44.347
715.00,44.433
716.00,44.545
717.00,44.554
718.00,44.662
719.00,44.754
720.00,44.847
721.00,48.922
722.00,48.912
723.00,48.871
724.00,48.938
725.00,48.969
726.00,49.083
727.00,49.077
728.00,49.112
729.00,49.116
730.00,49.256
731.00,49.289
732.00,49.262
733.00,49.406
734.00,49.383
735.00,49.433
736.00,49.479
737.00,49.596
738.00,49.662
739.00,49.668
740.00,49.668
741.00,49.753
742.00,49.794
743.00,49.783
744.00,49.809
745.00,49.817
746.00,49.848
747.00,49.884
748.00,49.880
749.00,49.878
750.00,49.954
751.00,49.927
752.00,49.999
753.00,49.966
754.00,50.023
755.00,49.982
756.00,50.038
757.00,50.117
758.00,50.063
759.00,50.072
760.00,50.197
761.00,50.199
762.00,50.214
763.00,50.243
764.00,50.267
765.00,50.247
766.00,50.356
767.00,50.295
768.00,50.392
769.00,50.366
770.00,50.503
771.00,50.454
772.00,50.393
773.00,50.504
774.00,50.472
775.00,50.580
776.00,50.573
777.00,50.576
778.00,50.621
779.00,50.602
780.00,50.655
781.00,50.582
782.00,50.637
783.00,50.589
784.00,50.681
785.00,50.640
786.00,50.634
787.00,50.681
788.00,50.577
789.00,50.758
790.00,50.619
791.00,50.616
792.00,50.662
793.00,50.607
794.00,50.714
795.00,50.542
796.00,50.745
797.00,50.651
798.00,50.638
799.00,50.647
800.00,50.646
801.00,50.591
802.00,50.601
803.00,50.626
804.00,50.572
805.00,50.603
806.00,50.535
807.00,50.558
808.00,50.669
809.00,50.587
810.00,50.522
811.00,50.525
812.00,50.638
813.00,50.521
814.00,50.569
815.00,50.540
816.00,50.566
817.00,50.532
818.00,50.441
819.00,50.422
820.00,50.517
821.00,50.520
822.00,50.520
823.00,50.481
824.00,50.461
825.00,50.360
826.00,50.491
827.00,50.578
828.00,50.418
829.00,50.420
830.00,50.467
831.00,52.918
832.00,52.914
833.00,52.861
834.00,52.921
835.00,52.873
836.00,52.875
837.00,52.845
838.00,52.809
839.00,52.788
840.00,52.760
841.00,52.755
842.00,52.730
843.00,52.741
844.00,52.733
845.00,52.693
846.00,52.720
847.00,52.716
848.00,52.703
849.00,52.633
850.00,52.632
851.00,52.551
852.00,52.572
853.00,52.505
854.00,52.495
855.00,52.409
856.00,52.508
857.00,52.288
858.00,52.400
859.00,52.390
860.00,52.365
861.00,52.399
862.00,52.335
863.00,52.388
864.00,52.274
865.00,52.333
866.00,52.286
867.00,52.292
868.00,52.304
869.00,52.251
870.00,52.288
871.00,52.252
872.00,52.235
873.00,52.206
874.00,52.233
875.00,52.230
876.00,52.199
877.00,52.218
878.00,52.193
879.00,52.165
880.00,52.198
881.00,52.160
882.00,52.139
883.00,52.127
884.00,52.100
885.00,52.038
886.00,52.061
887.00,52.037
888.00,52.010
889.00,52.027
890.00,52.019
891.00,51.967
892.00,51.956
893.00,51.977
894.00,51.982
895.00,51.874
896.00,51.924
897.00,51.891
898.00,51.839
899.00,51.852
900.00,51.839
901.00,51.810
902.00,51.838
903.00,51.782
904.00,51.789
905.00,51.752
906.00,51.757
907.00,51.730
908.00,51.696
909.00,51.706
910.00,51.663
911.00,51.641
912.00,51.673
913.00,51.604
914.00,51.610
915.00,51.600
916.00,51.581
917.00,51.538
918.00,51.555
919.00,51.469
920.00,51.495
921.00,51.486
922.00,51.458
923.00,51.439
924.00,51.404
925.00,51.400
926.00,51.383
927.00,51.376
928.00,51.332
929.00,51.363
930.00,51.298
931.00,51.308
932.00,51.305
933.00,51.290
934.00,51.227
935.00,51.204
936.00,51.209
937.00,51.206
938.00,51.184
939.00,51.182
940.00,51.143
941.00,51.142
942.00,51.082
943.00,51.112
944.00,51.054
945.00,51.051
946.00,51.059
947.00,51.014
948.00,50.995
949.00,50.974
950.00,50.951
951.00,50.938
952.00,50.919
953.00,50.866
954.00,50.872
955.00,50.821
956.00,50.814
957.00,50.775
958.00,50.798
959.00,50.747
960.00,50.751
961.00,50.729
962.00,50.758
963.00,50.701
964.00,50.674
965.00,50.680
966.00,50.676
967.00,50.670
968.00,50.639
969.00,50.663
970.00,50.631
971.00,50.642
972.00,50.616
973.00,50.626
974.00,50.668
975.00,50.608
976.00,50.655
977.00,50.632
978.00,50.673
979.00,50.642
980.00,50.638
981.00,50.665
982.00,50.641
983.00,50.636
984.00,50.619
985.00,50.647
986.00,50.588
987.00,50.620
988.00,50.592
989.00,50.564
990.00,50.578
991.00,50.552
992.00,50.569
993.00,50.529
994.00,50.519
995.00,50.530
996.00,50.478
997.00,50.515
998.00,50.469
999.00,50.497
1000.00,50.442
1001.00,50.447
1002.00,50.430
1003.00,50.408
1004.00,50.426
1005.00,50.379
1006.00,50.411
1007.00,50.368
1008.00,50.357
1009.00,50.358
1010.00,50.330
1011.00,50.316
1012.00,50.281
1013.00,50.299
1014.00,50.257
1015.00,50.276
1016.00,50.225
1017.00,50.235
1018.00,50.218
1019.00,50.185
1020.00,50.195
1021.00,50.172
1022.00,50.163
1023.00,50.124
1024.00,50.130
1025.00,50.109
1026.00,50.101
1027.00,50.099
1028.00,50.075
1029.00,50.081
1030.00,50.034
1031.00,50.036
1032.00,49.997
1033.00,49.990
1034.00,49.967
1035.00,49.926
1036.00,49.912
1037.00,49.898
1038.00,49.870
1039.00,49.859
1040.00,49.850
1041.00,49.799
1042.00,49.805
1043.00,49.785
1044.00,49.800
1045.00,49.798
1046.00,49.772
1047.00,49.787
1048.00,49.797
1049.00,49.798
1050.00,49.812
1051.00,49.818
1052.00,49.821
1053.00,49.866
1054.00,49.847
1055.00,49.865
1056.00,49.877
1057.00,49.873
1058.00,49.867
1059.00,49.867
1060.00,49.866
1061.00,49.865
1062.00,49.851
1063.00,49.850
1064.00,49.850
1065.00,49.824
1066.00,49.814
1067.00,49.804
1068.00,49.823
1069.00,49.787
1070.00,49.784
1071.00,49.753
1072.00,49.773
1073.00,49.746
1074.00,49.748
1075.00,49.734
1076.00,49.721
1077.00,49.701
1078.00,49.701
1079.00,49.675
1080.00,49.682
1081.00,49.668
1082.00,49.649
1083.00,49.659
1084.00,49.641
1085.00,49.629
1086.00,49.636
1087.00,49.629
1088.00,49.610
1089.00,49.605
1090.00,49.594
1091.00,49.593
1092.00,49.586
1093.00,49.561
1094.00,49.548
1095.00,49.552
1096.00,49.545
1097.00,49.530
1098.00,49.527
1099.00,49.506
1100.00,49.507
1101.00,49.484
1102.00,49.479
1103.00,49.497
1104.00,49.452
1105.00,49.443
1106.00,49.441
1107.00,49.420
1108.00,49.424
1109.00,49.406
1110.00,49.403
1111.00,49.396
1112.00,49.383
1113.00,49.373
1114.00,49.391
1115.00,49.378
1116.00,49.386
1117.00,49.376
1118.00,49.374
1119.00,49.343
1120.00,49.336
1121.00,49.315
1122.00,49.316
1123.00,49.296
1124.00,49.297
1125.00,49.285
1126.00,49.271
1127.00,49.295
1128.00,49.282
1129.00,49.257
1130.00,49.254
1131.00,49.257
1132.00,49.230
1133.00,49.234
1134.00,49.225
1135.00,49.216
1136.00,49.206
1137.00,49.197
1138.00,49.207
1139.00,49.210
1140.00,49.187
1141.00,49.187
1142.00,49.186
1143.00,49.191
1144.00,49.170
1145.00,49.163
1146.00,49.165
1147.00,49.166
1148.00,49.138
1149.00,49.160
1150.00,49.150
1151.00,49.140
1152.00,49.131
1153.00,49.127
1154.00,49.111
1155.00,49.135
1156.00,49.102
1157.00,49.109
1158.00,49.109
1159.00,49.100
1160.00,49.107
1161.00,49.121
1162.00,49.097
1163.00,49.098
1164.00,49.099
1165.00,49.075
1166.00,49.087
1167.00,49.065
1168.00,49.078
1169.00,49.076
1170.00,49.077
1171.00,49.064
1172.00,49.079
1173.00,49.055
1174.00,49.072
1175.00,49.076
1176.00,49.067
1177.00,49.056
1178.00,49.036
1179.00,49.063
1180.00,49.051
1181.00,49.047
1182.00,49.048
1183.00,49.036
1184.00,49.016
1185.00,49.047
1186.00,49.034
1187.00,49.034
1188.00,49.032
1189.00,49.024
1190.00,49.034
1191.00,49.028
1192.00,49.029
1193.00,49.031
1194.00,49.051
1195.00,49.004
1196.00,49.026
1197.00,49.025
1198.00,49.006
1199.00,49.013
1200.00,48.997
1201.00,49.022
1202.00,48.997
1203.00,49.001
1204.00,48.998
1205.00,49.011
1206.00,48.991
1207.00,49.009
1208.00,48.994
1209.00,48.984
1210.00,49.011
1211.00,48.970
1212.00,49.000
1213.00,48.970
1214.00,48.982
1215.00,48.974
1216.00,48.974
1217.00,48.978
1218.00,48.972
1219.00,48.989
1220.00,48.963
1221.00,48.986
1222.00,48.966
1223.00,48.979
1224.00,48.988
1225.00,48.961
1226.00,48.981
1227.00,48.973
1228.00,48.980
1229.00,48.990
1230.00,49.030
1231.00,49.003
1232.00,49.029
1233.00,49.021
1234.00,49.024
1235.00,49.026
1236.00,49.011
1237.00,49.027
1238.00,49.023
1239.00,49.033
1240.00,49.017
1241.00,49.027
1242.00,49.022
1243.00,49.040
1244.00,49.011
1245.00,49.039
1246.00,49.045
1247.00,49.037
1248.00,49.042
1249.00,49.042
1250.00,49.050
1251.00,49.047
1252.00,49.065
1253.00,49.034
1254.00,49.050
1255.00,49.087
1256.00,49.041
1257.00,49.019
1258.00,49.059
1259.00,49.048
1260.00,49.075
1261.00,49.075
1262.00,49.067
1263.00,49.059
1264.00,49.064
1265.00,49.082
1266.00,49.081
1267.00,49.078
1268.00,49.098
1269.00,49.079
1270.00,49.089
1271.00,49.103
1272.00,49.111
1273.00,49.119
1274.00,49.115
1275.00,49.113
1276.00,49.120
1277.00,49.117
1278.00,49.125
1279.00,49.136
1280.00,49.139
1281.00,49.166
1282.00,49.159
1283.00,49.130
1284.00,49.154
1285.00,49.124
1286.00,49.135
1287.00,49.135
1288.00,49.137
1289.00,49.137
1290.00,49.164
1291.00,49.150
1292.00,49.183
1293.00,49.168
1294.00,49.177
1295.00,49.187
1296.00,49.181
1297.00,49.181
1298.00,49.215
1299.00,49.195
1300.00,49.205
1301.00,49.207
1302.00,49.208
1303.00,49.234
1304.00,49.224
1305.00,49.227
1306.00,49.233
1307.00,49.241
1308.00,49.241
1309.00,49.251
1310.00,49.248
1311.00,49.249
1312.00,49.251
1313.00,49.253
1314.00,49.269
1315.00,49.278
1316.00,49.256
1317.00,49.295
1318.00,49.282
1319.00,49.276
1320.00,49.314
1321.00,49.462
1322.00,49.488
1323.00,49.472
1324.00,49.481
1325.00,49.462
1326.00,49.492
1327.00,49.462
1328.00,49.470
1329.00,49.466
1330.00,49.470
1331.00,49.486
1332.00,49.461
1333.00,49.465
1334.00,49.511
1335.00,49.506
1336.00,49.550
1337.00,49.573
1338.00,49.623
1339.00,49.674
1340.00,49.721
1341.00,49.787
1342.00,49.869
1343.00,49.904
1344.00,49.932
1345.00,50.016
1346.00,50.053
1347.00,50.071
1348.00,50.105
1349.00,50.110
1350.00,50.140
1351.00,50.140
1352.00,50.141
1353.00,50.196
1354.00,50.164
1355.00,50.104
1356.00,50.187
1357.00,50.172
1358.00,50.198
1359.00,50.220
1360.00,50.251
1361.00,50.154
1362.00,50.149
1363.00,50.231
1364.00,50.216
1365.00,50.167
1366.00,50.219
1367.00,50.198
1368.00,50.156
1369.00,50.188
1370.00,50.133
1371.00,50.098
1372.00,50.165
1373.00,50.143
1374.00,50.165
1375.00,50.160
1376.00,50.148
1377.00,50.118
1378.00,50.230
1379.00,50.233
1380.00,50.185
1381.00,50.162
1382.00,50.023
1383.00,50.133
1384.00,50.037
1385.00,50.081
1386.00,50.181
1387.00,50.080
1388.00,50.062
1389.00,50.067
1390.00,50.193
1391.00,50.099
1392.00,50.112
1393.00,50.146
1394.00,50.115
1395.00,49.994
1396.00,50.042
1397.00,50.157
1398.00,50.156
1399.00,50.094
1400.00,50.060
1401.00,50.101
1402.00,50.170
1403.00,50.123
1404.00,50.133
1405.00,50.159
1406.00,50.143
1407.00,50.173
1408.00,50.172
1409.00,50.115
1410.00,50.178
1411.00,50.199
1412.00,50.221
1413.00,50.144
1414.00,50.179
1415.00,50.206
1416.00,50.245
1417.00,50.248
1418.00,50.227
1419.00,50.231
1420.00,50.252
1421.00,50.270
1422.00,50.301
1423.00,50.290
1424.00,50.294
1425.00,50.315
1426.00,50.319
1427.00,50.348
1428.00,50.347
1429.00,50.355
1430.00,50.387
1431.00,50.378
1432.00,50.397
1433.00,50.436
1434.00,50.407
1435.00,50.471
1436.00,50.481
1437.00,50.474
1438.00,50.490
1439.00,50.502
1440.00,50.509
1441.00,50.529
1442.00,50.535
1443.00,50.557
1444.00,50.593
1445.00,50.557
1446.00,50.589
1447.00,50.633
1448.00,50.635
1449.00,50.657
1450.00,50.637
1451.00,50.667
1452.00,50.684
1453.00,50.700
1454.00,50.695
1455.00,50.737
1456.00,50.750
1457.00,50.744
1458.00,50.770
1459.00,50.772
1460.00,50.792
1461.00,50.791
1462.00,50.814
1463.00,50.841
1464.00,50.842
1465.00,50.855
1466.00,50.872
1467.00,50.876
1468.00,50.926
1469.00,50.922
1470.00,50.919
1471.00,50.941
1472.00,50.943
1473.00,50.952
1474.00,50.995
1475.00,50.989
1476.00,51.006
1477.00,51.011
1478.00,51.011
1479.00,51.043
1480.00,51.044
1481.00,51.046
1482.00,51.098
1483.00,51.084
1484.00,51.091
1485.00,51.124
1486.00,51.111
1487.00,51.127
1488.00,51.159
1489.00,51.153
1490.00,51.160
1491.00,51.170
1492.00,51.178
1493.00,51.189
1494.00,51.189
1495.00,51.197
1496.00,51.222
1497.00,51.211
1498.00,51.210
1499.00,51.252
1500.00,51.260
1501.00, 
1502.00, 
1503.00, 
1504.00, 
1505.00, 
1506.00, 
1507.00, 
1508.00, 
1509.00, 
1510.00, 
1511.00, 
1512.00, 
1513.00, 
1514.00, 
1515.00, 
1516.00, 
1517.00, 
1518.00, 
1519.00, 
1520.00, 
1521.00, 
1522.00, 
1523.00, 
1524.00, 
1525.00, 
1526.00, 
1527.00, 
1528.00, 
1529.00, 
1530.00, 
1531.00, 
1532.00, 
1533.00, 
1534.00, 
1535.00, 
1536.00, 
1537.00, 
1538.00, 
1539.00, 
1540.00, 
1541.00, 
1542.00, 
1543.00, 
1544.00, 
1545.00, 
1546.00, 
1547.00, 
1548.00, 
1549.00, 
1550.00, 
1551.00, 
1552.00, 
1553.00, 
1554.00, 
1555.00, 
1556.00, 
1557.00, 
1558.00, 
1559.00, 
1560.00, 
1561.00, 
1562.00, 
1563.00, 
1564.00, 
1565.00, 
1566.00, 
1567.00, 
1568.00, 
1569.00, 
1570.00, 
1571.00, 
1572.00, 
1573.00, 
1574.00, 
1575.00, 
1576.00, 
1577.00, 
1578.00, 
1579.00, 
1580.00, 
1581.00, 
1582.00, 
1583.00, 
1584.00, 
1585.00, 
1586.00, 
1587.00, 
1588.00, 
1589.00, 
1590.00, 
1591.00, 
1592.00, 
1593.00, 
1594.00, 
1595.00, 
1596.00, 
1597.00, 
1598.00, 
1599.00, 
1600.00, 
1601.00, 
1602.00, 
1603.00, 
1604.00, 
1605.00, 
1606.00, 
1607.00, 
1608.00, 
1609.00, 
1610.00, 
1611.00, 
1612.00, 
1613.00, 
1614.00, 
1615.00, 
1616.00, 
1617.00, 
1618.00, 
1619.00, 
1620.00, 
1621.00, 
1622.00, 
1623.00, 
1624.00, 
1625.00, 
1626.00, 
1627.00, 
1628.00, 
1629.00, 
1630.00, 
1631.00, 
1632.00, 
1633.00, 
1634.00, 
1635.00, 
1636.00, 
1637.00, 
1638.00, 
1639.00, 
1640.00, 
1641.00, 
1642.00, 
1643.00, 
1644.00, 
1645.00, 
1646.00, 
1647.00, 
1648.00, 
1649.00, 
1650.00, 
1651.00, 
1652.00, 
1653.00, 
1654.00, 
1655.00, 
1656.00, 
1657.00, 
1658.00, 
1659.00, 
1660.00, 
1661.00, 
1662.00, 
1663.00, 
1664.00, 
1665.00, 
1666.00, 
1667.00, 
1668.00, 
1669.00, 
1670.00, 
1671.00, 
1672.00, 
1673.00, 
1674.00, 
1675.00, 
1676.00, 
1677.00, 
1678.00, 
1679.00, 
1680.00, 
1681.00, 
1682.00, 
1683.00, 
1684.00, 
1685.00, 
1686.00, 
1687.00, 
1688.00, 
1689.00, 
1690.00, 
1691.00, 
1692.00, 
1693.00, 
1694.00, 
1695.00, 
1696.00, 
1697.00, 
1698.00, 
1699.00, 
1700.00, 
1701.00, 
1702.00, 
1703.00, 
1704.00, 
1705.00, 
1706.00, 
1707.00, 
1708.00, 
1709.00, 
1710.00, 
1711.00, 
1712.00, 
1713.00, 
1714.00, 
1715.00, 
1716.00, 
1717.00, 
1718.00, 
1719.00, 
1720.00, 
1721.00, 
1722.00, 
1723.00, 
1724.00, 
1725.00, 
1726.00, 
1727.00, 
1728.00, 
1729.00, 
1730.00, 
1731.00, 
1732.00, 
1733.00, 
1734.00, 
1735.00, 
1736.00, 
1737.00, 
1738.00, 
1739.00, 
1740.00, 
1741.00, 
1742.00, 
1743.00, 
1744.00, 
1745.00, 
1746.00, 
1747.00, 
1748.00, 
1749.00, 
1750.00, 
1751.00, 
1752.00, 
1753.00, 
1754.00, 
1755.00, 
1756.00, 
1757.00, 
1758.00, 
1759.00, 
1760.00, 
1761.00, 
1762.00, 
1763.00, 
1764.00, 
1765.00, 
1766.00, 
1767.00, 
1768.00, 
1769.00, 
1770.00, 
1771.00, 
1772.00, 
1773.00, 
1774.00, 
1775.00, 
1776.00, 
1777.00, 
1778.00, 
1779.00, 
1780.00, 
1781.00, 
1782.00, 
1783.00, 
1784.00, 
1785.00, 
1786.00, 
1787.00, 
1788.00, 
1789.00, 
1790.00, 
1791.00, 
1792.00, 
1793.00, 
1794.00, 
1795.00, 
1796.00, 
1797.00, 
1798.00, 
1799.00, 
1800.00, 
1801.00, 
1802.00, 
1803.00, 
1804.00, 
1805.00, 
1806.00, 
1807.00, 
1808.00, 
1809.00, 
1810.00, 
1811.00, 
1812.00, 
1813.00, 
1814.00, 
1815.00, 
1816.00, 
1817.00, 
1818.00, 
1819.00, 
1820.00, 
1821.00, 
1822.00, 
1823.00, 
1824.00, 
1825.00, 
1826.00, 
1827.00, 
1828.00, 
1829.00, 
1830.00, 
1831.00, 
1832.00, 
1833.00, 
1834.00, 
1835.00, 
1836.00, 
1837.00, 
1838.00, 
1839.00, 
1840.00, 
1841.00, 
1842.00, 
1843.00, 
1844.00, 
1845.00, 
1846.00, 
1847.00, 
1848.00, 
1849.00, 
1850.00, 
1851.00, 
1852.00, 
1853.00, 
1854.00, 
1855.00, 
1856.00, 
1857.00, 
1858.00, 
1859.00, 
1860.00, 
1861.00, 
1862.00, 
1863.00, 
1864.00, 
1865.00, 
1866.00, 
1867.00, 
1868.00, 
1869.00, 
1870.00, 
1871.00, 
1872.00, 
1873.00, 
1874.00, 
1875.00, 
1876.00, 
1877.00, 
1878.00, 
1879.00, 
1880.00, 
1881.00, 
1882.00, 
1883.00, 
1884.00, 
1885.00, 
1886.00, 
1887.00, 
1888.00, 
1889.00, 
1890.00, 
1891.00, 
1892.00, 
1893.00, 
1894.00, 
1895.00, 
1896.00, 
1897.00, 
1898.00, 
1899.00, 
1900.00, 
1901.00, 
1902.00, 
1903.00, 
1904.00, 
1905.00, 
1906.00, 
1907.00, 
1908.00, 
1909.00, 
1910.00, 
1911.00, 
1912.00, 
1913.00, 
1914.00, 
1915.00, 
1916.00, 
1917.00, 
1918.00, 
1919.00, 
1920.00, 
1921.00, 
1922.00, 
1923.00, 
1924.00, 
1925.00, 
1926.00, 
1927.00, 
1928.00, 
1929.00, 
1930.00, 
1931.00, 
1932.00, 
1933.00, 
1934.00, 
1935.00, 
1936.00, 
1937.00, 
1938.00, 
1939.00, 
1940.00, 
1941.00, 
1942.00, 
1943.00, 
1944.00, 
1945.00, 
1946.00, 
1947.00, 
1948.00, 
1949.00, 
1950.00, 
1951.00, 
1952.00, 
1953.00, 
1954.00, 
1955.00, 
1956.00, 
1957.00, 
1958.00, 
1959.00, 
1960.00, 
1961.00, 
1962.00, 
1963.00, 
1964.00, 
1965.00, 
1966.00, 
1967.00, 
1968.00, 
1969.00, 
1970.00, 
1971.00, 
1972.00, 
1973.00, 
1974.00, 
1975.00, 
1976.00, 
1977.00, 
1978.00, 
1979.00, 
1980.00, 
1981.00, 
1982.00, 
1983.00, 
1984.00, 
1985.00, 
1986.00, 
1987.00, 
1988.00, 
1989.00, 
1990.00, 
1991.00, 
1992.00, 
1993.00, 
1994.00, 
1995.00, 
1996.00, 
1997.00, 
1998.00, 
1999.00, 
2000.00, 
2001.00, 
2002.00, 
2003.00, 
2004.00, 
2005.00, 
2006.00, 
2007.00, 
2008.00, 
2009.00, 
2010.00, 
2011.00, 
2012.00, 
2013.00, 
2014.00, 
2015.00, 
2016.00, 
2017.00, 
2018.00, 
2019.00, 
2020.00, 
2021.00, 
2022.00, 
2023.00, 
2024.00, 
2025.00, 
2026.00, 
2027.00, 
2028.00, 
2029.00, 
2030.00, 
2031.00, 
2032.00, 
2033.00, 
2034.00, 
2035.00, 
2036.00, 
2037.00, 
2038.00, 
2039.00, 
2040.00, 
2041.00, 
2042.00, 
2043.00, 
2044.00, 
2045.00, 
2046.00, 
2047.00, 
2048.00, 
2049.00, 
2050.00, 
2051.00, 
2052.00, 
2053.00, 
2054.00, 
2055.00, 
2056.00, 
2057.00, 
2058.00, 
2059.00, 
2060.00, 
2061.00, 
2062.00, 
2063.00, 
2064.00, 
2065.00, 
2066.00, 
2067.00, 
2068.00, 
2069.00, 
2070.00, 
2071.00, 
2072.00, 
2073.00, 
2074.00, 
2075.00, 
2076.00, 
2077.00, 
2078.00, 
2079.00, 
2080.00, 
2081.00, 
2082.00, 
2083.00, 
2084.00, 
2085.00, 
2086.00, 
2087.00, 
2088.00, 
2089.00, 
2090.00, 
2091.00, 
2092.00, 
2093.00, 
2094.00, 
2095.00, 
2096.00, 
2097.00, 
2098.00, 
2099.00, 
2100.00, 
2101.00, 
2102.00, 
2103.00, 
2104.00, 
2105.00, 
2106.00, 
2107.00, 
2108.00, 
2109.00, 
2110.00, 
2111.00, 
2112.00, 
2113.00, 
2114.00, 
2115.00, 
2116.00, 
2117.00, 
2118.00, 
2119.00, 
2120.00, 
2121.00, 
2122.00, 
2123.00, 
2124.00, 
2125.00, 
2126.00, 
2127.00, 
2128.00, 
2129.00, 
2130.00, 
2131.00, 
2132.00, 
2133.00, 
2134.00, 
2135.00, 
2136.00, 
2137.00, 
2138.00, 
2139.00, 
2140.00, 
2141.00, 
2142.00, 
2143.00, 
2144.00, 
2145.00, 
2146.00, 
2147.00, 
2148.00, 
2149.00, 
2150.00, 
2151.00, 
2152.00, 
2153.00, 
2154.00, 
2155.00, 
2156.00, 
2157.00, 
2158.00, 
2159.00, 
2160.00, 
2161.00, 
2162.00, 
2163.00, 
2164.00, 
2165.00, 
2166.00, 
2167.00, 
2168.00, 
2169.00, 
2170.00, 
2171.00, 
2172.00, 
2173.00, 
2174.00, 
2175.00, 
2176.00, 
2177.00, 
2178.00, 
2179.00, 
2180.00, 
2181.00, 
2182.00, 
2183.00, 
2184.00, 
2185.00, 
2186.00, 
2187.00, 
2188.00, 
2189.00, 
2190.00, 
2191.00, 
2192.00, 
2193.00, 
2194.00, 
2195.00, 
2196.00, 
2197.00, 
2198.00, 
2199.00, 
2200.00, 
2201.00, 
2202.00, 
2203.00, 
2204.00, 
2205.00, 
2206.00, 
2207.00, 
2208.00, 
2209.00, 
2210.00, 
2211.00, 
2212.00, 
2213.00, 
2214.00, 
2215.00, 
2216.00, 
2217.00, 
2218.00, 
2219.00, 
2220.00, 
2221.00, 
2222.00, 
2223.00, 
2224.00, 
2225.00, 
2226.00, 
2227.00, 
2228.00, 
2229.00, 
2230.00, 
2231.00, 
2232.00, 
2233.00, 
2234.00, 
2235.00, 
2236.00, 
2237.00, 
2238.00, 
2239.00, 
2240.00, 
2241.00, 
2242.00, 
2243.00, 
2244.00, 
2245.00, 
2246.00, 
2247.00, 
2248.00, 
2249.00, 
2250.00, 
2251.00, 
2252.00, 
2253.00, 
2254.00, 
2255.00, 
2256.00, 
2257.00, 
2258.00, 
2259.00, 
2260.00, 
2261.00, 
2262.00, 
2263.00, 
2264.00, 
2265.00, 
2266.00, 
2267.00, 
2268.00, 
2269.00, 
2270.00, 
2271.00, 
2272.00, 
2273.00, 
2274.00, 
2275.00, 
2276.00, 
2277.00, 
2278.00, 
2279.00, 
2280.00, 
2281.00, 
2282.00, 
2283.00, 
2284.00, 
2285.00, 
2286.00, 
2287.00, 
2288.00, 
2289.00, 
2290.00, 
2291.00, 
2292.00, 
2293.00, 
2294.00, 
2295.00, 
2296.00, 
2297.00, 
2298.00, 
2299.00, 
2300.00, 
2301.00, 
2302.00, 
2303.00, 
2304.00, 
2305.00, 
2306.00, 
2307.00, 
2308.00, 
2309.00, 
2310.00, 
2311.00, 
2312.00, 
2313.00, 
2314.00, 
2315.00, 
2316.00, 
2317.00, 
2318.00, 
2319.00, 
2320.00, 
2321.00, 
2322.00, 
2323.00, 
2324.00, 
2325.00, 
2326.00, 
2327.00, 
2328.00, 
2329.00, 
2330.00, 
2331.00, 
2332.00, 
2333.00, 
2334.00, 
2335.00, 
2336.00, 
2337.00, 
2338.00, 
2339.00, 
2340.00, 
2341.00, 
2342.00, 
2343.00, 
2344.00, 
2345.00, 
2346.00, 
2347.00, 
2348.00, 
2349.00, 
2350.00, 
2351.00, 
2352.00, 
2353.00, 
2354.00, 
2355.00, 
2356.00, 
2357.00, 
2358.00, 
2359.00, 
2360.00, 
2361.00, 
2362.00, 
2363.00, 
2364.00, 
2365.00, 
2366.00, 
2367.00, 
2368.00, 
2369.00, 
2370.00, 
2371.00, 
2372.00, 
2373.00, 
2374.00, 
2375.00, 
2376.00, 
2377.00, 
2378.00, 
2379.00, 
2380.00, 
2381.00, 
2382.00, 
2383.00, 
2384.00, 
2385.00, 
2386.00, 
2387.00, 
2388.00, 
2389.00, 
2390.00, 
2391.00, 
2392.00, 
2393.00, 
2394.00, 
2395.00, 
2396.00, 
2397.00, 
2398.00, 
2399.00, 
2400.00, 
2401.00, 
2402.00, 
2403.00, 
2404.00, 
2405.00, 
2406.00, 
2407.00, 
2408.00, 
2409.00, 
2410.00, 
2411.00, 
2412.00, 
2413.00, 
2414.00, 
2415.00, 
2416.00, 
2417.00, 
2418.00, 
2419.00, 
2420.00, 
2421.00, 
2422.00, 
2423.00, 
2424.00, 
2425.00, 
2426.00, 
2427.00, 
2428.00, 
2429.00, 
2430.00, 
2431.00, 
2432.00, 
2433.00, 
2434.00, 
2435.00, 
2436.00, 
2437.00, 
2438.00, 
2439.00, 
2440.00, 
2441.00, 
2442.00, 
2443.00, 
2444.00, 
2445.00, 
2446.00, 
2447.00, 
2448.00, 
2449.00, 
2450.00, 
2451.00, 
2452.00, 
2453.00, 
2454.00, 
2455.00, 
2456.00, 
2457.00, 
2458.00, 
2459.00, 
2460.00, 
2461.00, 
2462.00, 
2463.00, 
2464.00, 
2465.00, 
2466.00, 
2467.00, 
2468.00, 
2469.00, 
2470.00, 
2471.00, 
2472.00, 
2473.00, 
2474.00, 
2475.00, 
2476.00, 
2477.00, 
2478.00, 
2479.00, 
2480.00, 
2481.00, 
2482.00, 
2483.00, 
2484.00, 
2485.00, 
2486.00, 
2487.00, 
2488.00, 
2489.00, 
2490.00, 
2491.00, 
2492.00, 
2493.00, 
2494.00, 
2495.00, 
2496.00, 
2497.00, 
2498.00, 
2499.00, 
2500.00, 
2501.00, 
2502.00, 
2503.00, 
2504.00, 
2505.00, 
2506.00, 
2507.00, 
2508.00, 
2509.00, 
2510.00, 
2511.00, 
2512.00, 
2513.00, 
2514.00, 
2515.00, 
2516.00, 
2517.00, 
2518.00, 
2519.00, 
2520.00, 
2521.00, 
2522.00, 
2523.00, 
2524.00, 
2525.00, 
2526.00, 
2527.00, 
2528.00, 
2529.00, 
2530.00, 
2531.00, 
2532.00, 
2533.00, 
2534.00, 
2535.00, 
2536.00, 
2537.00, 
2538.00, 
2539.00, 
2540.00, 
2541.00, 
2542.00, 
2543.00, 
2544.00, 
2545.00, 
2546.00, 
2547.00, 
2548.00, 
2549.00, 
2550.00, 
2551.00, 
2552.00, 
2553.00, 
2554.00, 
2555.00, 
2556.00, 
2557.00, 
2558.00, 
2559.00, 
2560.00, 
2561.00, 
2562.00, 
2563.00, 
2564.00, 
2565.00, 
2566.00, 
2567.00, 
2568.00, 
2569.00, 
2570.00, 
2571.00, 
2572.00, 
2573.00, 
2574.00, 
2575.00, 
2576.00, 
2577.00, 
2578.00, 
2579.00, 
2580.00, 
2581.00, 
2582.00, 
2583.00, 
2584.00, 
2585.00, 
2586.00, 
2587.00, 
2588.00, 
2589.00, 
2590.00, 
2591.00, 
2592.00, 
2593.00, 
2594.00, 
2595.00, 
2596.00, 
2597.00, 
2598.00, 
2599.00, 
2600.00, 
