"2cP3 - RawData"
"Wavelength nm.","T%"
200.00,0.002
201.00,0.002
202.00,0.000
203.00,0.000
204.00,0.001
205.00,0.002
206.00,0.002
207.00,0.004
208.00,0.002
209.00,-0.002
210.00,0.002
211.00,0.001
212.00,0.001
213.00,-0.000
214.00,0.001
215.00,0.002
216.00,0.007
217.00,0.001
218.00,-0.002
219.00,0.002
220.00,0.001
221.00,-0.002
222.00,0.001
223.00,0.001
224.00,0.001
225.00,0.001
226.00,0.000
227.00,0.001
228.00,0.000
229.00,0.004
230.00,-0.001
231.00,-0.001
232.00,0.002
233.00,0.002
234.00,0.003
235.00,-0.000
236.00,-0.001
237.00,-0.000
238.00,-0.000
239.00,-0.001
240.00,-0.001
241.00,0.001
242.00,0.000
243.00,-0.000
244.00,0.001
245.00,0.001
246.00,-0.001
247.00,0.001
248.00,0.000
249.00,0.001
250.00,0.000
251.00,0.001
252.00,0.001
253.00,0.000
254.00,-0.001
255.00,-0.001
256.00,0.000
257.00,0.002
258.00,-0.000
259.00,0.002
260.00,0.001
261.00,0.002
262.00,0.000
263.00,0.003
264.00,0.000
265.00,-0.002
266.00,-0.001
267.00,0.000
268.00,-0.001
269.00,0.001
270.00,0.001
271.00,0.001
272.00,-0.001
273.00,-0.000
274.00,-0.000
275.00,-0.001
276.00,0.002
277.00,-0.000
278.00,0.004
279.00,0.001
280.00,0.000
281.00,0.000
282.00,0.001
283.00,0.002
284.00,0.000
285.00,-0.001
286.00,0.000
287.00,0.001
288.00,0.000
289.00,0.002
290.00,0.001
291.00,-0.003
292.00,0.001
293.00,0.000
294.00,-0.000
295.00,-0.000
296.00,-0.000
297.00,0.001
298.00,0.002
299.00,0.000
300.00,0.001
301.00,0.003
302.00,0.006
303.00,0.006
304.00,0.011
305.00,0.015
306.00,0.027
307.00,0.039
308.00,0.061
309.00,0.097
310.00,0.136
311.00,0.178
312.00,0.242
313.00,0.333
314.00,0.439
315.00,0.574
316.00,0.741
317.00,0.909
318.00,1.148
319.00,1.399
320.00,1.699
321.00,2.039
322.00,2.413
323.00,2.848
324.00,3.296
325.00,3.771
326.00,4.252
327.00,4.807
328.00,5.332
329.00,5.946
330.00,6.558
331.00,7.168
332.00,7.782
333.00,8.430
334.00,9.063
335.00,9.712
336.00,10.340
337.00,10.978
338.00,11.605
339.00,12.206
340.00,12.807
341.00,13.372
342.00,13.856
343.00,14.462
344.00,14.945
345.00,15.427
346.00,15.855
347.00,16.324
348.00,16.724
349.00,17.105
350.00,17.431
351.00,17.805
352.00,18.167
353.00,18.449
354.00,18.755
355.00,18.985
356.00,19.237
357.00,19.551
358.00,19.725
359.00,19.947
360.00,20.060
361.00,20.215
362.00,20.378
363.00,20.581
364.00,20.690
365.00,20.795
366.00,20.865
367.00,21.015
368.00,21.044
369.00,21.116
370.00,21.161
371.00,21.201
372.00,21.213
373.00,21.197
374.00,21.185
375.00,21.162
376.00,21.143
377.00,21.114
378.00,21.080
379.00,21.010
380.00,21.015
381.00,21.001
382.00,20.994
383.00,20.995
384.00,21.053
385.00,21.052
386.00,21.098
387.00,21.144
388.00,21.245
389.00,21.171
390.00,21.192
391.00,21.208
392.00,21.223
393.00,21.234
394.00,21.277
395.00,21.265
396.00,21.264
397.00,21.258
398.00,21.303
399.00,21.297
400.00,21.275
401.00,21.270
402.00,21.277
403.00,21.239
404.00,21.239
405.00,21.248
406.00,21.250
407.00,21.187
408.00,21.182
409.00,21.141
410.00,21.116
411.00,21.089
412.00,21.099
413.00,21.079
414.00,21.074
415.00,21.106
416.00,21.109
417.00,21.082
418.00,21.170
419.00,21.169
420.00,21.185
421.00,21.235
422.00,21.272
423.00,21.275
424.00,21.292
425.00,21.332
426.00,21.363
427.00,21.411
428.00,21.425
429.00,21.482
430.00,21.516
431.00,21.580
432.00,21.586
433.00,21.682
434.00,21.715
435.00,21.764
436.00,21.809
437.00,21.850
438.00,21.883
439.00,21.986
440.00,22.063
441.00,22.155
442.00,22.227
443.00,22.296
444.00,22.379
445.00,22.438
446.00,22.529
447.00,22.656
448.00,22.710
449.00,22.802
450.00,22.931
451.00,22.979
452.00,23.085
453.00,23.190
454.00,23.276
455.00,23.416
456.00,23.496
457.00,23.637
458.00,23.694
459.00,23.783
460.00,23.932
461.00,24.028
462.00,24.150
463.00,24.239
464.00,24.386
465.00,24.493
466.00,24.586
467.00,24.759
468.00,24.844
469.00,24.896
470.00,25.040
471.00,25.162
472.00,25.276
473.00,25.359
474.00,25.488
475.00,25.609
476.00,25.698
477.00,25.831
478.00,25.962
479.00,26.107
480.00,26.251
481.00,26.378
482.00,26.503
483.00,26.653
484.00,26.805
485.00,26.969
486.00,27.112
487.00,27.216
488.00,27.368
489.00,27.537
490.00,27.689
491.00,27.797
492.00,27.989
493.00,28.086
494.00,28.138
495.00,28.265
496.00,28.371
497.00,28.504
498.00,28.681
499.00,28.794
500.00,28.928
501.00,29.061
502.00,29.184
503.00,29.367
504.00,29.415
505.00,29.565
506.00,29.672
507.00,29.814
508.00,29.918
509.00,30.076
510.00,30.164
511.00,30.269
512.00,30.424
513.00,30.545
514.00,30.687
515.00,30.786
516.00,30.891
517.00,31.018
518.00,31.149
519.00,31.235
520.00,31.333
521.00,31.399
522.00,31.495
523.00,31.597
524.00,31.679
525.00,31.771
526.00,31.926
527.00,32.013
528.00,32.079
529.00,32.235
530.00,32.311
531.00,32.463
532.00,32.551
533.00,32.655
534.00,32.770
535.00,32.897
536.00,32.971
537.00,33.016
538.00,33.164
539.00,33.198
540.00,33.299
541.00,33.370
542.00,33.411
543.00,33.496
544.00,33.614
545.00,33.686
546.00,33.706
547.00,33.852
548.00,33.917
549.00,33.977
550.00,34.104
551.00,34.177
552.00,34.289
553.00,34.335
554.00,34.424
555.00,34.501
556.00,34.537
557.00,34.596
558.00,34.645
559.00,34.724
560.00,34.832
561.00,34.898
562.00,34.972
563.00,34.958
564.00,35.075
565.00,35.101
566.00,35.096
567.00,35.179
568.00,35.221
569.00,35.160
570.00,35.305
571.00,35.404
572.00,35.449
573.00,35.492
574.00,35.563
575.00,35.612
576.00,35.606
577.00,35.673
578.00,35.783
579.00,35.826
580.00,35.932
581.00,36.013
582.00,36.101
583.00,36.196
584.00,36.300
585.00,36.287
586.00,36.347
587.00,36.463
588.00,36.467
589.00,36.519
590.00,36.605
591.00,36.585
592.00,36.624
593.00,36.631
594.00,36.681
595.00,36.800
596.00,36.827
597.00,36.824
598.00,36.911
599.00,36.921
600.00,37.082
601.00,37.203
602.00,37.197
603.00,37.303
604.00,37.335
605.00,37.431
606.00,37.479
607.00,37.503
608.00,37.589
609.00,37.566
610.00,37.577
611.00,37.647
612.00,37.739
613.00,37.758
614.00,37.806
615.00,37.924
616.00,37.995
617.00,38.027
618.00,38.112
619.00,38.250
620.00,38.247
621.00,38.217
622.00,38.301
623.00,38.328
624.00,38.434
625.00,38.463
626.00,38.553
627.00,38.634
628.00,38.652
629.00,38.772
630.00,38.801
631.00,38.892
632.00,38.871
633.00,39.055
634.00,39.079
635.00,39.160
636.00,39.268
637.00,39.423
638.00,39.445
639.00,39.478
640.00,39.578
641.00,39.582
642.00,39.623
643.00,39.717
644.00,39.806
645.00,39.915
646.00,39.939
647.00,40.073
648.00,40.144
649.00,40.169
650.00,40.287
651.00,40.386
652.00,40.404
653.00,40.418
654.00,40.552
655.00,40.419
656.00,40.794
657.00,40.884
658.00,40.959
659.00,41.073
660.00,41.151
661.00,41.254
662.00,41.388
663.00,41.429
664.00,41.615
665.00,41.667
666.00,41.660
667.00,41.737
668.00,41.946
669.00,42.138
670.00,42.154
671.00,42.222
672.00,42.184
673.00,42.368
674.00,42.543
675.00,42.544
676.00,42.708
677.00,42.751
678.00,42.684
679.00,42.873
680.00,42.961
681.00,42.913
682.00,43.124
683.00,43.211
684.00,43.309
685.00,43.365
686.00,43.380
687.00,43.520
688.00,43.674
689.00,43.697
690.00,43.879
691.00,43.947
692.00,43.955
693.00,44.128
694.00,44.092
695.00,44.260
696.00,44.300
697.00,44.377
698.00,44.545
699.00,44.770
700.00,44.821
701.00,44.875
702.00,44.874
703.00,45.042
704.00,45.104
705.00,45.180
706.00,45.254
707.00,45.256
708.00,45.297
709.00,45.553
710.00,45.525
711.00,45.502
712.00,45.637
713.00,45.759
714.00,45.800
715.00,45.892
716.00,45.953
717.00,45.948
718.00,46.022
719.00,46.128
720.00,46.262
721.00,50.296
722.00,50.269
723.00,50.278
724.00,50.318
725.00,50.390
726.00,50.393
727.00,50.390
728.00,50.456
729.00,50.451
730.00,50.546
731.00,50.604
732.00,50.516
733.00,50.555
734.00,50.618
735.00,50.660
736.00,50.675
737.00,50.701
738.00,50.764
739.00,50.842
740.00,50.817
741.00,50.960
742.00,50.893
743.00,50.927
744.00,50.889
745.00,50.988
746.00,50.938
747.00,50.951
748.00,50.942
749.00,50.872
750.00,50.967
751.00,50.976
752.00,50.995
753.00,50.940
754.00,50.959
755.00,50.964
756.00,50.995
757.00,51.027
758.00,51.055
759.00,51.029
760.00,50.989
761.00,51.092
762.00,51.152
763.00,51.111
764.00,51.127
765.00,51.102
766.00,51.092
767.00,51.141
768.00,51.182
769.00,51.204
770.00,51.264
771.00,51.223
772.00,51.236
773.00,51.287
774.00,51.329
775.00,51.365
776.00,51.391
777.00,51.352
778.00,51.290
779.00,51.324
780.00,51.414
781.00,51.373
782.00,51.329
783.00,51.292
784.00,51.404
785.00,51.266
786.00,51.337
787.00,51.354
788.00,51.294
789.00,51.399
790.00,51.287
791.00,51.252
792.00,51.325
793.00,51.259
794.00,51.301
795.00,51.278
796.00,51.273
797.00,51.217
798.00,51.238
799.00,51.219
800.00,51.216
801.00,51.243
802.00,51.174
803.00,51.245
804.00,51.159
805.00,51.187
806.00,51.112
807.00,51.146
808.00,51.177
809.00,51.154
810.00,51.066
811.00,51.048
812.00,51.088
813.00,51.040
814.00,51.097
815.00,51.047
816.00,51.075
817.00,51.015
818.00,51.004
819.00,51.027
820.00,51.032
821.00,50.985
822.00,50.976
823.00,50.955
824.00,50.934
825.00,50.923
826.00,50.888
827.00,51.032
828.00,50.855
829.00,50.893
830.00,50.954
831.00,53.445
832.00,53.415
833.00,53.392
834.00,53.403
835.00,53.360
836.00,53.365
837.00,53.338
838.00,53.309
839.00,53.332
840.00,53.281
841.00,53.252
842.00,53.250
843.00,53.250
844.00,53.253
845.00,53.158
846.00,53.310
847.00,53.199
848.00,53.189
849.00,53.134
850.00,53.107
851.00,53.024
852.00,53.066
853.00,52.994
854.00,52.981
855.00,52.902
856.00,52.942
857.00,52.911
858.00,52.832
859.00,52.827
860.00,52.814
861.00,52.845
862.00,52.766
863.00,52.807
864.00,52.767
865.00,52.781
866.00,52.766
867.00,52.786
868.00,52.723
869.00,52.649
870.00,52.918
871.00,52.709
872.00,52.701
873.00,52.656
874.00,52.653
875.00,52.656
876.00,52.649
877.00,52.624
878.00,52.621
879.00,52.607
880.00,52.639
881.00,52.558
882.00,52.660
883.00,52.575
884.00,52.551
885.00,52.498
886.00,52.495
887.00,52.483
888.00,52.446
889.00,52.433
890.00,52.440
891.00,52.387
892.00,52.396
893.00,52.374
894.00,52.349
895.00,52.325
896.00,52.298
897.00,52.307
898.00,52.255
899.00,52.267
900.00,52.260
901.00,52.240
902.00,52.260
903.00,52.211
904.00,52.196
905.00,52.187
906.00,52.179
907.00,52.125
908.00,52.109
909.00,52.124
910.00,52.034
911.00,52.101
912.00,52.081
913.00,52.013
914.00,52.011
915.00,51.996
916.00,52.006
917.00,51.924
918.00,51.932
919.00,51.917
920.00,51.876
921.00,51.883
922.00,51.851
923.00,51.820
924.00,51.797
925.00,51.794
926.00,51.767
927.00,51.759
928.00,51.713
929.00,51.746
930.00,51.687
931.00,51.687
932.00,51.678
933.00,51.677
934.00,51.662
935.00,51.637
936.00,51.608
937.00,51.599
938.00,51.558
939.00,51.559
940.00,51.507
941.00,51.525
942.00,51.467
943.00,51.475
944.00,51.442
945.00,51.416
946.00,51.399
947.00,51.341
948.00,51.373
949.00,51.353
950.00,51.347
951.00,51.309
952.00,51.301
953.00,51.337
954.00,51.256
955.00,51.205
956.00,51.195
957.00,51.155
958.00,51.186
959.00,51.114
960.00,51.117
961.00,51.091
962.00,51.110
963.00,51.070
964.00,51.047
965.00,51.055
966.00,51.044
967.00,51.042
968.00,51.030
969.00,51.042
970.00,51.009
971.00,51.013
972.00,50.990
973.00,50.998
974.00,51.056
975.00,50.989
976.00,51.028
977.00,51.012
978.00,51.050
979.00,51.016
980.00,50.998
981.00,51.035
982.00,50.988
983.00,51.000
984.00,50.970
985.00,51.006
986.00,50.948
987.00,50.970
988.00,50.949
989.00,50.924
990.00,50.931
991.00,50.913
992.00,50.923
993.00,50.897
994.00,50.873
995.00,50.889
996.00,50.869
997.00,50.857
998.00,50.806
999.00,50.875
1000.00,50.798
1001.00,50.793
1002.00,50.793
1003.00,50.769
1004.00,50.771
1005.00,50.726
1006.00,50.753
1007.00,50.715
1008.00,50.691
1009.00,50.704
1010.00,50.675
1011.00,50.660
1012.00,50.625
1013.00,50.668
1014.00,50.662
1015.00,50.631
1016.00,50.573
1017.00,50.574
1018.00,50.579
1019.00,50.532
1020.00,50.547
1021.00,50.522
1022.00,50.514
1023.00,50.477
1024.00,50.487
1025.00,50.457
1026.00,50.458
1027.00,50.419
1028.00,50.403
1029.00,50.438
1030.00,50.365
1031.00,50.383
1032.00,50.344
1033.00,50.338
1034.00,50.315
1035.00,50.271
1036.00,50.258
1037.00,50.236
1038.00,50.221
1039.00,50.187
1040.00,50.189
1041.00,50.123
1042.00,50.138
1043.00,50.106
1044.00,50.129
1045.00,50.126
1046.00,50.102
1047.00,50.133
1048.00,50.143
1049.00,50.147
1050.00,50.143
1051.00,50.171
1052.00,50.162
1053.00,50.196
1054.00,50.189
1055.00,50.192
1056.00,50.207
1057.00,50.197
1058.00,50.198
1059.00,50.193
1060.00,50.233
1061.00,50.197
1062.00,50.186
1063.00,50.189
1064.00,50.190
1065.00,50.167
1066.00,50.150
1067.00,50.142
1068.00,50.163
1069.00,50.107
1070.00,50.110
1071.00,50.089
1072.00,50.105
1073.00,50.091
1074.00,50.093
1075.00,50.100
1076.00,50.065
1077.00,50.035
1078.00,50.035
1079.00,50.015
1080.00,50.017
1081.00,50.017
1082.00,50.000
1083.00,49.998
1084.00,49.988
1085.00,49.971
1086.00,49.981
1087.00,49.984
1088.00,49.981
1089.00,49.984
1090.00,49.939
1091.00,49.945
1092.00,49.937
1093.00,49.903
1094.00,49.896
1095.00,49.889
1096.00,49.869
1097.00,49.864
1098.00,49.861
1099.00,49.839
1100.00,49.833
1101.00,49.823
1102.00,49.806
1103.00,49.817
1104.00,49.787
1105.00,49.786
1106.00,49.774
1107.00,49.752
1108.00,49.761
1109.00,49.743
1110.00,49.741
1111.00,49.742
1112.00,49.725
1113.00,49.717
1114.00,49.717
1115.00,49.718
1116.00,49.703
1117.00,49.688
1118.00,49.683
1119.00,49.693
1120.00,49.700
1121.00,49.687
1122.00,49.667
1123.00,49.649
1124.00,49.645
1125.00,49.649
1126.00,49.637
1127.00,49.645
1128.00,49.628
1129.00,49.600
1130.00,49.582
1131.00,49.587
1132.00,49.565
1133.00,49.570
1134.00,49.559
1135.00,49.538
1136.00,49.589
1137.00,49.548
1138.00,49.550
1139.00,49.566
1140.00,49.526
1141.00,49.530
1142.00,49.527
1143.00,49.538
1144.00,49.507
1145.00,49.510
1146.00,49.512
1147.00,49.518
1148.00,49.494
1149.00,49.504
1150.00,49.497
1151.00,49.487
1152.00,49.472
1153.00,49.477
1154.00,49.456
1155.00,49.469
1156.00,49.439
1157.00,49.458
1158.00,49.452
1159.00,49.445
1160.00,49.447
1161.00,49.473
1162.00,49.445
1163.00,49.456
1164.00,49.452
1165.00,49.434
1166.00,49.453
1167.00,49.423
1168.00,49.437
1169.00,49.426
1170.00,49.421
1171.00,49.420
1172.00,49.426
1173.00,49.394
1174.00,49.410
1175.00,49.418
1176.00,49.405
1177.00,49.403
1178.00,49.387
1179.00,49.406
1180.00,49.389
1181.00,49.404
1182.00,49.395
1183.00,49.398
1184.00,49.360
1185.00,49.404
1186.00,49.388
1187.00,49.373
1188.00,49.380
1189.00,49.364
1190.00,49.382
1191.00,49.375
1192.00,49.384
1193.00,49.363
1194.00,49.380
1195.00,49.345
1196.00,49.372
1197.00,49.375
1198.00,49.348
1199.00,49.363
1200.00,49.342
1201.00,49.368
1202.00,49.336
1203.00,49.331
1204.00,49.335
1205.00,49.362
1206.00,49.340
1207.00,49.345
1208.00,49.332
1209.00,49.327
1210.00,49.348
1211.00,49.327
1212.00,49.345
1213.00,49.312
1214.00,49.321
1215.00,49.321
1216.00,49.322
1217.00,49.328
1218.00,49.324
1219.00,49.348
1220.00,49.320
1221.00,49.346
1222.00,49.322
1223.00,49.344
1224.00,49.348
1225.00,49.339
1226.00,49.342
1227.00,49.347
1228.00,49.351
1229.00,49.332
1230.00,49.372
1231.00,49.347
1232.00,49.372
1233.00,49.366
1234.00,49.371
1235.00,49.379
1236.00,49.366
1237.00,49.375
1238.00,49.376
1239.00,49.378
1240.00,49.366
1241.00,49.387
1242.00,49.368
1243.00,49.381
1244.00,49.367
1245.00,49.382
1246.00,49.410
1247.00,49.390
1248.00,49.395
1249.00,49.418
1250.00,49.395
1251.00,49.400
1252.00,49.419
1253.00,49.390
1254.00,49.400
1255.00,49.430
1256.00,49.393
1257.00,49.373
1258.00,49.406
1259.00,49.399
1260.00,49.456
1261.00,49.446
1262.00,49.423
1263.00,49.418
1264.00,49.420
1265.00,49.443
1266.00,49.431
1267.00,49.435
1268.00,49.459
1269.00,49.440
1270.00,49.450
1271.00,49.468
1272.00,49.465
1273.00,49.471
1274.00,49.468
1275.00,49.458
1276.00,49.472
1277.00,49.466
1278.00,49.468
1279.00,49.490
1280.00,49.477
1281.00,49.491
1282.00,49.504
1283.00,49.467
1284.00,49.502
1285.00,49.487
1286.00,49.497
1287.00,49.492
1288.00,49.495
1289.00,49.486
1290.00,49.535
1291.00,49.510
1292.00,49.519
1293.00,49.519
1294.00,49.530
1295.00,49.535
1296.00,49.540
1297.00,49.537
1298.00,49.579
1299.00,49.553
1300.00,49.571
1301.00,49.567
1302.00,49.575
1303.00,49.593
1304.00,49.571
1305.00,49.591
1306.00,49.583
1307.00,49.595
1308.00,49.588
1309.00,49.603
1310.00,49.606
1311.00,49.580
1312.00,49.602
1313.00,49.611
1314.00,49.616
1315.00,49.629
1316.00,49.605
1317.00,49.647
1318.00,49.641
1319.00,49.645
1320.00,49.657
1321.00,49.815
1322.00,49.830
1323.00,49.819
1324.00,49.814
1325.00,49.795
1326.00,49.846
1327.00,49.808
1328.00,49.806
1329.00,49.791
1330.00,49.796
1331.00,49.809
1332.00,49.791
1333.00,49.788
1334.00,49.869
1335.00,49.832
1336.00,49.883
1337.00,49.907
1338.00,49.967
1339.00,50.003
1340.00,50.061
1341.00,50.121
1342.00,50.203
1343.00,50.241
1344.00,50.280
1345.00,50.365
1346.00,50.389
1347.00,50.418
1348.00,50.442
1349.00,50.451
1350.00,50.479
1351.00,50.478
1352.00,50.489
1353.00,50.516
1354.00,50.514
1355.00,50.451
1356.00,50.527
1357.00,50.502
1358.00,50.515
1359.00,50.525
1360.00,50.616
1361.00,50.532
1362.00,50.458
1363.00,50.588
1364.00,50.655
1365.00,50.620
1366.00,50.607
1367.00,50.496
1368.00,50.443
1369.00,50.497
1370.00,50.505
1371.00,50.427
1372.00,50.494
1373.00,50.487
1374.00,50.524
1375.00,50.493
1376.00,50.492
1377.00,50.451
1378.00,50.550
1379.00,50.484
1380.00,50.508
1381.00,50.498
1382.00,50.390
1383.00,50.482
1384.00,50.395
1385.00,50.473
1386.00,50.502
1387.00,50.450
1388.00,50.389
1389.00,50.426
1390.00,50.163
1391.00,50.420
1392.00,50.436
1393.00,50.444
1394.00,50.450
1395.00,50.313
1396.00,50.503
1397.00,50.484
1398.00,50.521
1399.00,50.449
1400.00,50.386
1401.00,50.423
1402.00,50.537
1403.00,50.466
1404.00,50.449
1405.00,50.481
1406.00,50.474
1407.00,50.491
1408.00,50.496
1409.00,50.457
1410.00,50.551
1411.00,50.329
1412.00,50.578
1413.00,50.495
1414.00,50.510
1415.00,50.544
1416.00,50.570
1417.00,50.609
1418.00,50.581
1419.00,50.572
1420.00,50.607
1421.00,50.646
1422.00,50.646
1423.00,50.651
1424.00,50.646
1425.00,50.689
1426.00,50.638
1427.00,50.696
1428.00,50.696
1429.00,50.710
1430.00,50.743
1431.00,50.745
1432.00,50.747
1433.00,50.793
1434.00,50.751
1435.00,50.819
1436.00,50.824
1437.00,50.821
1438.00,50.829
1439.00,50.845
1440.00,50.863
1441.00,50.869
1442.00,50.881
1443.00,50.903
1444.00,50.961
1445.00,50.910
1446.00,50.937
1447.00,50.982
1448.00,51.000
1449.00,51.006
1450.00,50.994
1451.00,51.014
1452.00,51.032
1453.00,51.037
1454.00,51.059
1455.00,51.087
1456.00,51.098
1457.00,51.082
1458.00,51.130
1459.00,51.126
1460.00,51.141
1461.00,51.147
1462.00,51.172
1463.00,51.186
1464.00,51.194
1465.00,51.208
1466.00,51.223
1467.00,51.220
1468.00,51.285
1469.00,51.282
1470.00,51.274
1471.00,51.292
1472.00,51.314
1473.00,51.306
1474.00,51.352
1475.00,51.339
1476.00,51.356
1477.00,51.351
1478.00,51.365
1479.00,51.391
1480.00,51.397
1481.00,51.386
1482.00,51.423
1483.00,51.426
1484.00,51.447
1485.00,51.470
1486.00,51.462
1487.00,51.476
1488.00,51.514
1489.00,51.503
1490.00,51.508
1491.00,51.516
1492.00,51.527
1493.00,51.535
1494.00,51.537
1495.00,51.529
1496.00,51.600
1497.00,51.566
1498.00,51.577
1499.00,51.618
1500.00,51.618
1501.00, 
1502.00, 
1503.00, 
1504.00, 
1505.00, 
1506.00, 
1507.00, 
1508.00, 
1509.00, 
1510.00, 
1511.00, 
1512.00, 
1513.00, 
1514.00, 
1515.00, 
1516.00, 
1517.00, 
1518.00, 
1519.00, 
1520.00, 
1521.00, 
1522.00, 
1523.00, 
1524.00, 
1525.00, 
1526.00, 
1527.00, 
1528.00, 
1529.00, 
1530.00, 
1531.00, 
1532.00, 
1533.00, 
1534.00, 
1535.00, 
1536.00, 
1537.00, 
1538.00, 
1539.00, 
1540.00, 
1541.00, 
1542.00, 
1543.00, 
1544.00, 
1545.00, 
1546.00, 
1547.00, 
1548.00, 
1549.00, 
1550.00, 
1551.00, 
1552.00, 
1553.00, 
1554.00, 
1555.00, 
1556.00, 
1557.00, 
1558.00, 
1559.00, 
1560.00, 
1561.00, 
1562.00, 
1563.00, 
1564.00, 
1565.00, 
1566.00, 
1567.00, 
1568.00, 
1569.00, 
1570.00, 
1571.00, 
1572.00, 
1573.00, 
1574.00, 
1575.00, 
1576.00, 
1577.00, 
1578.00, 
1579.00, 
1580.00, 
1581.00, 
1582.00, 
1583.00, 
1584.00, 
1585.00, 
1586.00, 
1587.00, 
1588.00, 
1589.00, 
1590.00, 
1591.00, 
1592.00, 
1593.00, 
1594.00, 
1595.00, 
1596.00, 
1597.00, 
1598.00, 
1599.00, 
1600.00, 
1601.00, 
1602.00, 
1603.00, 
1604.00, 
1605.00, 
1606.00, 
1607.00, 
1608.00, 
1609.00, 
1610.00, 
1611.00, 
1612.00, 
1613.00, 
1614.00, 
1615.00, 
1616.00, 
1617.00, 
1618.00, 
1619.00, 
1620.00, 
1621.00, 
1622.00, 
1623.00, 
1624.00, 
1625.00, 
1626.00, 
1627.00, 
1628.00, 
1629.00, 
1630.00, 
1631.00, 
1632.00, 
1633.00, 
1634.00, 
1635.00, 
1636.00, 
1637.00, 
1638.00, 
1639.00, 
1640.00, 
1641.00, 
1642.00, 
1643.00, 
1644.00, 
1645.00, 
1646.00, 
1647.00, 
1648.00, 
1649.00, 
1650.00, 
1651.00, 
1652.00, 
1653.00, 
1654.00, 
1655.00, 
1656.00, 
1657.00, 
1658.00, 
1659.00, 
1660.00, 
1661.00, 
1662.00, 
1663.00, 
1664.00, 
1665.00, 
1666.00, 
1667.00, 
1668.00, 
1669.00, 
1670.00, 
1671.00, 
1672.00, 
1673.00, 
1674.00, 
1675.00, 
1676.00, 
1677.00, 
1678.00, 
1679.00, 
1680.00, 
1681.00, 
1682.00, 
1683.00, 
1684.00, 
1685.00, 
1686.00, 
1687.00, 
1688.00, 
1689.00, 
1690.00, 
1691.00, 
1692.00, 
1693.00, 
1694.00, 
1695.00, 
1696.00, 
1697.00, 
1698.00, 
1699.00, 
1700.00, 
1701.00, 
1702.00, 
1703.00, 
1704.00, 
1705.00, 
1706.00, 
1707.00, 
1708.00, 
1709.00, 
1710.00, 
1711.00, 
1712.00, 
1713.00, 
1714.00, 
1715.00, 
1716.00, 
1717.00, 
1718.00, 
1719.00, 
1720.00, 
1721.00, 
1722.00, 
1723.00, 
1724.00, 
1725.00, 
1726.00, 
1727.00, 
1728.00, 
1729.00, 
1730.00, 
1731.00, 
1732.00, 
1733.00, 
1734.00, 
1735.00, 
1736.00, 
1737.00, 
1738.00, 
1739.00, 
1740.00, 
1741.00, 
1742.00, 
1743.00, 
1744.00, 
1745.00, 
1746.00, 
1747.00, 
1748.00, 
1749.00, 
1750.00, 
1751.00, 
1752.00, 
1753.00, 
1754.00, 
1755.00, 
1756.00, 
1757.00, 
1758.00, 
1759.00, 
1760.00, 
1761.00, 
1762.00, 
1763.00, 
1764.00, 
1765.00, 
1766.00, 
1767.00, 
1768.00, 
1769.00, 
1770.00, 
1771.00, 
1772.00, 
1773.00, 
1774.00, 
1775.00, 
1776.00, 
1777.00, 
1778.00, 
1779.00, 
1780.00, 
1781.00, 
1782.00, 
1783.00, 
1784.00, 
1785.00, 
1786.00, 
1787.00, 
1788.00, 
1789.00, 
1790.00, 
1791.00, 
1792.00, 
1793.00, 
1794.00, 
1795.00, 
1796.00, 
1797.00, 
1798.00, 
1799.00, 
1800.00, 
1801.00, 
1802.00, 
1803.00, 
1804.00, 
1805.00, 
1806.00, 
1807.00, 
1808.00, 
1809.00, 
1810.00, 
1811.00, 
1812.00, 
1813.00, 
1814.00, 
1815.00, 
1816.00, 
1817.00, 
1818.00, 
1819.00, 
1820.00, 
1821.00, 
1822.00, 
1823.00, 
1824.00, 
1825.00, 
1826.00, 
1827.00, 
1828.00, 
1829.00, 
1830.00, 
1831.00, 
1832.00, 
1833.00, 
1834.00, 
1835.00, 
1836.00, 
1837.00, 
1838.00, 
1839.00, 
1840.00, 
1841.00, 
1842.00, 
1843.00, 
1844.00, 
1845.00, 
1846.00, 
1847.00, 
1848.00, 
1849.00, 
1850.00, 
1851.00, 
1852.00, 
1853.00, 
1854.00, 
1855.00, 
1856.00, 
1857.00, 
1858.00, 
1859.00, 
1860.00, 
1861.00, 
1862.00, 
1863.00, 
1864.00, 
1865.00, 
1866.00, 
1867.00, 
1868.00, 
1869.00, 
1870.00, 
1871.00, 
1872.00, 
1873.00, 
1874.00, 
1875.00, 
1876.00, 
1877.00, 
1878.00, 
1879.00, 
1880.00, 
1881.00, 
1882.00, 
1883.00, 
1884.00, 
1885.00, 
1886.00, 
1887.00, 
1888.00, 
1889.00, 
1890.00, 
1891.00, 
1892.00, 
1893.00, 
1894.00, 
1895.00, 
1896.00, 
1897.00, 
1898.00, 
1899.00, 
1900.00, 
1901.00, 
1902.00, 
1903.00, 
1904.00, 
1905.00, 
1906.00, 
1907.00, 
1908.00, 
1909.00, 
1910.00, 
1911.00, 
1912.00, 
1913.00, 
1914.00, 
1915.00, 
1916.00, 
1917.00, 
1918.00, 
1919.00, 
1920.00, 
1921.00, 
1922.00, 
1923.00, 
1924.00, 
1925.00, 
1926.00, 
1927.00, 
1928.00, 
1929.00, 
1930.00, 
1931.00, 
1932.00, 
1933.00, 
1934.00, 
1935.00, 
1936.00, 
1937.00, 
1938.00, 
1939.00, 
1940.00, 
1941.00, 
1942.00, 
1943.00, 
1944.00, 
1945.00, 
1946.00, 
1947.00, 
1948.00, 
1949.00, 
1950.00, 
1951.00, 
1952.00, 
1953.00, 
1954.00, 
1955.00, 
1956.00, 
1957.00, 
1958.00, 
1959.00, 
1960.00, 
1961.00, 
1962.00, 
1963.00, 
1964.00, 
1965.00, 
1966.00, 
1967.00, 
1968.00, 
1969.00, 
1970.00, 
1971.00, 
1972.00, 
1973.00, 
1974.00, 
1975.00, 
1976.00, 
1977.00, 
1978.00, 
1979.00, 
1980.00, 
1981.00, 
1982.00, 
1983.00, 
1984.00, 
1985.00, 
1986.00, 
1987.00, 
1988.00, 
1989.00, 
1990.00, 
1991.00, 
1992.00, 
1993.00, 
1994.00, 
1995.00, 
1996.00, 
1997.00, 
1998.00, 
1999.00, 
2000.00, 
2001.00, 
2002.00, 
2003.00, 
2004.00, 
2005.00, 
2006.00, 
2007.00, 
2008.00, 
2009.00, 
2010.00, 
2011.00, 
2012.00, 
2013.00, 
2014.00, 
2015.00, 
2016.00, 
2017.00, 
2018.00, 
2019.00, 
2020.00, 
2021.00, 
2022.00, 
2023.00, 
2024.00, 
2025.00, 
2026.00, 
2027.00, 
2028.00, 
2029.00, 
2030.00, 
2031.00, 
2032.00, 
2033.00, 
2034.00, 
2035.00, 
2036.00, 
2037.00, 
2038.00, 
2039.00, 
2040.00, 
2041.00, 
2042.00, 
2043.00, 
2044.00, 
2045.00, 
2046.00, 
2047.00, 
2048.00, 
2049.00, 
2050.00, 
2051.00, 
2052.00, 
2053.00, 
2054.00, 
2055.00, 
2056.00, 
2057.00, 
2058.00, 
2059.00, 
2060.00, 
2061.00, 
2062.00, 
2063.00, 
2064.00, 
2065.00, 
2066.00, 
2067.00, 
2068.00, 
2069.00, 
2070.00, 
2071.00, 
2072.00, 
2073.00, 
2074.00, 
2075.00, 
2076.00, 
2077.00, 
2078.00, 
2079.00, 
2080.00, 
2081.00, 
2082.00, 
2083.00, 
2084.00, 
2085.00, 
2086.00, 
2087.00, 
2088.00, 
2089.00, 
2090.00, 
2091.00, 
2092.00, 
2093.00, 
2094.00, 
2095.00, 
2096.00, 
2097.00, 
2098.00, 
2099.00, 
2100.00, 
2101.00, 
2102.00, 
2103.00, 
2104.00, 
2105.00, 
2106.00, 
2107.00, 
2108.00, 
2109.00, 
2110.00, 
2111.00, 
2112.00, 
2113.00, 
2114.00, 
2115.00, 
2116.00, 
2117.00, 
2118.00, 
2119.00, 
2120.00, 
2121.00, 
2122.00, 
2123.00, 
2124.00, 
2125.00, 
2126.00, 
2127.00, 
2128.00, 
2129.00, 
2130.00, 
2131.00, 
2132.00, 
2133.00, 
2134.00, 
2135.00, 
2136.00, 
2137.00, 
2138.00, 
2139.00, 
2140.00, 
2141.00, 
2142.00, 
2143.00, 
2144.00, 
2145.00, 
2146.00, 
2147.00, 
2148.00, 
2149.00, 
2150.00, 
2151.00, 
2152.00, 
2153.00, 
2154.00, 
2155.00, 
2156.00, 
2157.00, 
2158.00, 
2159.00, 
2160.00, 
2161.00, 
2162.00, 
2163.00, 
2164.00, 
2165.00, 
2166.00, 
2167.00, 
2168.00, 
2169.00, 
2170.00, 
2171.00, 
2172.00, 
2173.00, 
2174.00, 
2175.00, 
2176.00, 
2177.00, 
2178.00, 
2179.00, 
2180.00, 
2181.00, 
2182.00, 
2183.00, 
2184.00, 
2185.00, 
2186.00, 
2187.00, 
2188.00, 
2189.00, 
2190.00, 
2191.00, 
2192.00, 
2193.00, 
2194.00, 
2195.00, 
2196.00, 
2197.00, 
2198.00, 
2199.00, 
2200.00, 
2201.00, 
2202.00, 
2203.00, 
2204.00, 
2205.00, 
2206.00, 
2207.00, 
2208.00, 
2209.00, 
2210.00, 
2211.00, 
2212.00, 
2213.00, 
2214.00, 
2215.00, 
2216.00, 
2217.00, 
2218.00, 
2219.00, 
2220.00, 
2221.00, 
2222.00, 
2223.00, 
2224.00, 
2225.00, 
2226.00, 
2227.00, 
2228.00, 
2229.00, 
2230.00, 
2231.00, 
2232.00, 
2233.00, 
2234.00, 
2235.00, 
2236.00, 
2237.00, 
2238.00, 
2239.00, 
2240.00, 
2241.00, 
2242.00, 
2243.00, 
2244.00, 
2245.00, 
2246.00, 
2247.00, 
2248.00, 
2249.00, 
2250.00, 
2251.00, 
2252.00, 
2253.00, 
2254.00, 
2255.00, 
2256.00, 
2257.00, 
2258.00, 
2259.00, 
2260.00, 
2261.00, 
2262.00, 
2263.00, 
2264.00, 
2265.00, 
2266.00, 
2267.00, 
2268.00, 
2269.00, 
2270.00, 
2271.00, 
2272.00, 
2273.00, 
2274.00, 
2275.00, 
2276.00, 
2277.00, 
2278.00, 
2279.00, 
2280.00, 
2281.00, 
2282.00, 
2283.00, 
2284.00, 
2285.00, 
2286.00, 
2287.00, 
2288.00, 
2289.00, 
2290.00, 
2291.00, 
2292.00, 
2293.00, 
2294.00, 
2295.00, 
2296.00, 
2297.00, 
2298.00, 
2299.00, 
2300.00, 
2301.00, 
2302.00, 
2303.00, 
2304.00, 
2305.00, 
2306.00, 
2307.00, 
2308.00, 
2309.00, 
2310.00, 
2311.00, 
2312.00, 
2313.00, 
2314.00, 
2315.00, 
2316.00, 
2317.00, 
2318.00, 
2319.00, 
2320.00, 
2321.00, 
2322.00, 
2323.00, 
2324.00, 
2325.00, 
2326.00, 
2327.00, 
2328.00, 
2329.00, 
2330.00, 
2331.00, 
2332.00, 
2333.00, 
2334.00, 
2335.00, 
2336.00, 
2337.00, 
2338.00, 
2339.00, 
2340.00, 
2341.00, 
2342.00, 
2343.00, 
2344.00, 
2345.00, 
2346.00, 
2347.00, 
2348.00, 
2349.00, 
2350.00, 
2351.00, 
2352.00, 
2353.00, 
2354.00, 
2355.00, 
2356.00, 
2357.00, 
2358.00, 
2359.00, 
2360.00, 
2361.00, 
2362.00, 
2363.00, 
2364.00, 
2365.00, 
2366.00, 
2367.00, 
2368.00, 
2369.00, 
2370.00, 
2371.00, 
2372.00, 
2373.00, 
2374.00, 
2375.00, 
2376.00, 
2377.00, 
2378.00, 
2379.00, 
2380.00, 
2381.00, 
2382.00, 
2383.00, 
2384.00, 
2385.00, 
2386.00, 
2387.00, 
2388.00, 
2389.00, 
2390.00, 
2391.00, 
2392.00, 
2393.00, 
2394.00, 
2395.00, 
2396.00, 
2397.00, 
2398.00, 
2399.00, 
2400.00, 
2401.00, 
2402.00, 
2403.00, 
2404.00, 
2405.00, 
2406.00, 
2407.00, 
2408.00, 
2409.00, 
2410.00, 
2411.00, 
2412.00, 
2413.00, 
2414.00, 
2415.00, 
2416.00, 
2417.00, 
2418.00, 
2419.00, 
2420.00, 
2421.00, 
2422.00, 
2423.00, 
2424.00, 
2425.00, 
2426.00, 
2427.00, 
2428.00, 
2429.00, 
2430.00, 
2431.00, 
2432.00, 
2433.00, 
2434.00, 
2435.00, 
2436.00, 
2437.00, 
2438.00, 
2439.00, 
2440.00, 
2441.00, 
2442.00, 
2443.00, 
2444.00, 
2445.00, 
2446.00, 
2447.00, 
2448.00, 
2449.00, 
2450.00, 
2451.00, 
2452.00, 
2453.00, 
2454.00, 
2455.00, 
2456.00, 
2457.00, 
2458.00, 
2459.00, 
2460.00, 
2461.00, 
2462.00, 
2463.00, 
2464.00, 
2465.00, 
2466.00, 
2467.00, 
2468.00, 
2469.00, 
2470.00, 
2471.00, 
2472.00, 
2473.00, 
2474.00, 
2475.00, 
2476.00, 
2477.00, 
2478.00, 
2479.00, 
2480.00, 
2481.00, 
2482.00, 
2483.00, 
2484.00, 
2485.00, 
2486.00, 
2487.00, 
2488.00, 
2489.00, 
2490.00, 
2491.00, 
2492.00, 
2493.00, 
2494.00, 
2495.00, 
2496.00, 
2497.00, 
2498.00, 
2499.00, 
2500.00, 
2501.00, 
2502.00, 
2503.00, 
2504.00, 
2505.00, 
2506.00, 
2507.00, 
2508.00, 
2509.00, 
2510.00, 
2511.00, 
2512.00, 
2513.00, 
2514.00, 
2515.00, 
2516.00, 
2517.00, 
2518.00, 
2519.00, 
2520.00, 
2521.00, 
2522.00, 
2523.00, 
2524.00, 
2525.00, 
2526.00, 
2527.00, 
2528.00, 
2529.00, 
2530.00, 
2531.00, 
2532.00, 
2533.00, 
2534.00, 
2535.00, 
2536.00, 
2537.00, 
2538.00, 
2539.00, 
2540.00, 
2541.00, 
2542.00, 
2543.00, 
2544.00, 
2545.00, 
2546.00, 
2547.00, 
2548.00, 
2549.00, 
2550.00, 
2551.00, 
2552.00, 
2553.00, 
2554.00, 
2555.00, 
2556.00, 
2557.00, 
2558.00, 
2559.00, 
2560.00, 
2561.00, 
2562.00, 
2563.00, 
2564.00, 
2565.00, 
2566.00, 
2567.00, 
2568.00, 
2569.00, 
2570.00, 
2571.00, 
2572.00, 
2573.00, 
2574.00, 
2575.00, 
2576.00, 
2577.00, 
2578.00, 
2579.00, 
2580.00, 
2581.00, 
2582.00, 
2583.00, 
2584.00, 
2585.00, 
2586.00, 
2587.00, 
2588.00, 
2589.00, 
2590.00, 
2591.00, 
2592.00, 
2593.00, 
2594.00, 
2595.00, 
2596.00, 
2597.00, 
2598.00, 
2599.00, 
2600.00, 
