"1cP3 - RawData"
"Wavelength nm.","T%"
200.00,0.002
201.00,0.004
202.00,0.001
203.00,0.000
204.00,0.003
205.00,0.002
206.00,0.002
207.00,0.005
208.00,0.002
209.00,0.001
210.00,0.000
211.00,0.001
212.00,0.003
213.00,-0.000
214.00,0.001
215.00,0.001
216.00,0.002
217.00,0.002
218.00,0.001
219.00,0.001
220.00,0.002
221.00,0.002
222.00,0.003
223.00,-0.000
224.00,0.003
225.00,0.002
226.00,0.001
227.00,-0.001
228.00,-0.000
229.00,0.001
230.00,0.000
231.00,0.000
232.00,-0.000
233.00,-0.000
234.00,0.001
235.00,0.001
236.00,-0.001
237.00,0.000
238.00,0.002
239.00,0.001
240.00,-0.002
241.00,0.000
242.00,-0.001
243.00,0.001
244.00,0.000
245.00,0.002
246.00,0.001
247.00,0.001
248.00,0.002
249.00,0.001
250.00,-0.001
251.00,0.002
252.00,0.002
253.00,0.000
254.00,-0.001
255.00,0.001
256.00,0.000
257.00,0.001
258.00,0.000
259.00,-0.000
260.00,0.000
261.00,0.001
262.00,-0.000
263.00,0.000
264.00,0.002
265.00,0.002
266.00,-0.001
267.00,-0.000
268.00,-0.001
269.00,-0.000
270.00,0.000
271.00,0.000
272.00,0.000
273.00,-0.001
274.00,0.000
275.00,0.000
276.00,-0.001
277.00,-0.001
278.00,0.000
279.00,-0.000
280.00,-0.000
281.00,0.001
282.00,0.001
283.00,0.000
284.00,0.002
285.00,0.001
286.00,0.002
287.00,0.002
288.00,-0.002
289.00,-0.000
290.00,-0.000
291.00,0.001
292.00,0.001
293.00,-0.001
294.00,-0.000
295.00,0.001
296.00,0.000
297.00,0.002
298.00,0.001
299.00,0.000
300.00,0.001
301.00,0.003
302.00,-0.001
303.00,0.001
304.00,0.003
305.00,0.001
306.00,0.002
307.00,0.005
308.00,0.008
309.00,0.013
310.00,0.023
311.00,0.033
312.00,0.057
313.00,0.083
314.00,0.129
315.00,0.184
316.00,0.253
317.00,0.375
318.00,0.510
319.00,0.708
320.00,0.931
321.00,1.204
322.00,1.524
323.00,1.945
324.00,2.417
325.00,2.918
326.00,3.462
327.00,4.133
328.00,4.835
329.00,5.563
330.00,6.387
331.00,7.224
332.00,8.149
333.00,9.133
334.00,10.058
335.00,11.071
336.00,12.077
337.00,13.149
338.00,14.180
339.00,15.117
340.00,16.180
341.00,17.227
342.00,18.159
343.00,19.065
344.00,19.951
345.00,20.881
346.00,21.698
347.00,22.516
348.00,23.344
349.00,24.041
350.00,24.714
351.00,25.369
352.00,25.963
353.00,26.556
354.00,27.091
355.00,27.614
356.00,28.144
357.00,28.562
358.00,29.011
359.00,29.431
360.00,29.846
361.00,30.257
362.00,30.536
363.00,30.839
364.00,31.046
365.00,31.210
366.00,31.494
367.00,31.667
368.00,31.812
369.00,31.957
370.00,32.078
371.00,32.176
372.00,32.198
373.00,32.211
374.00,32.262
375.00,32.224
376.00,32.185
377.00,32.074
378.00,31.985
379.00,31.928
380.00,31.967
381.00,32.013
382.00,32.048
383.00,32.150
384.00,32.222
385.00,32.368
386.00,32.511
387.00,32.653
388.00,32.852
389.00,32.885
390.00,33.061
391.00,33.177
392.00,33.246
393.00,33.300
394.00,33.383
395.00,33.447
396.00,33.514
397.00,33.548
398.00,33.593
399.00,33.592
400.00,33.642
401.00,33.726
402.00,33.725
403.00,33.700
404.00,33.716
405.00,33.763
406.00,33.728
407.00,33.571
408.00,33.629
409.00,33.620
410.00,33.541
411.00,33.526
412.00,33.494
413.00,33.535
414.00,33.465
415.00,33.432
416.00,33.526
417.00,33.454
418.00,33.517
419.00,33.634
420.00,33.658
421.00,33.673
422.00,33.682
423.00,33.781
424.00,33.795
425.00,33.788
426.00,33.819
427.00,33.879
428.00,33.870
429.00,33.892
430.00,33.943
431.00,34.016
432.00,34.009
433.00,34.096
434.00,34.123
435.00,34.180
436.00,34.242
437.00,34.292
438.00,34.319
439.00,34.388
440.00,34.418
441.00,34.469
442.00,34.526
443.00,34.614
444.00,34.689
445.00,34.756
446.00,34.849
447.00,34.916
448.00,35.007
449.00,35.096
450.00,35.198
451.00,35.286
452.00,35.366
453.00,35.456
454.00,35.533
455.00,35.629
456.00,35.705
457.00,35.801
458.00,35.875
459.00,36.009
460.00,36.122
461.00,36.245
462.00,36.300
463.00,36.400
464.00,36.503
465.00,36.635
466.00,36.737
467.00,36.864
468.00,36.873
469.00,36.934
470.00,37.028
471.00,37.092
472.00,37.206
473.00,37.249
474.00,37.353
475.00,37.443
476.00,37.490
477.00,37.602
478.00,37.672
479.00,37.874
480.00,37.987
481.00,37.994
482.00,38.186
483.00,38.231
484.00,38.450
485.00,38.549
486.00,38.694
487.00,38.793
488.00,38.873
489.00,38.992
490.00,39.155
491.00,39.221
492.00,39.311
493.00,39.509
494.00,39.621
495.00,39.591
496.00,39.684
497.00,39.758
498.00,39.840
499.00,39.991
500.00,40.168
501.00,40.157
502.00,40.251
503.00,40.358
504.00,40.402
505.00,40.469
506.00,40.674
507.00,40.647
508.00,40.680
509.00,40.873
510.00,41.049
511.00,41.110
512.00,41.216
513.00,41.369
514.00,41.439
515.00,41.575
516.00,41.601
517.00,41.664
518.00,41.807
519.00,41.848
520.00,41.866
521.00,41.968
522.00,42.078
523.00,42.071
524.00,42.168
525.00,42.271
526.00,42.355
527.00,42.422
528.00,42.490
529.00,42.604
530.00,42.774
531.00,42.841
532.00,42.882
533.00,42.908
534.00,42.951
535.00,43.044
536.00,43.126
537.00,43.240
538.00,43.293
539.00,43.319
540.00,43.363
541.00,43.401
542.00,43.464
543.00,43.542
544.00,43.646
545.00,43.680
546.00,43.685
547.00,43.819
548.00,43.874
549.00,43.922
550.00,44.000
551.00,44.090
552.00,44.131
553.00,44.171
554.00,44.222
555.00,44.270
556.00,44.320
557.00,44.357
558.00,44.424
559.00,44.496
560.00,44.477
561.00,44.587
562.00,44.622
563.00,44.650
564.00,44.717
565.00,44.759
566.00,44.740
567.00,44.699
568.00,44.789
569.00,44.814
570.00,44.932
571.00,44.963
572.00,44.935
573.00,44.907
574.00,44.943
575.00,44.936
576.00,44.960
577.00,45.022
578.00,45.146
579.00,45.181
580.00,45.215
581.00,45.370
582.00,45.448
583.00,45.409
584.00,45.496
585.00,45.547
586.00,45.590
587.00,45.641
588.00,45.716
589.00,45.648
590.00,45.737
591.00,45.781
592.00,45.689
593.00,45.708
594.00,45.833
595.00,45.953
596.00,45.937
597.00,46.004
598.00,46.079
599.00,46.036
600.00,46.093
601.00,46.065
602.00,46.064
603.00,46.077
604.00,46.187
605.00,46.227
606.00,46.297
607.00,46.295
608.00,46.270
609.00,46.360
610.00,46.507
611.00,46.389
612.00,46.342
613.00,46.436
614.00,46.394
615.00,46.485
616.00,46.611
617.00,46.486
618.00,46.485
619.00,46.545
620.00,46.591
621.00,46.622
622.00,46.685
623.00,46.767
624.00,46.850
625.00,46.811
626.00,46.800
627.00,46.896
628.00,46.905
629.00,46.860
630.00,46.926
631.00,47.041
632.00,47.018
633.00,47.100
634.00,47.183
635.00,47.170
636.00,47.279
637.00,47.251
638.00,47.183
639.00,47.283
640.00,47.384
641.00,47.394
642.00,47.406
643.00,47.428
644.00,47.457
645.00,47.468
646.00,47.681
647.00,47.608
648.00,47.605
649.00,47.445
650.00,47.624
651.00,47.965
652.00,47.902
653.00,47.836
654.00,47.836
655.00,48.086
656.00,48.204
657.00,48.085
658.00,48.042
659.00,48.206
660.00,48.195
661.00,48.146
662.00,48.217
663.00,48.250
664.00,48.460
665.00,48.591
666.00,48.403
667.00,48.486
668.00,48.341
669.00,48.508
670.00,48.844
671.00,48.723
672.00,48.729
673.00,48.783
674.00,48.739
675.00,48.760
676.00,48.952
677.00,49.101
678.00,48.878
679.00,48.998
680.00,49.094
681.00,49.236
682.00,49.148
683.00,49.041
684.00,49.169
685.00,49.377
686.00,49.201
687.00,49.305
688.00,49.315
689.00,49.179
690.00,49.400
691.00,49.608
692.00,49.352
693.00,49.389
694.00,49.539
695.00,49.645
696.00,49.567
697.00,49.421
698.00,49.511
699.00,49.618
700.00,49.768
701.00,49.656
702.00,49.603
703.00,49.890
704.00,49.862
705.00,49.645
706.00,49.790
707.00,49.873
708.00,49.726
709.00,50.064
710.00,50.366
711.00,49.752
712.00,49.761
713.00,49.871
714.00,49.911
715.00,49.680
716.00,49.971
717.00,50.506
718.00,50.220
719.00,50.096
720.00,50.042
721.00,55.018
722.00,54.853
723.00,54.837
724.00,54.790
725.00,54.844
726.00,54.739
727.00,54.800
728.00,54.706
729.00,54.761
730.00,54.771
731.00,54.719
732.00,54.756
733.00,54.696
734.00,54.717
735.00,54.656
736.00,54.746
737.00,54.705
738.00,54.692
739.00,54.780
740.00,54.608
741.00,54.589
742.00,54.630
743.00,54.581
744.00,54.534
745.00,54.535
746.00,54.443
747.00,54.466
748.00,54.466
749.00,54.469
750.00,54.389
751.00,54.243
752.00,54.260
753.00,54.267
754.00,54.162
755.00,54.176
756.00,54.209
757.00,54.136
758.00,54.204
759.00,54.080
760.00,54.176
761.00,54.124
762.00,54.104
763.00,54.084
764.00,54.009
765.00,53.985
766.00,54.094
767.00,54.037
768.00,53.970
769.00,53.941
770.00,54.012
771.00,53.967
772.00,53.989
773.00,53.909
774.00,53.908
775.00,53.858
776.00,53.884
777.00,53.896
778.00,53.863
779.00,53.817
780.00,53.730
781.00,53.801
782.00,53.750
783.00,53.648
784.00,53.702
785.00,53.536
786.00,53.666
787.00,53.617
788.00,53.603
789.00,53.527
790.00,53.477
791.00,53.561
792.00,53.394
793.00,53.457
794.00,53.404
795.00,53.522
796.00,53.333
797.00,53.292
798.00,53.319
799.00,53.210
800.00,53.227
801.00,53.200
802.00,53.272
803.00,53.170
804.00,53.107
805.00,53.094
806.00,53.153
807.00,53.123
808.00,53.041
809.00,53.026
810.00,52.961
811.00,53.002
812.00,52.895
813.00,52.810
814.00,52.825
815.00,52.869
816.00,52.867
817.00,52.845
818.00,52.751
819.00,52.706
820.00,52.673
821.00,52.663
822.00,52.699
823.00,52.642
824.00,52.704
825.00,52.566
826.00,52.522
827.00,52.568
828.00,52.580
829.00,52.540
830.00,52.496
831.00,54.860
832.00,54.779
833.00,54.739
834.00,54.785
835.00,54.684
836.00,54.735
837.00,54.681
838.00,54.651
839.00,54.623
840.00,54.541
841.00,54.587
842.00,54.562
843.00,54.535
844.00,54.515
845.00,54.476
846.00,54.432
847.00,54.400
848.00,54.415
849.00,54.333
850.00,54.248
851.00,54.240
852.00,54.227
853.00,54.097
854.00,54.129
855.00,54.200
856.00,54.097
857.00,54.035
858.00,54.024
859.00,53.981
860.00,53.985
861.00,53.948
862.00,53.906
863.00,53.923
864.00,53.866
865.00,53.886
866.00,53.846
867.00,53.843
868.00,53.826
869.00,53.810
870.00,53.825
871.00,53.778
872.00,53.745
873.00,53.764
874.00,53.746
875.00,53.683
876.00,53.687
877.00,53.662
878.00,53.673
879.00,53.634
880.00,53.547
881.00,53.667
882.00,53.577
883.00,53.572
884.00,53.547
885.00,53.504
886.00,53.411
887.00,53.624
888.00,53.440
889.00,53.408
890.00,53.366
891.00,53.345
892.00,53.350
893.00,53.333
894.00,53.322
895.00,53.273
896.00,53.272
897.00,53.242
898.00,53.214
899.00,53.243
900.00,53.187
901.00,53.161
902.00,53.144
903.00,53.130
904.00,53.083
905.00,53.098
906.00,53.097
907.00,53.073
908.00,53.020
909.00,53.024
910.00,52.983
911.00,52.941
912.00,52.952
913.00,52.923
914.00,52.911
915.00,52.872
916.00,52.856
917.00,52.840
918.00,52.820
919.00,52.757
920.00,52.721
921.00,52.737
922.00,52.718
923.00,52.700
924.00,52.690
925.00,52.688
926.00,52.658
927.00,52.631
928.00,52.607
929.00,52.584
930.00,52.563
931.00,52.535
932.00,52.494
933.00,52.514
934.00,52.466
935.00,52.464
936.00,52.463
937.00,52.410
938.00,52.396
939.00,52.373
940.00,52.366
941.00,52.351
942.00,52.313
943.00,52.298
944.00,52.278
945.00,52.295
946.00,52.278
947.00,52.227
948.00,52.191
949.00,52.178
950.00,52.145
951.00,52.118
952.00,52.099
953.00,52.061
954.00,52.040
955.00,52.003
956.00,51.988
957.00,51.942
958.00,51.950
959.00,51.906
960.00,51.891
961.00,51.890
962.00,51.886
963.00,51.848
964.00,51.832
965.00,51.831
966.00,51.820
967.00,51.800
968.00,51.779
969.00,51.787
970.00,51.772
971.00,51.778
972.00,51.781
973.00,51.766
974.00,51.796
975.00,51.759
976.00,51.761
977.00,51.759
978.00,51.781
979.00,51.738
980.00,51.772
981.00,51.730
982.00,51.729
983.00,51.716
984.00,51.714
985.00,51.711
986.00,51.664
987.00,51.706
988.00,51.665
989.00,51.658
990.00,51.637
991.00,51.636
992.00,51.647
993.00,51.609
994.00,51.606
995.00,51.586
996.00,51.604
997.00,51.566
998.00,51.548
999.00,51.551
1000.00,51.509
1001.00,51.512
1002.00,51.508
1003.00,51.494
1004.00,51.464
1005.00,51.441
1006.00,51.447
1007.00,51.443
1008.00,51.435
1009.00,51.419
1010.00,51.413
1011.00,51.389
1012.00,51.377
1013.00,51.371
1014.00,51.311
1015.00,51.346
1016.00,51.298
1017.00,51.286
1018.00,51.261
1019.00,51.236
1020.00,51.244
1021.00,51.231
1022.00,51.229
1023.00,51.199
1024.00,51.209
1025.00,51.181
1026.00,51.178
1027.00,51.138
1028.00,51.131
1029.00,51.111
1030.00,51.073
1031.00,51.100
1032.00,51.056
1033.00,51.062
1034.00,51.038
1035.00,51.005
1036.00,50.978
1037.00,50.977
1038.00,50.960
1039.00,50.919
1040.00,50.926
1041.00,50.885
1042.00,50.875
1043.00,50.854
1044.00,50.870
1045.00,50.864
1046.00,50.849
1047.00,50.865
1048.00,50.886
1049.00,50.864
1050.00,50.876
1051.00,50.911
1052.00,50.918
1053.00,50.920
1054.00,50.914
1055.00,50.938
1056.00,50.954
1057.00,50.962
1058.00,50.938
1059.00,50.947
1060.00,50.947
1061.00,50.930
1062.00,50.906
1063.00,50.919
1064.00,50.964
1065.00,50.922
1066.00,50.901
1067.00,50.893
1068.00,50.917
1069.00,50.895
1070.00,50.872
1071.00,50.853
1072.00,50.865
1073.00,50.857
1074.00,50.843
1075.00,50.826
1076.00,50.838
1077.00,50.805
1078.00,50.787
1079.00,50.787
1080.00,50.785
1081.00,50.766
1082.00,50.766
1083.00,50.759
1084.00,50.761
1085.00,50.750
1086.00,50.742
1087.00,50.738
1088.00,50.737
1089.00,50.721
1090.00,50.730
1091.00,50.718
1092.00,50.706
1093.00,50.678
1094.00,50.660
1095.00,50.653
1096.00,50.633
1097.00,50.638
1098.00,50.628
1099.00,50.627
1100.00,50.612
1101.00,50.605
1102.00,50.600
1103.00,50.599
1104.00,50.596
1105.00,50.567
1106.00,50.569
1107.00,50.549
1108.00,50.552
1109.00,50.537
1110.00,50.532
1111.00,50.537
1112.00,50.521
1113.00,50.509
1114.00,50.503
1115.00,50.500
1116.00,50.486
1117.00,50.467
1118.00,50.462
1119.00,50.463
1120.00,50.468
1121.00,50.465
1122.00,50.458
1123.00,50.437
1124.00,50.440
1125.00,50.435
1126.00,50.438
1127.00,50.436
1128.00,50.413
1129.00,50.376
1130.00,50.389
1131.00,50.386
1132.00,50.390
1133.00,50.390
1134.00,50.374
1135.00,50.343
1136.00,50.360
1137.00,50.364
1138.00,50.356
1139.00,50.368
1140.00,50.349
1141.00,50.345
1142.00,50.364
1143.00,50.365
1144.00,50.344
1145.00,50.342
1146.00,50.340
1147.00,50.321
1148.00,50.318
1149.00,50.327
1150.00,50.338
1151.00,50.338
1152.00,50.334
1153.00,50.326
1154.00,50.312
1155.00,50.325
1156.00,50.319
1157.00,50.311
1158.00,50.302
1159.00,50.293
1160.00,50.294
1161.00,50.306
1162.00,50.294
1163.00,50.305
1164.00,50.303
1165.00,50.297
1166.00,50.304
1167.00,50.293
1168.00,50.291
1169.00,50.295
1170.00,50.302
1171.00,50.290
1172.00,50.263
1173.00,50.259
1174.00,50.277
1175.00,50.274
1176.00,50.271
1177.00,50.266
1178.00,50.269
1179.00,50.283
1180.00,50.283
1181.00,50.290
1182.00,50.268
1183.00,50.267
1184.00,50.262
1185.00,50.298
1186.00,50.293
1187.00,50.264
1188.00,50.279
1189.00,50.273
1190.00,50.248
1191.00,50.249
1192.00,50.249
1193.00,50.260
1194.00,50.269
1195.00,50.247
1196.00,50.283
1197.00,50.290
1198.00,50.284
1199.00,50.277
1200.00,50.285
1201.00,50.283
1202.00,50.276
1203.00,50.277
1204.00,50.257
1205.00,50.286
1206.00,50.261
1207.00,50.290
1208.00,50.263
1209.00,50.273
1210.00,50.276
1211.00,50.268
1212.00,50.282
1213.00,50.252
1214.00,50.278
1215.00,50.257
1216.00,50.273
1217.00,50.271
1218.00,50.264
1219.00,50.276
1220.00,50.268
1221.00,50.293
1222.00,50.268
1223.00,50.274
1224.00,50.267
1225.00,50.262
1226.00,50.273
1227.00,50.274
1228.00,50.282
1229.00,50.294
1230.00,50.323
1231.00,50.309
1232.00,50.334
1233.00,50.331
1234.00,50.326
1235.00,50.337
1236.00,50.321
1237.00,50.325
1238.00,50.330
1239.00,50.332
1240.00,50.330
1241.00,50.341
1242.00,50.340
1243.00,50.353
1244.00,50.339
1245.00,50.369
1246.00,50.370
1247.00,50.364
1248.00,50.353
1249.00,50.375
1250.00,50.371
1251.00,50.364
1252.00,50.384
1253.00,50.363
1254.00,50.411
1255.00,50.395
1256.00,50.362
1257.00,50.386
1258.00,50.428
1259.00,50.428
1260.00,50.430
1261.00,50.416
1262.00,50.456
1263.00,50.430
1264.00,50.437
1265.00,50.454
1266.00,50.450
1267.00,50.448
1268.00,50.468
1269.00,50.467
1270.00,50.492
1271.00,50.480
1272.00,50.487
1273.00,50.512
1274.00,50.510
1275.00,50.513
1276.00,50.514
1277.00,50.510
1278.00,50.528
1279.00,50.527
1280.00,50.531
1281.00,50.538
1282.00,50.556
1283.00,50.524
1284.00,50.554
1285.00,50.557
1286.00,50.562
1287.00,50.561
1288.00,50.567
1289.00,50.554
1290.00,50.581
1291.00,50.569
1292.00,50.572
1293.00,50.580
1294.00,50.595
1295.00,50.635
1296.00,50.644
1297.00,50.659
1298.00,50.692
1299.00,50.670
1300.00,50.680
1301.00,50.669
1302.00,50.688
1303.00,50.689
1304.00,50.666
1305.00,50.693
1306.00,50.705
1307.00,50.717
1308.00,50.720
1309.00,50.719
1310.00,50.728
1311.00,50.710
1312.00,50.733
1313.00,50.758
1314.00,50.783
1315.00,50.797
1316.00,50.793
1317.00,50.832
1318.00,50.827
1319.00,50.815
1320.00,50.843
1321.00,50.988
1322.00,50.959
1323.00,50.943
1324.00,50.940
1325.00,50.948
1326.00,50.977
1327.00,50.977
1328.00,51.006
1329.00,50.977
1330.00,50.983
1331.00,50.994
1332.00,51.005
1333.00,51.009
1334.00,51.056
1335.00,51.084
1336.00,51.109
1337.00,51.109
1338.00,51.164
1339.00,51.211
1340.00,51.269
1341.00,51.329
1342.00,51.387
1343.00,51.437
1344.00,51.502
1345.00,51.545
1346.00,51.556
1347.00,51.604
1348.00,51.641
1349.00,51.646
1350.00,51.704
1351.00,51.657
1352.00,51.674
1353.00,51.698
1354.00,51.679
1355.00,51.666
1356.00,51.801
1357.00,51.732
1358.00,51.727
1359.00,51.767
1360.00,51.776
1361.00,51.730
1362.00,51.606
1363.00,51.820
1364.00,52.027
1365.00,51.799
1366.00,52.054
1367.00,52.059
1368.00,51.704
1369.00,51.796
1370.00,51.782
1371.00,51.758
1372.00,51.782
1373.00,51.803
1374.00,51.831
1375.00,51.788
1376.00,51.770
1377.00,51.787
1378.00,51.880
1379.00,51.806
1380.00,51.785
1381.00,51.711
1382.00,51.705
1383.00,51.858
1384.00,51.808
1385.00,51.747
1386.00,51.785
1387.00,51.749
1388.00,51.757
1389.00,51.742
1390.00,51.799
1391.00,51.825
1392.00,51.802
1393.00,51.859
1394.00,51.830
1395.00,51.778
1396.00,51.647
1397.00,51.681
1398.00,51.802
1399.00,51.815
1400.00,51.752
1401.00,51.732
1402.00,51.885
1403.00,51.833
1404.00,51.773
1405.00,51.870
1406.00,51.836
1407.00,51.880
1408.00,51.866
1409.00,51.871
1410.00,51.905
1411.00,51.890
1412.00,51.981
1413.00,51.881
1414.00,51.918
1415.00,51.958
1416.00,51.951
1417.00,51.957
1418.00,51.946
1419.00,51.990
1420.00,52.002
1421.00,52.049
1422.00,52.019
1423.00,52.054
1424.00,52.075
1425.00,52.086
1426.00,52.102
1427.00,52.109
1428.00,52.137
1429.00,52.171
1430.00,52.159
1431.00,52.182
1432.00,52.212
1433.00,52.212
1434.00,52.221
1435.00,52.297
1436.00,52.255
1437.00,52.253
1438.00,52.303
1439.00,52.327
1440.00,52.336
1441.00,52.351
1442.00,52.378
1443.00,52.355
1444.00,52.441
1445.00,52.442
1446.00,52.451
1447.00,52.494
1448.00,52.521
1449.00,52.510
1450.00,52.516
1451.00,52.530
1452.00,52.562
1453.00,52.560
1454.00,52.573
1455.00,52.609
1456.00,52.621
1457.00,52.634
1458.00,52.657
1459.00,52.670
1460.00,52.695
1461.00,52.701
1462.00,52.733
1463.00,52.739
1464.00,52.749
1465.00,52.780
1466.00,52.776
1467.00,52.812
1468.00,52.876
1469.00,52.837
1470.00,52.875
1471.00,52.887
1472.00,52.890
1473.00,52.917
1474.00,52.922
1475.00,52.941
1476.00,52.959
1477.00,52.959
1478.00,52.986
1479.00,53.006
1480.00,52.999
1481.00,53.012
1482.00,53.035
1483.00,53.052
1484.00,53.085
1485.00,53.107
1486.00,53.094
1487.00,53.129
1488.00,53.149
1489.00,53.152
1490.00,53.177
1491.00,53.196
1492.00,53.236
1493.00,53.207
1494.00,53.256
1495.00,53.247
1496.00,53.276
1497.00,53.274
1498.00,53.294
1499.00,53.299
1500.00,53.313
1501.00, 
1502.00, 
1503.00, 
1504.00, 
1505.00, 
1506.00, 
1507.00, 
1508.00, 
1509.00, 
1510.00, 
1511.00, 
1512.00, 
1513.00, 
1514.00, 
1515.00, 
1516.00, 
1517.00, 
1518.00, 
1519.00, 
1520.00, 
1521.00, 
1522.00, 
1523.00, 
1524.00, 
1525.00, 
1526.00, 
1527.00, 
1528.00, 
1529.00, 
1530.00, 
1531.00, 
1532.00, 
1533.00, 
1534.00, 
1535.00, 
1536.00, 
1537.00, 
1538.00, 
1539.00, 
1540.00, 
1541.00, 
1542.00, 
1543.00, 
1544.00, 
1545.00, 
1546.00, 
1547.00, 
1548.00, 
1549.00, 
1550.00, 
1551.00, 
1552.00, 
1553.00, 
1554.00, 
1555.00, 
1556.00, 
1557.00, 
1558.00, 
1559.00, 
1560.00, 
1561.00, 
1562.00, 
1563.00, 
1564.00, 
1565.00, 
1566.00, 
1567.00, 
1568.00, 
1569.00, 
1570.00, 
1571.00, 
1572.00, 
1573.00, 
1574.00, 
1575.00, 
1576.00, 
1577.00, 
1578.00, 
1579.00, 
1580.00, 
1581.00, 
1582.00, 
1583.00, 
1584.00, 
1585.00, 
1586.00, 
1587.00, 
1588.00, 
1589.00, 
1590.00, 
1591.00, 
1592.00, 
1593.00, 
1594.00, 
1595.00, 
1596.00, 
1597.00, 
1598.00, 
1599.00, 
1600.00, 
1601.00, 
1602.00, 
1603.00, 
1604.00, 
1605.00, 
1606.00, 
1607.00, 
1608.00, 
1609.00, 
1610.00, 
1611.00, 
1612.00, 
1613.00, 
1614.00, 
1615.00, 
1616.00, 
1617.00, 
1618.00, 
1619.00, 
1620.00, 
1621.00, 
1622.00, 
1623.00, 
1624.00, 
1625.00, 
1626.00, 
1627.00, 
1628.00, 
1629.00, 
1630.00, 
1631.00, 
1632.00, 
1633.00, 
1634.00, 
1635.00, 
1636.00, 
1637.00, 
1638.00, 
1639.00, 
1640.00, 
1641.00, 
1642.00, 
1643.00, 
1644.00, 
1645.00, 
1646.00, 
1647.00, 
1648.00, 
1649.00, 
1650.00, 
1651.00, 
1652.00, 
1653.00, 
1654.00, 
1655.00, 
1656.00, 
1657.00, 
1658.00, 
1659.00, 
1660.00, 
1661.00, 
1662.00, 
1663.00, 
1664.00, 
1665.00, 
1666.00, 
1667.00, 
1668.00, 
1669.00, 
1670.00, 
1671.00, 
1672.00, 
1673.00, 
1674.00, 
1675.00, 
1676.00, 
1677.00, 
1678.00, 
1679.00, 
1680.00, 
1681.00, 
1682.00, 
1683.00, 
1684.00, 
1685.00, 
1686.00, 
1687.00, 
1688.00, 
1689.00, 
1690.00, 
1691.00, 
1692.00, 
1693.00, 
1694.00, 
1695.00, 
1696.00, 
1697.00, 
1698.00, 
1699.00, 
1700.00, 
1701.00, 
1702.00, 
1703.00, 
1704.00, 
1705.00, 
1706.00, 
1707.00, 
1708.00, 
1709.00, 
1710.00, 
1711.00, 
1712.00, 
1713.00, 
1714.00, 
1715.00, 
1716.00, 
1717.00, 
1718.00, 
1719.00, 
1720.00, 
1721.00, 
1722.00, 
1723.00, 
1724.00, 
1725.00, 
1726.00, 
1727.00, 
1728.00, 
1729.00, 
1730.00, 
1731.00, 
1732.00, 
1733.00, 
1734.00, 
1735.00, 
1736.00, 
1737.00, 
1738.00, 
1739.00, 
1740.00, 
1741.00, 
1742.00, 
1743.00, 
1744.00, 
1745.00, 
1746.00, 
1747.00, 
1748.00, 
1749.00, 
1750.00, 
1751.00, 
1752.00, 
1753.00, 
1754.00, 
1755.00, 
1756.00, 
1757.00, 
1758.00, 
1759.00, 
1760.00, 
1761.00, 
1762.00, 
1763.00, 
1764.00, 
1765.00, 
1766.00, 
1767.00, 
1768.00, 
1769.00, 
1770.00, 
1771.00, 
1772.00, 
1773.00, 
1774.00, 
1775.00, 
1776.00, 
1777.00, 
1778.00, 
1779.00, 
1780.00, 
1781.00, 
1782.00, 
1783.00, 
1784.00, 
1785.00, 
1786.00, 
1787.00, 
1788.00, 
1789.00, 
1790.00, 
1791.00, 
1792.00, 
1793.00, 
1794.00, 
1795.00, 
1796.00, 
1797.00, 
1798.00, 
1799.00, 
1800.00, 
1801.00, 
1802.00, 
1803.00, 
1804.00, 
1805.00, 
1806.00, 
1807.00, 
1808.00, 
1809.00, 
1810.00, 
1811.00, 
1812.00, 
1813.00, 
1814.00, 
1815.00, 
1816.00, 
1817.00, 
1818.00, 
1819.00, 
1820.00, 
1821.00, 
1822.00, 
1823.00, 
1824.00, 
1825.00, 
1826.00, 
1827.00, 
1828.00, 
1829.00, 
1830.00, 
1831.00, 
1832.00, 
1833.00, 
1834.00, 
1835.00, 
1836.00, 
1837.00, 
1838.00, 
1839.00, 
1840.00, 
1841.00, 
1842.00, 
1843.00, 
1844.00, 
1845.00, 
1846.00, 
1847.00, 
1848.00, 
1849.00, 
1850.00, 
1851.00, 
1852.00, 
1853.00, 
1854.00, 
1855.00, 
1856.00, 
1857.00, 
1858.00, 
1859.00, 
1860.00, 
1861.00, 
1862.00, 
1863.00, 
1864.00, 
1865.00, 
1866.00, 
1867.00, 
1868.00, 
1869.00, 
1870.00, 
1871.00, 
1872.00, 
1873.00, 
1874.00, 
1875.00, 
1876.00, 
1877.00, 
1878.00, 
1879.00, 
1880.00, 
1881.00, 
1882.00, 
1883.00, 
1884.00, 
1885.00, 
1886.00, 
1887.00, 
1888.00, 
1889.00, 
1890.00, 
1891.00, 
1892.00, 
1893.00, 
1894.00, 
1895.00, 
1896.00, 
1897.00, 
1898.00, 
1899.00, 
1900.00, 
1901.00, 
1902.00, 
1903.00, 
1904.00, 
1905.00, 
1906.00, 
1907.00, 
1908.00, 
1909.00, 
1910.00, 
1911.00, 
1912.00, 
1913.00, 
1914.00, 
1915.00, 
1916.00, 
1917.00, 
1918.00, 
1919.00, 
1920.00, 
1921.00, 
1922.00, 
1923.00, 
1924.00, 
1925.00, 
1926.00, 
1927.00, 
1928.00, 
1929.00, 
1930.00, 
1931.00, 
1932.00, 
1933.00, 
1934.00, 
1935.00, 
1936.00, 
1937.00, 
1938.00, 
1939.00, 
1940.00, 
1941.00, 
1942.00, 
1943.00, 
1944.00, 
1945.00, 
1946.00, 
1947.00, 
1948.00, 
1949.00, 
1950.00, 
1951.00, 
1952.00, 
1953.00, 
1954.00, 
1955.00, 
1956.00, 
1957.00, 
1958.00, 
1959.00, 
1960.00, 
1961.00, 
1962.00, 
1963.00, 
1964.00, 
1965.00, 
1966.00, 
1967.00, 
1968.00, 
1969.00, 
1970.00, 
1971.00, 
1972.00, 
1973.00, 
1974.00, 
1975.00, 
1976.00, 
1977.00, 
1978.00, 
1979.00, 
1980.00, 
1981.00, 
1982.00, 
1983.00, 
1984.00, 
1985.00, 
1986.00, 
1987.00, 
1988.00, 
1989.00, 
1990.00, 
1991.00, 
1992.00, 
1993.00, 
1994.00, 
1995.00, 
1996.00, 
1997.00, 
1998.00, 
1999.00, 
2000.00, 
2001.00, 
2002.00, 
2003.00, 
2004.00, 
2005.00, 
2006.00, 
2007.00, 
2008.00, 
2009.00, 
2010.00, 
2011.00, 
2012.00, 
2013.00, 
2014.00, 
2015.00, 
2016.00, 
2017.00, 
2018.00, 
2019.00, 
2020.00, 
2021.00, 
2022.00, 
2023.00, 
2024.00, 
2025.00, 
2026.00, 
2027.00, 
2028.00, 
2029.00, 
2030.00, 
2031.00, 
2032.00, 
2033.00, 
2034.00, 
2035.00, 
2036.00, 
2037.00, 
2038.00, 
2039.00, 
2040.00, 
2041.00, 
2042.00, 
2043.00, 
2044.00, 
2045.00, 
2046.00, 
2047.00, 
2048.00, 
2049.00, 
2050.00, 
2051.00, 
2052.00, 
2053.00, 
2054.00, 
2055.00, 
2056.00, 
2057.00, 
2058.00, 
2059.00, 
2060.00, 
2061.00, 
2062.00, 
2063.00, 
2064.00, 
2065.00, 
2066.00, 
2067.00, 
2068.00, 
2069.00, 
2070.00, 
2071.00, 
2072.00, 
2073.00, 
2074.00, 
2075.00, 
2076.00, 
2077.00, 
2078.00, 
2079.00, 
2080.00, 
2081.00, 
2082.00, 
2083.00, 
2084.00, 
2085.00, 
2086.00, 
2087.00, 
2088.00, 
2089.00, 
2090.00, 
2091.00, 
2092.00, 
2093.00, 
2094.00, 
2095.00, 
2096.00, 
2097.00, 
2098.00, 
2099.00, 
2100.00, 
2101.00, 
2102.00, 
2103.00, 
2104.00, 
2105.00, 
2106.00, 
2107.00, 
2108.00, 
2109.00, 
2110.00, 
2111.00, 
2112.00, 
2113.00, 
2114.00, 
2115.00, 
2116.00, 
2117.00, 
2118.00, 
2119.00, 
2120.00, 
2121.00, 
2122.00, 
2123.00, 
2124.00, 
2125.00, 
2126.00, 
2127.00, 
2128.00, 
2129.00, 
2130.00, 
2131.00, 
2132.00, 
2133.00, 
2134.00, 
2135.00, 
2136.00, 
2137.00, 
2138.00, 
2139.00, 
2140.00, 
2141.00, 
2142.00, 
2143.00, 
2144.00, 
2145.00, 
2146.00, 
2147.00, 
2148.00, 
2149.00, 
2150.00, 
2151.00, 
2152.00, 
2153.00, 
2154.00, 
2155.00, 
2156.00, 
2157.00, 
2158.00, 
2159.00, 
2160.00, 
2161.00, 
2162.00, 
2163.00, 
2164.00, 
2165.00, 
2166.00, 
2167.00, 
2168.00, 
2169.00, 
2170.00, 
2171.00, 
2172.00, 
2173.00, 
2174.00, 
2175.00, 
2176.00, 
2177.00, 
2178.00, 
2179.00, 
2180.00, 
2181.00, 
2182.00, 
2183.00, 
2184.00, 
2185.00, 
2186.00, 
2187.00, 
2188.00, 
2189.00, 
2190.00, 
2191.00, 
2192.00, 
2193.00, 
2194.00, 
2195.00, 
2196.00, 
2197.00, 
2198.00, 
2199.00, 
2200.00, 
2201.00, 
2202.00, 
2203.00, 
2204.00, 
2205.00, 
2206.00, 
2207.00, 
2208.00, 
2209.00, 
2210.00, 
2211.00, 
2212.00, 
2213.00, 
2214.00, 
2215.00, 
2216.00, 
2217.00, 
2218.00, 
2219.00, 
2220.00, 
2221.00, 
2222.00, 
2223.00, 
2224.00, 
2225.00, 
2226.00, 
2227.00, 
2228.00, 
2229.00, 
2230.00, 
2231.00, 
2232.00, 
2233.00, 
2234.00, 
2235.00, 
2236.00, 
2237.00, 
2238.00, 
2239.00, 
2240.00, 
2241.00, 
2242.00, 
2243.00, 
2244.00, 
2245.00, 
2246.00, 
2247.00, 
2248.00, 
2249.00, 
2250.00, 
2251.00, 
2252.00, 
2253.00, 
2254.00, 
2255.00, 
2256.00, 
2257.00, 
2258.00, 
2259.00, 
2260.00, 
2261.00, 
2262.00, 
2263.00, 
2264.00, 
2265.00, 
2266.00, 
2267.00, 
2268.00, 
2269.00, 
2270.00, 
2271.00, 
2272.00, 
2273.00, 
2274.00, 
2275.00, 
2276.00, 
2277.00, 
2278.00, 
2279.00, 
2280.00, 
2281.00, 
2282.00, 
2283.00, 
2284.00, 
2285.00, 
2286.00, 
2287.00, 
2288.00, 
2289.00, 
2290.00, 
2291.00, 
2292.00, 
2293.00, 
2294.00, 
2295.00, 
2296.00, 
2297.00, 
2298.00, 
2299.00, 
2300.00, 
2301.00, 
2302.00, 
2303.00, 
2304.00, 
2305.00, 
2306.00, 
2307.00, 
2308.00, 
2309.00, 
2310.00, 
2311.00, 
2312.00, 
2313.00, 
2314.00, 
2315.00, 
2316.00, 
2317.00, 
2318.00, 
2319.00, 
2320.00, 
2321.00, 
2322.00, 
2323.00, 
2324.00, 
2325.00, 
2326.00, 
2327.00, 
2328.00, 
2329.00, 
2330.00, 
2331.00, 
2332.00, 
2333.00, 
2334.00, 
2335.00, 
2336.00, 
2337.00, 
2338.00, 
2339.00, 
2340.00, 
2341.00, 
2342.00, 
2343.00, 
2344.00, 
2345.00, 
2346.00, 
2347.00, 
2348.00, 
2349.00, 
2350.00, 
2351.00, 
2352.00, 
2353.00, 
2354.00, 
2355.00, 
2356.00, 
2357.00, 
2358.00, 
2359.00, 
2360.00, 
2361.00, 
2362.00, 
2363.00, 
2364.00, 
2365.00, 
2366.00, 
2367.00, 
2368.00, 
2369.00, 
2370.00, 
2371.00, 
2372.00, 
2373.00, 
2374.00, 
2375.00, 
2376.00, 
2377.00, 
2378.00, 
2379.00, 
2380.00, 
2381.00, 
2382.00, 
2383.00, 
2384.00, 
2385.00, 
2386.00, 
2387.00, 
2388.00, 
2389.00, 
2390.00, 
2391.00, 
2392.00, 
2393.00, 
2394.00, 
2395.00, 
2396.00, 
2397.00, 
2398.00, 
2399.00, 
2400.00, 
2401.00, 
2402.00, 
2403.00, 
2404.00, 
2405.00, 
2406.00, 
2407.00, 
2408.00, 
2409.00, 
2410.00, 
2411.00, 
2412.00, 
2413.00, 
2414.00, 
2415.00, 
2416.00, 
2417.00, 
2418.00, 
2419.00, 
2420.00, 
2421.00, 
2422.00, 
2423.00, 
2424.00, 
2425.00, 
2426.00, 
2427.00, 
2428.00, 
2429.00, 
2430.00, 
2431.00, 
2432.00, 
2433.00, 
2434.00, 
2435.00, 
2436.00, 
2437.00, 
2438.00, 
2439.00, 
2440.00, 
2441.00, 
2442.00, 
2443.00, 
2444.00, 
2445.00, 
2446.00, 
2447.00, 
2448.00, 
2449.00, 
2450.00, 
2451.00, 
2452.00, 
2453.00, 
2454.00, 
2455.00, 
2456.00, 
2457.00, 
2458.00, 
2459.00, 
2460.00, 
2461.00, 
2462.00, 
2463.00, 
2464.00, 
2465.00, 
2466.00, 
2467.00, 
2468.00, 
2469.00, 
2470.00, 
2471.00, 
2472.00, 
2473.00, 
2474.00, 
2475.00, 
2476.00, 
2477.00, 
2478.00, 
2479.00, 
2480.00, 
2481.00, 
2482.00, 
2483.00, 
2484.00, 
2485.00, 
2486.00, 
2487.00, 
2488.00, 
2489.00, 
2490.00, 
2491.00, 
2492.00, 
2493.00, 
2494.00, 
2495.00, 
2496.00, 
2497.00, 
2498.00, 
2499.00, 
2500.00, 
2501.00, 
2502.00, 
2503.00, 
2504.00, 
2505.00, 
2506.00, 
2507.00, 
2508.00, 
2509.00, 
2510.00, 
2511.00, 
2512.00, 
2513.00, 
2514.00, 
2515.00, 
2516.00, 
2517.00, 
2518.00, 
2519.00, 
2520.00, 
2521.00, 
2522.00, 
2523.00, 
2524.00, 
2525.00, 
2526.00, 
2527.00, 
2528.00, 
2529.00, 
2530.00, 
2531.00, 
2532.00, 
2533.00, 
2534.00, 
2535.00, 
2536.00, 
2537.00, 
2538.00, 
2539.00, 
2540.00, 
2541.00, 
2542.00, 
2543.00, 
2544.00, 
2545.00, 
2546.00, 
2547.00, 
2548.00, 
2549.00, 
2550.00, 
2551.00, 
2552.00, 
2553.00, 
2554.00, 
2555.00, 
2556.00, 
2557.00, 
2558.00, 
2559.00, 
2560.00, 
2561.00, 
2562.00, 
2563.00, 
2564.00, 
2565.00, 
2566.00, 
2567.00, 
2568.00, 
2569.00, 
2570.00, 
2571.00, 
2572.00, 
2573.00, 
2574.00, 
2575.00, 
2576.00, 
2577.00, 
2578.00, 
2579.00, 
2580.00, 
2581.00, 
2582.00, 
2583.00, 
2584.00, 
2585.00, 
2586.00, 
2587.00, 
2588.00, 
2589.00, 
2590.00, 
2591.00, 
2592.00, 
2593.00, 
2594.00, 
2595.00, 
2596.00, 
2597.00, 
2598.00, 
2599.00, 
2600.00, 
